    HOUR (UT)   FLARE FACTOR    SKY TESTER    SUN TESTER
   11.26972198   -1.00000000   -1.00000000   -1.00000000
   11.31416702  114.82900238    1.09000003    2.61999989
   11.31972218  127.33300018    1.09000003    2.64000010
   11.32277775  119.79900360    1.09000003    2.64000010
   11.32611084  126.12100220    1.07000005    2.64000010
   11.32916641  133.52699280    1.09000003    2.61999989
   11.33249950  130.99400330    1.09000003    2.61999989
   11.33555508   77.66269684    1.07000005    2.64000010
   11.33888817  109.83000183    1.07000005    2.61999989
   11.34194374  124.80100250    1.09000003    2.64000010
   11.34527779  119.62799835    1.09000003    2.64000010
   11.34749985  130.88699341    1.07000005    2.61999989
   11.34861088  128.39999390    1.07000005    2.61999989
   11.35194492  126.34200287    1.09000003    2.64000010
   11.35500050  116.93599701    1.09000003    2.64000010
   11.35833359  133.49200439    1.09000003    2.64000010
   11.36138916  123.97899628    1.07000005    2.64000010
   11.36472225  129.64500427    1.09000003    2.64000010
   11.36777782  118.31300354    1.07000005    2.64000010
   11.37111092  127.94300079    1.07000005    2.64000010
   11.37416649  133.10899353    1.07000005    2.64000010
   11.37750053  126.23000336    1.07000005    2.64000010
   11.38055611  133.00500488    1.07000005    2.64000010
   11.38388920  132.01699829    1.07000005    2.64000010
   11.38694477  136.40899658    1.09000003    2.64000010
   11.39027786  134.69500732    1.09000003    2.64000010
   11.39333344  128.37399292    1.09000003    2.64000010
   11.39666653  126.68900299    1.09000003    2.64000010
   11.39750004  125.42600250    1.11000001    2.64000010
   11.39999962  126.24199677    1.09000003    2.64000010
   11.40333271  136.67700195    1.09000003    2.64000010
   11.40638828  128.30599976    1.11000001    2.64000010
   11.40972137  134.17399597    1.09000003    2.66000009
   11.41277695  132.95700073    1.11000001    2.66000009
   11.41611099  129.64599609    1.11000001    2.66000009
   11.41916656  130.16200256    1.11000001    2.66000009
   11.42250061  134.51699829    1.11000001    2.66000009
   11.42555618  135.81599426    1.11000001    2.66000009
   11.42888927  124.80899811    1.11000001    2.66000009
   11.43194485  136.01100159    1.09000003    2.66000009
   11.43527794  135.57899475    1.11000001    2.66000009
   11.43833351  118.09500122    1.09000003    2.66000009
   11.44166660  137.69000244    1.11000001    2.66000009
   11.44472218  130.51600647    1.09000003    2.66000009
   11.44750023  135.38400269    1.09000003    2.66000009
   11.44833374  125.39900208    1.09000003    2.66000009
   11.45166683  126.56800079    1.07000005    2.66000009
   11.45499992  135.70700073    1.07000005    2.66000009
   11.45805550  140.92799377    1.09000003    2.66000009
   11.46138859  135.42399597    1.05999994    2.67000008
   11.46444416  130.47900391    1.05999994    2.67000008
   11.46777725  131.49400330    1.05999994    2.66000009
   11.47083282  146.13999939    1.05999994    2.67000008
   11.47416592  144.04699707    1.05999994    2.66000009
   11.47722149  136.07600403    1.05999994    2.66000009
   11.48055553  133.02200317    1.05999994    2.67000008
   11.48361111  131.69799805    1.05999994    2.67000008
   11.48694515  124.77600098    1.09000003    2.67000008
   11.49000072  127.95899963    1.05999994    2.66000009
   11.49333382  139.87899780    1.05999994    2.67000008
   11.49638939  147.71200562    1.05999994    2.67000008
   11.49750042  133.45599365    1.05999994    2.67000008
   11.49972248  141.78999329    1.05999994    2.67000008
   11.50305557  132.00900269    1.05999994    2.67000008
   11.50611115  131.58799744    1.05999994    2.67000008
   11.50944424  128.80200195    1.05999994    2.69000006
   11.51249981  133.83099365    1.05999994    2.67000008
   11.51583290  123.65000153    1.07000005    2.67000008
   11.51888847  129.41099548    1.05999994    2.67000008
   11.52222157  136.80599976    1.05999994    2.69000006
   11.52527714  133.34800720    1.05999994    2.67000008
   11.52861118  122.50800323    1.03999996    2.67000008
   11.53166676  135.09300232    1.03999996    2.67000008
   11.53500080  124.53800201    1.05999994    2.67000008
   11.53805637  136.34100342    1.05999994    2.69000006
   11.54138947  140.22999573    1.05999994    2.69000006
   11.54472256  132.78300476    1.05999994    2.69000006
   11.54750061  131.83999634    1.03999996    2.67000008
   11.54805565  138.87100220    1.03999996    2.67000008
   11.55138874  138.55999756    1.05999994    2.69000006
   11.55444431  137.15800476    1.05999994    2.69000006
   11.55777836  133.90699768    1.05999994    2.69000006
   11.56083393  131.76899719    1.05999994    2.69000006
   11.56416702  128.89500427    1.05999994    2.69000006
   11.56722260  130.18699646    1.03999996    2.69000006
   11.57055569  140.14100647    1.05999994    2.69000006
   11.57361126  142.16099548    1.03999996    2.69000006
   11.57694435  133.15600586    1.03999996    2.69000006
   11.57999992  141.49699402    1.03999996    2.71000004
   11.58333302  138.78900146    1.03999996    2.69000006
   11.58638859  135.03599548    1.03999996    2.71000004
   11.58972168  142.78799438    1.05999994    2.69000006
   11.59277725  135.61700439    1.05999994    2.71000004
   11.59611034  128.64799500    1.09000003    2.71000004
   11.59749985  143.46800232    1.09000003    2.71000004
   11.59972191  125.66999817    1.09000003    2.71000004
   11.60277843  140.63099670    1.09000003    2.71000004
   11.60611153  133.26499939    1.11000001    2.71000004
   11.60916710  128.52900696    1.11000001    2.71000004
   11.61250019  143.90800476    1.09000003    2.71000004
   11.61555576  138.41600037    1.09000003    2.71000004
   11.61888885  123.46399689    1.07000005    2.71000004
   11.62194443  144.14999390    1.07000005    2.69000006
   11.62527752  136.39799500    1.05999994    2.71000004
   11.62833309  129.00799561    1.09000003    2.69000006
   11.63166714  122.94699860    1.07000005    2.71000004
   11.63472176  130.44299316    1.07000005    2.71000004
   11.63805580  126.06199646    1.09000003    2.71000004
   11.64111137  142.12699890    1.07000005    2.71000004
   11.64444447  144.01300049    1.01999998    2.71000004
   11.64750004  132.72000122    1.05999994    2.71000004
   11.64805508  147.88800049    1.05999994    2.71000004
   11.65111065  127.68099976    1.03999996    2.71000004
   11.65416622  123.48000336    1.05999994    2.73000002
   11.65749931  124.15599823    1.05999994    2.71000004
   11.66055489  131.87500000    1.07000005    2.71000004
   11.66388893  113.22100067    1.09000003    2.71000004
   11.66694450  122.25399780    1.11000001    2.71000004
   11.67027855  139.21400452    1.14999998    2.73000002
   11.67333412  139.72000122    1.16999996    2.71000004
   11.67666721  138.58399963    1.16999996    2.71000004
   11.67972279  134.63499451    1.16999996    2.71000004
   11.68305588  142.47399902    1.16999996    2.71000004
   11.68611145  136.13600159    1.16999996    2.71000004
   11.68944454  128.96600342    1.13000000    2.71000004
   11.69250011  139.99499512    1.09000003    2.71000004
   11.69583321  141.99600220    1.05999994    2.71000004
   11.69750023  133.67399597    1.05999994    2.71000004
   11.69944477  136.22700500    1.05999994    2.71000004
   11.70249939  140.57000732    1.05999994    2.71000004
   11.70583344  133.70799255    1.03999996    2.73000002
   11.70888901  137.17199707    1.09000003    2.69000006
   11.71222210  128.25599670    1.09000003    2.69000006
   11.71527767  129.82299805    1.05999994    2.73000002
   11.71861076  128.72900391    1.07000005    2.73000002
   11.72166634  113.62500000    1.03999996    2.73000002
   11.72499943  133.10400391    1.03999996    2.73000002
   11.72805500  150.22300720    1.01999998    2.73000002
   11.73138809  123.49600220    1.01999998    2.73000002
   11.73444462  120.87999725    1.01999998    2.73000002
   11.73777771  132.93400574    1.03999996    2.73000002
   11.74111176  140.84599304    1.03999996    2.73000002
   11.74416733  131.43200684    1.09000003    2.73000002
   11.74750042  133.56700134    1.11000001    2.73000002
   11.74777794  127.98300171    1.11000001    2.73000002
   11.75111103  125.40499878    1.11000001    2.73000002
   11.75416660  126.97899628    1.11000001    2.73000002
   11.75749969  127.87699890    1.11000001    2.73000002
   11.76055527  128.18099976    1.11000001    2.73000002
   11.76388931  138.54200745    1.09000003    2.73000002
   11.76694393  137.53100586    1.05999994    2.73000002
   11.77027798  136.78300476    1.03999996    2.73000002
   11.77333355  125.92400360    1.01999998    2.73000002
   11.77666664  135.54600525    1.01999998    2.73000002
   11.77972221  128.52200317    1.05999994    2.73000002
   11.78305531  138.69200134    1.09000003    2.73000002
   11.78611183  136.16499329    1.09000003    2.73000002
   11.78944492  123.52999878    1.07000005    2.73000002
   11.79250050  132.52499390    1.03999996    2.75000000
   11.79583359  133.30599976    1.01999998    2.73000002
   11.79777813  133.36900330    0.98000002    2.73000002
   11.79944515  127.85299683    0.95999998    2.73000002
   11.80249977  134.79100037    0.94000000    2.75000000
   11.80583382  139.35299683    0.92000002    2.73000002
   11.80888939  130.49800110    0.92000002    2.73000002
   11.81222248  139.85899353    0.94000000    2.73000002
   11.81527805  131.99400330    0.94000000    2.75000000
   11.81861115  122.42700195    0.94000000    2.76999998
   11.82166672  140.86999512    0.95999998    2.75000000
   11.82499981  129.85600281    0.94000000    2.75000000
   11.82805538  139.03900146    0.95999998    2.75000000
   11.83138847  139.56300354    0.94000000    2.75000000
   11.83444405  138.13600159    0.94000000    2.75000000
   11.83777714  125.67800140    0.95999998    2.75000000
   11.84083271  127.33799744    0.98000002    2.73000002
   11.84416676  145.57499695    0.98000002    2.75000000
   11.84722233  137.28900146    1.00000000    2.75000000
   11.84777737  135.78100586    1.00000000    2.75000000
   11.85083389  138.45899963    1.03999996    2.75000000
   11.85388947  141.11999512    1.03999996    2.75000000
   11.85722256  137.55700684    1.03999996    2.75000000
   11.86027813  136.16099548    1.03999996    2.75000000
   11.86361122  130.81599426    1.03999996    2.75000000
   11.86666679  137.64700317    1.00000000    2.75000000
   11.86999989  125.99900055    1.00000000    2.75000000
   11.87305546  136.43200684    0.95999998    2.75000000
   11.87638855  135.80099487    0.94000000    2.75000000
   11.87944412  141.46400452    0.94000000    2.75000000
   11.88277817  134.69900513    0.92000002    2.76999998
   11.88583279  136.37500000    0.92000002    2.75000000
   11.88916683  136.80499268    0.92000002    2.76999998
   11.89222240  132.40699768    0.92000002    2.76999998
   11.89555550  135.01400757    0.94000000    2.76999998
   11.89777756  134.05799866    0.94000000    2.75000000
   11.89916611  135.20399475    0.92000002    2.75000000
   11.90222168  142.05900574    0.94000000    2.75000000
   11.90555477  141.45599365    0.94000000    2.75000000
   11.90861034  137.03900146    0.94000000    2.76999998
   11.91194439  137.42999268    0.94000000    2.76999998
   11.91499996  135.35600281    0.98000002    2.75000000
   11.91833401  141.29100037    0.98000002    2.76999998
   11.92138958  140.93200684    0.98000002    2.75000000
   11.92472267  136.64799500    0.95999998    2.75000000
   11.92777824  144.85800171    0.94000000    2.78999996
   11.93111134  144.02400208    0.94000000    2.78999996
   11.93416691  139.21099854    0.94000000    2.75000000
   11.93750000  142.44999695    0.94000000    2.76999998
   11.94055557  137.30900574    0.94000000    2.76999998
   11.94388866  136.13999939    0.92000002    2.76999998
   11.94694424  139.28399658    0.92000002    2.76999998
   11.94777775  148.10699463    0.92000002    2.76999998
   11.95055580  143.40199280    0.89999998    2.78999996
   11.95361137  129.08399963    0.88000000    2.78999996
   11.95694447  136.29200745    0.92000002    2.78999996
   11.96027756  144.98699951    0.88000000    2.76999998
   11.96333313  141.60299683    0.86000001    2.76999998
   11.96666622  129.65299988    0.86000001    2.76999998
   11.96972179  130.55599976    0.88000000    2.78999996
   11.97305489  133.46400452    0.81999999    2.78999996
   11.97611046  134.72399902    0.83999997    2.76999998
   11.97944355  138.25799561    0.83999997    2.76999998
   11.98249912  142.17599487    0.86000001    2.76999998
   11.98583317  151.55200195    0.83999997    2.78999996
   11.98888874  144.84700012    0.81999999    2.76999998
   11.99222279  150.93899536    0.88000000    2.78999996
   11.99527836  165.71499634    0.83999997    2.78999996
   11.99805546  164.32699585    0.83999997    2.78999996
   11.99888897  157.50999451    0.83999997    2.78999996
   12.00194454  162.70799255    0.86000001    2.78999996
   12.00527763  166.50199890    0.86000001    2.78999996
   12.00833321  160.59300232    0.86000001    2.78999996
   12.01166630  168.74899292    0.89999998    2.76999998
   12.01472187  164.15699768    0.86000001    2.78999996
   12.01805496  157.16299438    0.88000000    2.78999996
   12.02111053  152.56500244    0.86000001    2.78999996
   12.02444458  151.17900085    0.88000000    2.78999996
   12.02861118  146.65800476    0.86000001    2.78999996
   12.03277779  148.96299744    0.86000001    2.78999996
   12.03583336  143.11799622    0.86000001    2.78999996
   12.03916740  140.10000610    0.81999999    2.78999996
   12.04333401  145.46400452    0.81999999    2.78999996
   12.04666710  147.20300293    0.86000001    2.78999996
   12.04972267  140.27499390    0.81999999    2.80999994
   12.05249977  148.00500488    0.81999999    2.78999996
   12.05555534  137.37399292    0.80000001    2.78999996
   12.06000042  142.26199341    0.80000001    2.80999994
   12.06361103  141.25300598    0.80000001    2.78999996
   12.06722260  145.43899536    0.79000002    2.80999994
   12.07083321  141.96600342    0.80000001    2.78999996
   12.07416630  140.01899719    0.80000001    2.78999996
   12.07722187  135.05000305    0.79000002    2.78999996
   12.08055592  153.22099304    0.79000002    2.78999996
   12.08361053  144.71000671    0.79000002    2.78999996
   12.08694458  141.19999695    0.79000002    2.78999996
   12.09000015  131.27699280    0.79000002    2.78999996
   12.09333324  139.68800354    0.76999998    2.80999994
   12.09638882  142.33000183    0.79000002    2.78999996
   12.09777737  143.55099487    0.76999998    2.78999996
   12.10000038  130.05099487    0.79000002    2.78999996
   12.10305595  134.24800110    0.76999998    2.78999996
   12.10638905  129.39100647    0.79000002    2.80999994
   12.10944462  122.18199921    0.79000002    2.80999994
   12.11277771  135.24899292    0.80000001    2.78999996
   12.11583328  142.35600281    0.80000001    2.80999994
   12.11916637  143.89199829    0.80000001    2.80999994
   12.12222195  137.30299377    0.80000001    2.80999994
   12.12555599  132.81599426    0.79000002    2.78999996
   12.12888908  130.60299683    0.79000002    2.80999994
   12.13194466  136.22999573    0.79000002    2.80999994
   12.13527775  133.41200256    0.79000002    2.82999992
   12.13833332  128.84899902    0.79000002    2.80999994
   12.14166641  125.04699707    0.79000002    2.80999994
   12.14472198  131.68600464    0.80000001    2.80999994
   12.14805508  138.06500244    0.79000002    2.80999994
   12.14833355  139.57400513    0.79000002    2.80999994
   12.15138817  131.38299561    0.79000002    2.82999992
   12.15472221  133.46899414    0.79000002    2.80999994
   12.15777779  137.47700500    0.80000001    2.78999996
   12.16111088  130.73699951    0.79000002    2.80999994
   12.16416645  131.66299438    0.79000002    2.80999994
   12.16750050  129.80299377    0.79000002    2.80999994
   12.17055607  140.67300415    0.80000001    2.82999992
   12.17388916  148.07200623    0.81999999    2.80999994
   12.17694473  134.39500427    0.80000001    2.80999994
   12.18027782  125.06900024    0.80000001    2.80999994
   12.18333340  137.73399353    0.80000001    2.82999992
   12.18666649  127.95099640    0.80000001    2.80999994
   12.18972206  122.74700165    0.81999999    2.80999994
   12.19305515  134.93600464    0.80000001    2.82999992
   12.19611073  122.06199646    0.81999999    2.82999992
   12.19805527  131.06700134    0.81999999    2.82999992
   12.19972229  136.75900269    0.80000001    2.80999994
   12.20305538  135.86799622    0.81999999    2.82999992
   12.20611095  135.34899902    0.81999999    2.80999994
   12.20944405  132.71000671    0.81999999    2.82999992
   12.21249962  129.85099792    0.80000001    2.80999994
   12.21583271  122.83300018    0.80000001    2.80999994
   12.21888828  129.76499939    0.80000001    2.80999994
   12.22222137  121.20200348    0.81999999    2.80999994
   12.22527695  132.58799744    0.80000001    2.80999994
   12.22861099  132.78399658    0.79000002    2.80999994
   12.23166656  123.46099854    0.79000002    2.80999994
   12.23500061  128.27099609    0.81999999    2.82999992
   12.23805618  121.38700104    0.80000001    2.82999992
   12.24138927  125.76300049    0.80000001    2.80999994
   12.24444485  188.66499329    0.80000001    2.82999992
   12.24777794  124.94599915    0.80000001    2.80999994
   12.24805546  136.22599792    0.79000002    2.82999992
   12.25138855  124.75000000    0.79000002    2.82999992
   12.25444412  133.56100464    0.79000002    2.82999992
   12.25777817  133.11000061    0.79000002    2.80999994
   12.26083374  126.34999847    0.79000002    2.82999992
   12.26416683  117.84999847    0.79000002    2.82999992
   12.26722240  133.03399658    0.79000002    2.82999992
   12.27055550  125.65899658    0.79000002    2.82999992
   12.27361107  133.02600098    0.76999998    2.82999992
   12.27694416  127.75599670    0.79000002    2.82999992
   12.27999973  130.22900391    0.79000002    2.82999992
   12.28333378  135.63000488    0.76999998    2.82999992
   12.28638935  127.19200134    0.76999998    2.82999992
   12.28972244  137.40800476    0.79000002    2.82999992
   12.29277802  132.89999390    0.76999998    2.82999992
   12.29611111  125.47799683    0.75000000    2.82999992
   12.29805565  111.76100159    0.75000000    2.82999992
   12.29972267  129.46099854    0.73000002    2.84999990
   12.30277824  128.27000427    0.73000002    2.82999992
   12.30611134  111.65299988    0.73000002    2.82999992
   12.30916691  118.77300262    0.70999998    2.82999992
   12.31250000  133.43299866    0.73000002    2.84999990
   12.33222198  118.36499786    0.67000002    2.82999992
   12.33527756  123.29499817    0.69000000    2.84999990
   12.33861065  125.27600098    0.69000000    2.82999992
   12.34166622  125.61499786    0.67000002    2.82999992
   12.34499931  130.27799988    0.67000002    2.84999990
   12.34805489  128.37899780    0.67000002    2.84999990
   12.34861088  112.83799744    0.67000002    2.84999990
   12.35194492  127.36900330    0.69000000    2.84999990
   12.35500050  130.95899963    0.69000000    2.84999990
   12.35833359  123.16100311    0.70999998    2.84999990
   12.36138916  126.27500153    0.70999998    2.82999992
   12.36472225  125.54399872    0.69000000    2.84999990
   12.36777782  128.00000000    0.67000002    2.82999992
   12.37111092  122.87799835    0.67000002    2.84999990
   12.37416649  133.13000488    0.67000002    2.82999992
   12.37750053  140.72799683    0.67000002    2.84999990
   12.38055611  133.50500488    0.69000000    2.84999990
   12.38388920  128.98599243    0.69000000    2.84999990
   12.38694477  137.70100403    0.69000000    2.84999990
   12.39027786  125.72799683    0.67000002    2.84999990
   12.39333344  129.23500061    0.67000002    2.84999990
   12.39666653  129.60000610    0.69000000    2.84999990
   12.39861107  123.08100128    0.67000002    2.84999990
   12.39999962  129.93200684    0.67000002    2.84999990
   12.40333271  132.63900757    0.64999998    2.84999990
   12.40638828  126.83499908    0.67000002    2.84999990
   12.40972137  117.48899841    0.67000002    2.84999990
   12.41277695  112.87300110    0.67000002    2.86999989
   12.41611099  115.20899963    0.69000000    2.84999990
   12.41916656  125.56999969    0.64999998    2.84999990
   12.42250061  122.98400116    0.67000002    2.86999989
   12.42555618  110.74600220    0.67000002    2.82999992
   12.42888927  118.44100189    0.69000000    2.84999990
   12.43194485  119.69899750    0.70999998    2.84999990
   12.43527794  116.55000305    0.69000000    2.84999990
   12.43833351  123.10099792    0.69000000    2.84999990
   12.44166660  117.98899841    0.70999998    2.86999989
   12.44472218  124.44100189    0.69000000    2.86999989
   12.44805527  124.42299652    0.69000000    2.84999990
   12.44861126  122.02600098    0.69000000    2.84999990
   12.45166683  122.36199951    0.69000000    2.86999989
   12.45472240  120.51799774    0.69000000    2.84999990
   12.45805550  122.31400299    0.70999998    2.84999990
   12.46111107  122.10900116    0.73000002    2.84999990
   12.46444416  127.97699738    0.69000000    2.84999990
   12.46749973  121.09700012    0.70999998    2.84999990
   12.47083282  124.21399689    0.69000000    2.84999990
   12.47388840  119.42099762    0.69000000    2.84999990
   12.47722149  119.83200073    0.70999998    2.86999989
   12.48027706  116.64700317    0.70999998    2.84999990
   12.48361111  111.48500061    0.70999998    2.86999989
   12.48666668  116.89399719    0.70999998    2.86999989
   12.49000072  118.89499664    0.70999998    2.84999990
   12.49305534  117.94200134    0.73000002    2.84999990
   12.49638939  115.95099640    0.73000002    2.84999990
   12.49861145  109.01999664    0.73000002    2.84999990
   12.50000000  115.04699707    0.75000000    2.86999989
   12.50305557  119.57099915    0.73000002    2.84999990
   12.50638866  119.21199799    0.75000000    2.86999989
   12.50944424  124.65899658    0.73000002    2.84999990
   12.51277733  119.07900238    0.75000000    2.84999990
   12.51583290  117.88899994    0.75000000    2.86999989
   12.51916599  122.12400055    0.73000002    2.84999990
   12.52222157  121.06600189    0.73000002    2.86999989
   12.52555561  110.05699921    0.70999998    2.84999990
   12.52861118  116.54399872    0.70999998    2.84999990
   12.53194427  102.59999847    0.73000002    2.86999989
   12.53500080  119.10600281    0.70999998    2.84999990
   12.53833389  118.49800110    0.73000002    2.84999990
   12.54138947  109.07199860    0.73000002    2.84999990
   12.54472256  111.82299805    0.73000002    2.86999989
   12.54777813  111.97200012    0.75000000    2.86999989
   12.54861164  114.90299988    0.70999998    2.86999989
   12.55138874  114.80799866    0.70999998    2.84999990
   12.55444431  106.85500336    0.70999998    2.84999990
   12.55777836  113.74299622    0.70999998    2.84999990
   12.56083393  107.75900269    0.67000002    2.86999989
   12.56416702  109.99900055    0.67000002    2.86999989
   12.56722260  104.08200073    0.69000000    2.86999989
   12.57055569  109.13899994    0.69000000    2.86999989
   12.57361126  108.77700043    0.69000000    2.86999989
   12.57694435  109.47399902    0.69000000    2.86999989
   12.57999992  110.80000305    0.67000002    2.84999990
   12.58333302  106.87599945    0.69000000    2.86999989
   12.58638859  107.99800110    0.67000002    2.84999990
   12.58972168  107.33000183    0.67000002    2.89000010
   12.59277725  114.30899811    0.67000002    2.86999989
   12.59611034  103.11000061    0.67000002    2.86999989
   12.59861088  106.24400330    0.67000002    2.86999989
   12.59972191  104.33799744    0.67000002    2.86999989
   12.60277843  106.16699982    0.64999998    2.86999989
   12.60611153  127.17199707    0.69000000    2.84999990
   12.60916710  111.88300323    0.64999998    2.86999989
   12.61250019  102.01399994    0.67000002    2.86999989
   12.61555576   97.47689819    0.67000002    2.86999989
   12.61861134  101.48799896    0.67000002    2.86999989
   12.62194443   98.68800354    0.67000002    2.86999989
   12.62527752  106.30400085    0.69000000    2.86999989
   12.62833309  110.00499725    0.69000000    2.86999989
   12.63166714  111.64099884    0.69000000    2.86999989
   12.63472176  109.04499817    0.69000000    2.86999989
   12.63805580  111.55000305    0.69000000    2.86999989
   12.64111137  105.92099762    0.70999998    2.84999990
   12.64444447   98.85230255    0.70999998    2.86999989
   12.64750004  101.31600189    0.70999998    2.86999989
   12.64861107  101.73699951    0.70999998    2.84999990
   12.65111065  103.67900085    0.73000002    2.86999989
   12.65416622  105.19200134    0.73000002    2.86999989
   12.65749931  104.05200195    0.70999998    2.86999989
   12.66055489  100.34799957    0.70999998    2.86999989
   12.66388893  111.27300262    0.70999998    2.89000010
   12.66694450  110.32299805    0.70999998    2.86999989
   12.67027855  108.62000275    0.69000000    2.86999989
   12.67333412  111.36499786    0.69000000    2.89000010
   12.67666721  110.09400177    0.69000000    2.89000010
   12.67972279  110.64199829    0.63000000    2.89000010
   12.68305588  102.67900085    0.63000000    2.89000010
   12.68611145  109.26999664    0.63000000    2.86999989
   12.68944454  106.89199829    0.63000000    2.89000010
   12.69250011  109.63600159    0.61000001    2.86999989
   12.69583321  113.79199982    0.63000000    2.89000010
   12.69861126  103.08699799    0.61000001    2.89000010
   12.69944477  104.67199707    0.58999997    2.89000010
   12.70249939  100.90200043    0.61000001    2.89000010
   12.70583344  115.43800354    0.58999997    2.89000010
   12.70888901  101.55799866    0.58999997    2.89000010
   12.71194458   98.78839874    0.58999997    2.89000010
   12.71527767   99.71920013    0.61000001    2.89000010
   12.71861076  112.72699738    0.58999997    2.89000010
   12.72166634   99.64910126    0.61000001    2.89000010
   12.72472191  112.71900177    0.61000001    2.86999989
   12.72805500  104.81400299    0.61000001    2.89000010
   12.73111057  113.61699677    0.58999997    2.89000010
   12.73444462  103.50800323    0.58999997    2.89000010
   12.73777771  113.03500366    0.58999997    2.91000009
   12.74083328  113.97399902    0.61000001    2.89000010
   12.74416733  110.79799652    0.61000001    2.89000010
   12.74722290  108.69100189    0.58999997    2.89000010
   12.74861145  108.76599884    0.58999997    2.89000010
   12.75083351  105.10600281    0.58999997    2.89000010
   12.75388908  109.51300049    0.58999997    2.89000010
   12.75722218  116.79199982    0.58999997    2.89000010
   12.76027775   85.49980164    0.58999997    2.89000010
   12.76361084  107.25099945    0.58999997    2.89000010
   12.76666641  108.58399963    0.58999997    2.89000010
   12.76999950  117.71900177    0.58999997    2.91000009
   12.77305508  104.11199951    0.58999997    2.89000010
   12.77638817   99.37529755    0.58999997    2.89000010
   12.77944374  106.84500122    0.58999997    2.91000009
   12.78277779  114.30400085    0.61000001    2.89000010
   12.78583336  109.41000366    0.58999997    2.89000010
   12.78916740  116.63300323    0.61000001    2.89000010
   12.79222298  105.36100006    0.58999997    2.89000010
   12.79555607  123.57199860    0.61000001    2.91000009
   12.79861164  110.43199921    0.61000001    2.91000009
   12.79916668  114.76399994    0.61000001    2.89000010
   12.80222225  115.70500183    0.61000001    2.91000009
   12.80555534   76.16010284    0.61000001    2.89000010
   12.80861092  121.51899719    0.61000001    2.89000010
   12.81194496  117.30599976    0.61000001    2.91000009
   12.81500053  110.66200256    0.61000001    2.89000010
   12.81833363  117.45899963    0.63000000    2.89000010
   12.82138920  113.52700043    0.61000001    2.91000009
   12.82472229  106.31500244    0.61000001    2.89000010
   12.82777786  104.10500336    0.63000000    2.89000010
   12.83111095  116.85299683    0.61000001    2.91000009
   12.83416653  112.60700226    0.61000001    2.91000009
   12.83749962  105.75199890    0.61000001    2.91000009
   12.84055519  109.40799713    0.61000001    2.91000009
   12.84388828  111.09999847    0.61000001    2.91000009
   12.84694386  106.89399719    0.61000001    2.89000010
   12.84861088  120.96600342    0.61000001    2.89000010
   12.85055637  108.92700195    0.61000001    2.91000009
   12.85361195  108.64299774    0.61000001    2.91000009
   12.85694504  108.49199677    0.63000000    2.89000010
   12.86000061  107.96399689    0.61000001    2.89000010
   12.86333370  115.23799896    0.58999997    2.91000009
   12.86638927  102.60500336    0.63000000    2.89000010
   12.86972237  105.68800354    0.61000001    2.91000009
   12.87277794  113.89600372    0.61000001    2.91000009
   12.87611103  106.68399811    0.58999997    2.91000009
   12.87916660  109.27799988    0.58999997    2.91000009
   12.88249969  107.86399841    0.56999999    2.91000009
   12.88555527  109.47499847    0.58999997    2.91000009
   12.88888836  104.95700073    0.56999999    2.91000009
   12.89194393  111.29699707    0.56999999    2.91000009
   12.89527798  115.69999695    0.56999999    2.89000010
   12.89833355  106.96099854    0.58999997    2.91000009
   12.89888859  116.36599731    0.58999997    2.91000009
   12.90222168  102.20500183    0.58999997    2.91000009
   12.90527725  109.34999847    0.56999999    2.91000009
   12.90833282  113.85199738    0.58999997    2.91000009
   12.91166592  116.22100067    0.58999997    2.91000009
   12.91499996  100.50700378    0.56999999    2.91000009
   12.91805553  124.38600159    0.56999999    2.91000009
   12.92138958  111.48799896    0.58999997    2.91000009
   12.92444515  116.22200012    0.56999999    2.89000010
   12.92777824  109.71600342    0.56999999    2.91000009
   12.93083382  128.95700073    0.55000001    2.91000009
   12.93416691  105.29299927    0.58999997    2.91000009
   12.93722248  107.50000000    0.56999999    2.89000010
   12.94055557  108.20500183    0.56999999    2.91000009
   12.94361115  114.15000153    0.56999999    2.91000009
   12.94666672  108.39900208    0.58999997    2.89000010
   12.94888878  108.94000244    0.61000001    2.91000009
   12.95055580  111.95400238    0.58999997    2.91000009
   12.95361137  112.52799988    0.61000001    2.91000009
   12.95694447  108.76499939    0.58999997    2.91000009
   12.96000004   97.87989807    0.61000001    2.91000009
   12.96305561  101.67099762    0.61000001    2.91000009
   12.96638870  103.68399811    0.63000000    2.91000009
   12.96944427  107.10399628    0.61000001    2.91000009
   12.97305489   95.62930298    0.61000001    2.93000007
   12.97611046  101.18900299    0.61000001    2.91000009
   12.97916603  104.44899750    0.61000001    2.93000007
   12.98249912  109.21099854    0.58999997    2.93000007
   12.98555565  105.94899750    0.58999997    2.91000009
   12.98888874  110.54299927    0.56999999    2.91000009
   12.99194431  108.03900146    0.61000001    2.93000007
   12.99527836  100.81999969    0.56999999    2.89000010
   12.99833393  111.59700012    0.56999999    2.91000009
   12.99888897  112.13500214    0.58999997    2.91000009
   13.00194454  104.55699921    0.58999997    2.91000009
   13.00500011  110.49900055    0.58999997    2.91000009
   13.00833321  114.17600250    0.58999997    2.93000007
   13.01138878  108.29799652    0.56999999    2.93000007
   13.01472187  109.01000214    0.56999999    2.91000009
   13.01777744  107.04799652    0.58999997    2.91000009
   13.02111053  111.61399841    0.58999997    2.93000007
   13.02416611  107.18199921    0.58999997    2.93000007
   13.02750015  105.52300262    0.61000001    2.93000007
   13.03055573   99.42780304    0.61000001    2.93000007
   13.03388977  112.69999695    0.61000001    2.91000009
   13.03694534  100.04199982    0.61000001    2.91000009
   13.04027843  102.20800018    0.61000001    2.91000009
   13.04333401  112.65799713    0.61000001    2.93000007
   13.04666710  103.69400024    0.61000001    2.93000007
   13.04888916  112.14099884    0.61000001    2.93000007
   13.05027771  105.09200287    0.61000001    2.93000007
   13.05333328  110.78299713    0.61000001    2.91000009
   13.05666733  116.26899719    0.58999997    2.91000009
   13.05972195  102.40299988    0.56999999    2.91000009
   13.06305599  107.62899780    0.58999997    2.93000007
   13.06611156  121.95800018    0.56999999    2.93000007
   13.06944466  113.42800140    0.55000001    2.93000007
   13.07250023  110.33599854    0.55000001    2.93000007
   13.07583332  105.54799652    0.56999999    2.93000007
   13.07888889  123.42400360    0.56999999    2.91000009
   13.08222198  114.28800201    0.58999997    2.93000007
   13.08527756  114.85700226    0.58999997    2.93000007
   13.08861065  118.17600250    0.58999997    2.91000009
   13.09166622  113.44699860    0.61000001    2.93000007
   13.09499931  113.24400330    0.61000001    2.93000007
   13.09805489  105.10299683    0.61000001    2.91000009
   13.09888840  118.16500092    0.61000001    2.91000009
   13.10166740  114.48200226    0.58999997    2.93000007
   13.10472298  116.82199860    0.61000001    2.93000007
   13.10805607  124.40499878    0.58999997    2.93000007
   13.11111164  121.50299835    0.61000001    2.93000007
   13.11444473  127.56300354    0.58999997    2.93000007
   13.11750031  104.98200226    0.58999997    2.93000007
   13.12083340  116.83799744    0.56999999    2.93000007
   13.12388897  108.34799957    0.58999997    2.93000007
   13.12722206  111.37599945    0.58999997    2.93000007
   13.13027763  120.55699921    0.56999999    2.91000009
   13.13361073  108.79699707    0.56999999    2.93000007
   13.13666630  109.63099670    0.63000000    2.93000007
   13.14000034  119.60900116    0.63000000    2.93000007
   13.14305496  110.51200104    0.61000001    2.93000007
   13.14638901  126.26699829    0.63000000    2.91000009
   13.14888859  115.09999847    0.64999998    2.93000007
   13.14999962  123.23200226    0.64999998    2.93000007
   13.15305519  114.56999969    0.67000002    2.93000007
   13.15638828  111.30300140    0.67000002    2.93000007
   13.15944386  115.84999847    0.64999998    2.94000006
   13.16277695  124.69799805    0.63000000    2.93000007
   13.16583252  118.80200195    0.63000000    2.93000007
   13.16916656  116.41000366    0.58999997    2.93000007
   13.17222214  118.65000153    0.61000001    2.93000007
   13.17555618  119.83000183    0.61000001    2.93000007
   13.17861176  118.19799805    0.58999997    2.93000007
   13.18194485  122.11199951    0.61000001    2.93000007
   13.18500042  133.33799744    0.63000000    2.94000006
   13.18833351  123.07700348    0.64999998    2.94000006
   13.19138908  120.11399841    0.64999998    2.94000006
   13.19472218  124.26999664    0.64999998    2.93000007
   13.19777775  121.21900177    0.69000000    2.93000007
   13.19888878  118.57800293    0.69000000    2.93000007
   13.20138836  123.65799713    0.67000002    2.93000007
   13.20444393  107.17199707    0.67000002    2.93000007
   13.20777798  120.59200287    0.67000002    2.93000007
   13.21083355  121.10099792    0.67000002    2.93000007
   13.21416664  112.31800079    0.64999998    2.93000007
   13.21749973  117.32599640    0.63000000    2.93000007
   13.22055531  110.87500000    0.61000001    2.93000007
   13.22361088  106.81600189    0.56999999    2.94000006
   13.22694397  108.46900177    0.56999999    2.94000006
   13.22999954  113.23000336    0.55000001    2.94000006
   13.23333359  109.95099640    0.55000001    2.94000006
   13.23638916  119.06400299    0.51999998    2.93000007
   13.23972225  124.10900116    0.50000000    2.93000007
   13.24277782  114.81600189    0.47999999    2.94000006
   13.24611092  122.22200012    0.50000000    2.94000006
   13.24888897  123.63200378    0.50000000    2.93000007
   13.24972248  125.15000153    0.50000000    2.94000006
   13.25277805  118.61699677    0.47999999    2.94000006
   13.25611115  117.15899658    0.47999999    2.93000007
   13.25916672  113.22899628    0.47999999    2.93000007
   13.26249981  135.13900757    0.51999998    2.94000006
   13.26555538  121.90000153    0.50000000    2.94000006
   13.26888847  122.39399719    0.51999998    2.94000006
   13.27194405  110.45600128    0.51999998    2.94000006
   13.27527714  117.76499939    0.52999997    2.93000007
   13.27833271  118.94200134    0.52999997    2.94000006
   13.28166676  122.09999847    0.55000001    2.93000007
   13.28472233  102.66500092    0.55000001    2.93000007
   13.28805637  110.99900055    0.55000001    2.93000007
   13.29111195  110.52799988    0.55000001    2.94000006
   13.29444504  116.99400330    0.55000001    2.93000007
   13.29750061  125.33899689    0.55000001    2.94000006
   13.29888916  113.53900146    0.56999999    2.94000006
   13.30111122  118.21800232    0.58999997    2.94000006
   13.30416679  117.60199738    0.58999997    2.94000006
   13.30749989  117.52500153    0.58999997    2.94000006
   13.31055546  115.52500153    0.58999997    2.94000006
   13.31388950  120.85299683    0.56999999    2.94000006
   13.31694412  120.03500366    0.58999997    2.94000006
   13.32027817  126.44200134    0.58999997    2.94000006
   13.32361126  124.98699951    0.56999999    2.94000006
   13.32666683  113.56900024    0.56999999    2.94000006
   13.32972240  112.17600250    0.55000001    2.93000007
   13.34916592  121.24099731    0.55000001    2.94000006
   13.34972191  124.72100067    0.55000001    2.94000006
   13.35305595  101.98000336    0.56999999    2.94000006
   13.35611153  115.44300079    0.56999999    2.94000006
   13.35944462  120.17199707    0.56999999    2.94000006
   13.36250019  113.65499878    0.56999999    2.94000006
   13.36583328  123.28600311    0.56999999    2.94000006
   13.36888885  115.82499695    0.55000001    2.94000006
   13.37222195  111.35600281    0.55000001    2.94000006
   13.37555599  120.21299744    0.55000001    2.94000006
   13.37861156  123.54100037    0.56999999    2.94000006
   13.38194466  130.75700378    0.56999999    2.94000006
   13.38500023  113.04900360    0.56999999    2.94000006
   13.38833332  127.87200165    0.61000001    2.94000006
   13.39138889  122.06500244    0.55000001    2.94000006
   13.39472198  131.10499573    0.55000001    2.94000006
   13.39777756  128.56900024    0.52999997    2.94000006
   13.39916611  122.92500305    0.52999997    2.94000006
   13.40138817  124.22699738    0.55000001    2.94000006
   13.40472221  118.99900055    0.52999997    2.94000006
   13.40777779  122.94100189    0.51999998    2.96000004
   13.41111088  125.62799835    0.51999998    2.94000006
   13.41416645  124.64299774    0.51999998    2.94000006
   13.41750050  120.21600342    0.51999998    2.94000006
   13.42055607  120.02300262    0.51999998    2.94000006
   13.42388916  119.86799622    0.52999997    2.94000006
   13.42694473  124.58599854    0.55000001    2.94000006
   13.43027782  113.91799927    0.55000001    2.94000006
   13.43333340  115.89600372    0.52999997    2.96000004
   13.43666649  113.10600281    0.55000001    2.96000004
   13.43972206  119.75399780    0.55000001    2.94000006
   13.44305515  117.89199829    0.52999997    2.94000006
   13.44611073  122.23100281    0.52999997    2.94000006
   13.44916630  110.52700043    0.52999997    2.96000004
   13.44972229  110.90100098    0.52999997    2.96000004
   13.45305538  105.23600006    0.51999998    2.94000006
   13.45611095  122.54399872    0.50000000    2.94000006
   13.45944405  105.69400024    0.47999999    2.94000006
   13.46249962  122.98600006    0.47999999    2.96000004
   13.46583271  122.32800293    0.47999999    2.96000004
   13.46888828  123.32800293    0.50000000    2.96000004
   13.47222137  114.03600311    0.50000000    2.94000006
   13.47527695  120.16699982    0.47999999    2.96000004
   13.47861099  117.81400299    0.47999999    2.98000002
   13.48166656  128.66099548    0.50000000    2.94000006
   13.48500061  106.83899689    0.47999999    2.96000004
   13.48805618  120.43199921    0.50000000    2.94000006
   13.49138927  121.17600250    0.47999999    2.96000004
   13.49444485  119.40000153    0.50000000    2.94000006
   13.49777794  118.06400299    0.50000000    2.96000004
   13.49916649  114.27799988    0.50000000    2.96000004
   13.50111103  112.69699860    0.50000000    2.96000004
   13.50444412  114.22499847    0.50000000    2.96000004
   13.50749969  120.50700378    0.51999998    2.94000006
   13.51083374  112.82399750    0.50000000    2.96000004
   13.51388931  109.06999969    0.50000000    2.96000004
   13.51722240  119.62500000    0.50000000    2.96000004
   13.52027798  109.34600067    0.50000000    2.94000006
   13.52361107  109.71299744    0.50000000    2.94000006
   13.52666664  119.33000183    0.50000000    2.96000004
   13.52999973  114.52799988    0.51999998    2.96000004
   13.53305531  106.85399628    0.52999997    2.96000004
   13.53638935  111.77300262    0.52999997    2.96000004
   13.53944492  121.25199890    0.52999997    2.94000006
   13.54277802  114.59300232    0.55000001    2.96000004
   13.54583359  118.64099884    0.55000001    2.96000004
   13.54916668  121.63500214    0.52999997    2.94000006
   13.54944515  120.90100098    0.52999997    2.94000006
   13.55277824  128.15100098    0.51999998    2.96000004
   13.55583382  121.68099976    0.50000000    2.96000004
   13.55916691  115.18499756    0.52999997    2.96000004
   13.56222248  116.15200043    0.51999998    2.96000004
   13.56555557  116.22599792    0.51999998    2.96000004
   13.56861115  115.20800018    0.50000000    2.96000004
   13.57194424  120.30999756    0.50000000    2.96000004
   13.57499981  115.60199738    0.51999998    2.96000004
   13.57833290  119.80400085    0.51999998    2.96000004
   13.58138847  114.65899658    0.47999999    2.96000004
   13.58472157  116.34899902    0.50000000    2.98000002
   13.58777714  117.89800262    0.47999999    2.96000004
   13.59111118  116.29499817    0.46000001    2.96000004
   13.59416676  121.80799866    0.47999999    2.96000004
   13.59749985  111.46399689    0.47999999    2.98000002
   13.59916592  112.41999817    0.47999999    2.96000004
   13.60083389  119.59200287    0.51999998    2.96000004
   13.60416698  108.45099640    0.80000001    2.96000004
   13.60722256  118.53800201    0.67000002    2.96000004
   13.61055565  119.17700195    0.50000000    2.96000004
   13.61361122  123.02999878    0.51999998    2.96000004
   13.61694431  113.69999695    0.52999997    2.96000004
   13.61999989  120.59500122    0.52999997    2.94000006
   13.62333393  115.55400085    0.52999997    2.94000006
   13.62638855  124.23000336    0.50000000    2.96000004
   13.62972260  117.67199707    0.50000000    2.96000004
   13.63277817  120.51000214    0.51999998    2.96000004
   13.63611126  118.96900177    0.50000000    2.96000004
   13.63916683  120.37999725    0.51999998    2.96000004
   13.64249992  125.56600189    0.51999998    2.98000002
   13.64555550  125.76799774    0.52999997    2.96000004
   13.64888859  118.06400299    0.50000000    2.96000004
   13.64916611  125.70300293    0.51999998    2.96000004
   13.65249920  130.69700623    0.50000000    2.98000002
   13.65555477  115.96499634    0.50000000    2.96000004
   13.65888882  124.09999847    0.51999998    2.96000004
   13.66194439  117.03500366    0.51999998    2.96000004
   13.66527748  125.08799744    0.50000000    2.96000004
   13.66833401  121.64900208    0.50000000    2.96000004
   13.67166710  121.19899750    0.51999998    2.96000004
   13.67500019  129.92599487    0.51999998    2.94000006
   13.67805576  121.73899841    0.51999998    2.98000002
   13.68111134  120.35099792    0.51999998    2.96000004
   13.68444443  114.95500183    0.51999998    2.96000004
   13.68750000  122.18399811    0.51999998    2.96000004
   13.69083309  124.35500336    0.47999999    2.98000002
   13.69388866  128.90899658    0.50000000    2.98000002
   13.69722271  122.92099762    0.47999999    2.96000004
   13.69916630  121.65499878    0.47999999    2.96000004
   13.70083332  121.06999969    0.50000000    2.96000004
   13.70388889  122.83300018    0.47999999    2.96000004
   13.70722198  119.07700348    0.47999999    2.96000004
   13.71027756  109.81800079    0.47999999    2.96000004
   13.71361065  112.34799957    0.47999999    2.96000004
   13.71666622  115.79100037    0.50000000    2.96000004
   13.71999931  122.96199799    0.51999998    2.96000004
   13.72305489  126.61000061    0.50000000    2.96000004
   13.72638798  122.45800018    0.50000000    2.98000002
   13.72944355  119.78399658    0.51999998    2.98000002
   13.73277760  116.39900208    0.51999998    2.96000004
   13.73583317  114.39399719    0.51999998    2.96000004
   13.73916721  126.57900238    0.51999998    2.98000002
   13.74222279  114.66000366    0.50000000    2.96000004
   13.74555588  124.18900299    0.51999998    2.96000004
   13.74861145  124.98000336    0.52999997    2.96000004
   13.74944496  121.90100098    0.51999998    2.96000004
   13.75222206  121.22599792    0.50000000    2.96000004
   13.75527763  114.37799835    0.50000000    2.98000002
   13.75861073  122.80100250    0.50000000    2.98000002
   13.76166630  124.77899933    0.47999999    2.96000004
   13.87138939   -1.00000000   -1.00000000   -1.00000000
   13.96944427   -1.00000000   -1.00000000   -1.00000000
   14.06999969   -1.00000000   -1.00000000   -1.00000000
   14.15999985   65.25009918    3.86999989    2.94000006
   14.16333294  123.78500366    4.21999979    2.93000007
   14.16638851  123.50599670    4.59999990    2.93000007
   14.16972256  119.53099823    4.51000023    2.94000006
   14.17277813  124.60099792    4.65999985    2.94000006
   14.17611122  134.24899292    4.90999985    2.94000006
   14.17944431  135.38499451    4.90999985    2.91000009
   14.18277836  135.44900513    4.90999985    2.86999989
   14.18861103  135.44900513    4.84999990    2.93000007
   14.19277763  121.33000183    3.82999992    2.93000007
   14.19583321  130.14199829    3.55999994    2.94000006
   14.19916630  135.02000427    3.46000004    2.94000006
   14.20222187  139.83099365    3.26999998    2.94000006
   14.20555496  133.47999573    2.98000002    2.98000002
   14.20861053  121.66300201    2.64000010    2.96000004
   14.21000004  118.91000366    3.05999994    2.96000004
   14.21222210  142.63099670    3.20000005    2.96000004
   14.21527767  127.00900269    3.43000007    2.96000004
   14.21861076  143.77900696    3.82999992    2.96000004
   14.22166634  144.75700378    4.65999985    2.98000002
   14.22472191  128.36000061    4.90999985    2.89000010
   14.22805500  136.99800110    4.90999985    2.84999990
   14.23111057  148.17300415    4.90999985    2.82999992
   14.23444462  139.48500061    4.90999985    2.96000004
   14.23972225  139.48500061    4.90999985    2.57999992
   14.24388885  160.30700684    4.90999985    2.64000010
   14.24722290  259.56900024    4.90999985    2.76999998
   14.25027752  165.71600342    4.90999985    2.55999994
   14.25361156  138.78300476    4.90999985    2.67000008
   14.25666714  178.23800659    4.90999985    2.73000002
   14.26000023  152.54699707    4.90999985    2.64000010
   14.26027775  180.71000671    4.90999985    2.64000010
   14.26361084  146.65199280    4.90999985    2.75000000
   14.26666641  163.63600159    4.90999985    2.75000000
   14.26999950  143.12600708    4.90999985    2.82999992
   14.27305508  160.13299561    4.90999985    2.76999998
   14.27638817   87.56520081    4.90999985    2.67000008
   14.27944374  109.24700165    4.90999985    2.82999992
   14.28277779  149.98500061    4.90999985    2.93000007
   14.28583336  121.15399933    4.90999985    2.84999990
   14.29111195  121.15399933    4.90999985    2.71000004
   14.29500008  143.54899597    4.90999985    2.84999990
   14.29833412  122.10900116    4.90999985    2.82999992
   14.30138874  124.38800049    4.90999985    2.84999990
   14.30472279  150.56100464    4.90999985    3.00000000
   14.30777836  113.43599701    4.90999985    2.82999992
   14.31027794  132.23199463    4.90999985    2.96000004
   14.31138897  111.76000214    4.90999985    2.96000004
   14.31444454  158.52000427    4.90999985    2.96000004
   14.31777763  152.24699402    4.90999985    2.82999992
   14.32083321  160.81599426    4.90999985    2.80999994
   14.32416630  167.27799988    4.90999985    2.69000006
   14.32722187  145.52400208    4.90999985    2.57999992
   14.33055592  178.68499756    4.90999985    2.67000008
   14.33361053  207.43400574    4.90999985    2.44000006
   14.33694458  201.93499756    4.90999985    2.61999989
   14.34222221  201.93499756    4.90999985    2.71000004
   14.34638882  172.73100281    4.90999985    2.69000006
   14.34944439  156.17500305    4.90999985    2.80999994
   14.35277843  160.59800720    4.90999985    2.86999989
   14.35583401  150.11000061    4.90999985    2.71000004
   14.35916710  136.88699341    4.90999985    2.94000006
   14.36027813  157.99800110    4.90999985    2.94000006
   14.36277771  145.18600464    4.90999985    2.84999990
   14.36583328  139.94299316    4.90999985    2.96000004
   14.36916637  154.80299377    3.43000007    2.94000006
   14.37222195  156.51199341    3.70000005    2.93000007
   14.37555599  151.51800537    4.90999985    2.96000004
   14.37861156  131.66200256    4.90999985    2.86999989
   14.38194466  147.02400208    4.90999985    2.89000010
   14.38500023  158.63900757    4.90999985    2.91000009
   14.38833332  149.75799561    4.90999985    2.86999989
   14.39333344  149.75799561    4.90999985    2.91000009
   14.39750004  159.29499817    4.90999985    2.91000009
   14.40055561  149.46800232    4.90999985    2.91000009
   14.40388870  139.30900574    4.90999985    2.71000004
   14.40694427  152.65800476    4.90999985    2.91000009
   14.41027737  168.91999817    4.90999985    2.80999994
   14.41083336  184.77400208    4.90999985    2.91000009
   14.41388893  153.91200256    4.90999985    2.76999998
   14.41722298  178.91200256    4.90999985    2.86999989
   14.42027855  178.88999939    4.90999985    2.86999989
   14.42361164  141.86399841    4.90999985    2.93000007
   14.42666721  154.46499634    4.90999985    2.96000004
   14.43000031  150.96000671    4.90999985    3.00000000
   14.43305588  142.18299866    4.11999989    3.00000000
   14.43638897  143.30299377    2.64000010    3.00000000
   14.43944454  139.82800293    3.50000000    2.98000002
   14.44444466  139.82800293    3.43000007    2.98000002
   14.44861126  144.81100464    4.42999983    2.98000002
   14.45194435  143.03599548    4.90999985    2.94000006
   14.45499992  139.10099792    4.90999985    2.93000007
   14.45833302  147.50000000    4.90999985    3.00000000
   14.46083355  140.23199463    4.90999985    2.98000002
   14.46166611  147.94900513    4.90999985    2.91000009
   14.46500015  170.41099548    4.90999985    2.91000009
   14.46805477  194.41799927    4.90999985    2.66000009
   14.47138882  222.94999695    4.90999985    2.32999992
   14.47444439  118.62599945    4.90999985    2.64000010
   14.47777748  215.19999695    4.90999985    2.93000007
   14.48083305  198.76400757    4.90999985    2.64000010
   14.48416710  374.72198486    4.90999985    2.51999998
   14.48611164  327.74398804    4.90999985    2.44000006
   14.48722267  159.94900513    4.90999985    2.26999998
   14.48750019  147.94900513    4.90999985    2.91000009
   14.48750019  170.41099548    4.90999985    2.91000009
   14.48750019  194.41799927    4.90999985    2.66000009
   14.48777771  222.94999695    4.90999985    2.32999992
   14.48777771  118.62599945    4.90999985    2.64000010
   14.48777771  215.19999695    4.90999985    2.93000007
   14.48805618  198.76400757    4.90999985    2.64000010
   14.48805618  374.72198486    4.90999985    2.51999998
   14.48805618  147.50000000    4.90999985    3.00000000
   14.48916721  115.69300079    4.90999985    2.28999996
   14.49250031  479.27499390    4.90999985    2.30999994
   14.49444485  226.51800537    4.90999985    2.39000010
   14.49444485  115.69300079    4.90999985    2.28999996
   14.49472237  479.27499390    4.90999985    2.30999994
   14.49638939  283.34201050    4.90999985    2.23000002
   14.49972248  306.05398560    4.90999985    2.34999990
   14.50277805   34.03089905    4.90999985    2.46000004
   14.50611115  437.86499023    4.90999985    2.09999990
   14.50805569  400.28601074    4.90999985    2.25000000
   14.50944424  334.32101440    4.90999985    2.36999989
   14.51083374   94.80090332    4.90999985    2.40000010
   14.51083374  283.34201050    4.90999985    2.23000002
   14.51083374  306.05398560    4.90999985    2.34999990
   14.51111126   34.03089905    4.90999985    2.46000004
   14.51111126  437.86499023    4.90999985    2.09999990
   14.51166630   93.72019958    4.90999985    2.44000006
   14.51472187   -1.00000000    4.90999985    2.09999990
   14.88861084  140.67999268    1.39999998    0.30000001
   14.89194393  149.98899841    1.39999998    0.30000001
   14.89499950  121.13300323    1.39999998    0.30000001
   14.89833355  135.45799255    1.39999998    0.30000001
   14.90138817  141.77000427    1.39999998    0.30000001
   14.90472221  147.64500427    1.39999998    0.30000001
   14.90777779  142.02900696    1.39999998    0.30000001
   14.91111088  153.91700745    1.39999998    0.30000001
   14.91722298  153.91700745    1.39999998    0.30000001
   14.92138958  147.50300598    1.39999998    0.30000001
   14.92444515  142.74000549    1.39999998    0.30000001
   14.92777824  150.14100647    1.39999998    0.30000001
   14.93083382  161.61599731    1.39999998    0.30000001
   14.93416691  168.87600708    1.39999998    0.30000001
   14.93722248  161.04800415    1.39999998    0.30000001
   14.93861103  147.80000305    1.39999998    0.30000001
   14.94083309  143.66099548    1.39999998    0.30000001
   14.94388866  138.97900391    1.39999998    0.30000001
   14.94722271  134.34500122    1.39999998    0.30000001
   14.95027733  136.63600159    1.39999998    0.30000001
   14.95361137  122.80999756    1.39999998    0.30000001
   14.95666695  137.38099670    1.39999998    0.30000001
   14.96000004  134.76400757    1.39999998    0.30000001
   14.96305561  141.02999878    1.39999998    0.30000001
   14.96833324  141.02999878    1.39999998    0.30000001
   14.97249985  144.56500244    1.39999998    0.30000001
   14.97583294  152.10099792    1.39999998    0.30000001
   14.97888851  149.52200317    1.39999998    0.30000001
   14.98222160  153.26499939    1.39999998    0.30000001
   14.98527813  146.34399414    1.39999998    0.30000001
   14.98861122  152.25999451    1.39999998    0.30000001
   14.98888874  147.96400452    1.39999998    0.30000001
   14.99222279  146.46299744    1.39999998    0.30000001
   14.99527836  147.55499268    1.39999998    0.30000001
   14.99861145  142.29600525    1.39999998    0.30000001
   15.00166702  154.57899475    1.39999998    0.30000001
   15.00500011  162.04200745    1.39999998    0.30000001
   15.00805569  151.10200500    1.39999998    0.30000001
   15.01138878  158.48100281    1.39999998    0.30000001
   15.01444435  164.81500244    1.39999998    0.30000001
   15.01972198  164.81500244    1.39999998    0.30000001
   15.02361107  159.26300049    1.39999998    0.30000001
   15.02694416  151.81900024    1.39999998    0.30000001
   15.02999973  145.02999878    1.39999998    0.30000001
   15.03333378  162.94099426    1.39999998    0.30000001
   15.03638935  167.26800537    1.39999998    0.30000001
   15.03888893  134.17100525    1.39999998    0.30000001
   15.04000092  138.35200500    1.39999998    0.30000001
   15.04305553  150.09500122    1.39999998    0.30000001
   15.04638958  149.65899658    1.39999998    0.30000001
   15.04944515  138.77699280    1.39999998    0.30000001
   15.05277824  145.74400330    1.39999998    0.30000001
   15.05583382  140.30799866    1.39999998    0.30000001
   15.05916691  158.24600220    1.39999998    0.30000001
   15.06222248  163.80799866    1.39999998    0.30000001
   15.06555557  161.36199951    1.39999998    0.30000001
   15.07083321  161.36199951    1.39999998    0.30000001
   15.07499981  160.85800171    1.39999998    0.30000001
   15.07805538  156.50500488    1.39999998    0.30000001
   15.08138847  155.63800049    1.39999998    0.30000001
   15.08444405  139.66700745    1.39999998    0.30000001
   15.08777714  174.82699585    1.39999998    0.30000001
   15.08888817  161.20199585    1.39999998    0.30000001
   15.09111118  169.49400330    1.39999998    0.30000001
   15.09416676  178.28199768    1.39999998    0.30000001
   15.09749985  175.12800598    1.39999998    0.30000001
   15.10055637  171.09599304    1.39999998    0.30000001
   15.10388947  183.52000427    1.39999998    0.30000001
   15.10694504  158.33999634    1.39999998    0.30000001
   15.11027813  140.26699829    1.39999998    0.30000001
   15.11333370  164.76400757    1.39999998    0.30000001
   15.11666679  163.36199951    1.39999998    0.30000001
   15.12194443  163.36199951    1.39999998    0.30000001
   15.12611103  133.19999695    1.39999998    0.30000001
   15.12916660  134.06900024    1.39999998    0.30000001
   15.13249969  135.54299927    1.39999998    0.30000001
   15.13555527  133.62699890    1.39999998    0.30000001
   15.13888836  144.92399597    1.39999998    0.30000001
   15.13944435  141.25500488    1.39999998    0.30000001
   15.14249992  137.37300110    1.39999998    0.30000001
   15.14583302  132.71400452    1.39999998    0.30000001
   15.14888859  141.02699280    1.39999998    0.30000001
   15.15222168  131.97300720    1.39999998    0.30000001
   15.15527725  128.73199463    1.39999998    0.30000001
   15.15861034  134.59199524    1.39999998    0.30000001
   15.16166592  131.97000122    1.39999998    0.30000001
   15.16499996  127.53199768    1.39999998    0.30000001
   15.16805553  130.25500488    1.39999998    0.30000001
   15.17305565  130.25500488    1.39999998    0.30000001
   15.17722225  137.65600586    1.39999998    0.30000001
   15.18055630  135.07899475    1.39999998    0.30000001
   15.18361092  133.03100586    1.39999998    0.30000001
   15.18694496  125.87999725    1.39999998    0.30000001
   15.18944454  134.81700134    1.39999998    0.30000001
   15.19055557  132.93600464    1.39999998    0.30000001
   15.19388866  124.23899841    1.39999998    0.30000001
   15.19694424  130.56799316    1.39999998    0.30000001
   15.20027733  128.12600708    1.39999998    0.30000001
   15.20333290  131.39900208    1.39999998    0.30000001
   15.20666695  126.95400238    1.39999998    0.30000001
   15.20972157  128.52000427    1.39999998    0.30000001
   15.21305561  128.05599976    1.39999998    0.30000001
   15.21611118  136.50199890    1.39999998    0.30000001
   15.21944427  131.22799683    1.39999998    0.30000001
   15.22444439  131.22799683    1.39999998    0.30000001
   15.22833252  132.35600281    1.39999998    0.30000001
   15.23166656  136.18699646    1.39999998    0.30000001
   15.23472214  120.87899780    1.39999998    0.30000001
   15.23805618  112.61199951    1.39999998    0.30000001
   15.23944473  127.48000336    1.39999998    0.30000001
   15.24166679  131.01400757    1.39999998    0.30000001
   15.24472237  133.95199585    1.39999998    0.30000001
   15.24805546  137.67999268    1.39999998    0.30000001
   15.25111103  143.65800476    1.39999998    0.30000001
   15.25444412  123.72200012    1.39999998    0.30000001
   15.25749969  132.30299377    1.39999998    0.30000001
   15.26083374  139.16700745    1.39999998    0.30000001
   15.26388931  134.63699341    1.39999998    0.30000001
   15.26722240  128.53999329    1.39999998    0.30000001
   15.27055550  128.08900452    1.39999998    0.30000001
   15.27555561  128.08900452    1.39999998    0.30000001
   15.27944374  134.39100647    1.39999998    0.30000001
   15.28277779  132.09599304    1.39999998    0.30000001
   15.28583336  132.33599854    1.39999998    0.30000001
   15.28916740  116.58300018    1.39999998    0.30000001
   15.29000092  112.41799927    1.39999998    0.30000001
   15.29277802  124.48000336    1.39999998    0.30000001
   15.29611111  129.58500671    1.39999998    0.30000001
   15.29916668  131.57000732    1.39999998    0.30000001
   15.30249977  122.49500275    1.39999998    0.30000001
   15.30555534  115.70400238    1.39999998    0.30000001
   15.30888939  112.84899902    1.39999998    0.30000001
   15.31194496  132.71800232    1.39999998    0.30000001
   15.31527805  131.06399536    1.39999998    0.30000001
   15.31833363  112.66400146    1.39999998    0.30000001
   15.32166672  127.06800079    1.39999998    0.30000001
   15.32666683  127.06800079    1.39999998    0.30000001
   15.33083344  113.94599915    1.39999998    0.30000001
   15.33388901  114.01100159    1.39999998    0.30000001
   15.33722210  114.29499817    1.39999998    0.30000001
   15.34000015  142.21800232    1.39999998    0.30000001
   15.34055519  121.33999634    1.39999998    0.30000001
   15.34361076  131.97599792    1.39999998    0.30000001
   15.34694386  136.18499756    1.39999998    0.30000001
   15.35000038  125.30200195    1.39999998    0.30000001
   15.35333347  127.19999695    1.39999998    0.30000001
   15.35638905  127.34200287    1.39999998    0.30000001
   15.35972214  120.92199707    1.39999998    0.30000001
   15.36277771  134.81100464    1.39999998    0.30000001
   15.36611176  121.55500031    1.39999998    0.30000001
   15.36916637  139.73599243    1.39999998    0.30000001
   15.37250042  128.90600586    1.39999998    0.30000001
   15.37777805  128.90600586    1.39999998    0.30000001
   15.38194466  117.58300018    1.39999998    0.30000001
   15.38500023  120.53800201    1.39999998    0.30000001
   15.38833332  120.82800293    1.39999998    0.30000001
   15.39000034  128.19299316    1.39999998    0.30000001
   15.39194393  119.55500031    1.39999998    0.30000001
   15.39527798  120.34500122    1.39999998    0.30000001
   15.39833355  118.44999695    1.39999998    0.30000001
   15.40166664  130.07499695    1.39999998    0.30000001
   15.40472221  119.76999664    1.39999998    0.30000001
   15.40805531  156.56300354    1.39999998    0.30000001
   15.41111088  122.57599640    1.39999998    0.30000001
   15.41444397  144.84199524    1.39999998    0.30000001
   15.41750050  132.25300598    1.39999998    0.30000001
   15.42083359  113.69599915    1.39999998    0.30000001
   15.42388916  125.74600220    1.39999998    0.30000001
   15.42916679  125.74600220    1.39999998    0.30000001
   15.43305588  120.96499634    1.39999998    0.30000001
   15.43638897  146.87699890    1.39999998    0.30000001
   15.43944454  134.67300415    1.39999998    0.30000001
   15.44000053  145.50700378    1.39999998    0.30000001
   15.44277763  128.99099731    1.39999998    0.30000001
   15.44611073  120.42600250    1.39999998    0.30000001
   15.44916630  127.73899841    1.39999998    0.30000001
   15.45249939  120.46900177    1.39999998    0.30000001
   15.45555496  121.16300201    1.39999998    0.30000001
   15.45888901  118.68499756    1.39999998    0.30000001
   15.46194458  114.11599731    1.39999998    0.30000001
   15.46527767  125.19999695    1.39999998    0.30000001
   15.46833324  117.29000092    1.39999998    0.30000001
   15.47166634  118.41799927    1.39999998    0.30000001
   15.47472191  114.31600189    1.39999998    0.30000001
   15.48027706  114.31600189    1.39999998    0.30000001
   15.48416710  121.62000275    1.39999998    0.30000001
   15.48750019  127.81700134    1.39999998    0.30000001
   15.49000072  132.23399353    1.39999998    0.30000001
   15.49083328  130.01600647    1.39999998    0.30000001
   15.49416733  124.05500031    1.39999998    0.30000001
   15.49722290  123.14399719    1.39999998    0.30000001
   15.50055599  125.99800110    1.39999998    0.30000001
   15.50361156  121.25199890    1.39999998    0.30000001
   15.50694466  120.81600189    1.39999998    0.30000001
   15.51000023  127.35099792    1.39999998    0.30000001
   15.51333332  130.24899292    1.39999998    0.30000001
   15.51638889  124.91400146    1.39999998    0.30000001
   15.51972198  118.63500214    1.39999998    0.30000001
   15.52277756  126.98999786    1.39999998    0.30000001
   15.52611065  123.42500305    1.39999998    0.30000001
   15.53138828  123.42500305    1.39999998    0.30000001
   15.53555584  123.16100311    1.39999998    0.30000001
   15.53861141  132.69999695    1.39999998    0.30000001
   15.54000092  124.95300293    1.39999998    0.30000001
   15.54194450  115.78299713    1.39999998    0.30000001
   15.54527855  131.52900696    1.39999998    0.30000001
   15.54833412  133.14799500    1.39999998    0.30000001
   15.55166721  126.90599823    1.39999998    0.30000001
   15.55472279  116.41400146    1.39999998    0.30000001
   15.55805588  129.46800232    1.39999998    0.30000001
   15.56111145  123.88500214    1.39999998    0.30000001
   15.56444454  132.08599854    1.39999998    0.30000001
   15.56750011  125.42800140    1.39999998    0.30000001
   15.57083321  146.13499451    1.39999998    0.30000001
   15.57388878  129.98100281    1.39999998    0.30000001
   15.57722187  124.73899841    1.39999998    0.30000001
   15.58249950  124.73899841    1.39999998    0.30000001
   15.58666611  127.87400055    1.39999998    0.30000001
   15.58972168  125.37999725    1.39999998    0.30000001
   15.59027767  126.02700043    1.39999998    0.30000001
   15.59361076  125.69499969    1.39999998    0.30000001
   15.59666634  116.26000214    1.39999998    0.30000001
   15.60000038  131.38800049    1.39999998    0.30000001
   15.60305595  148.74200439    1.39999998    0.30000001
   15.60638905  144.54499817    1.39999998    0.30000001
   15.60944462  134.30700684    1.39999998    0.30000001
   15.61277771  157.72200012    1.39999998    0.30000001
   15.61583328  132.50300598    1.39999998    0.30000001
   15.61916637  150.81399536    1.39999998    0.30000001
   15.62222195  121.61799622    1.39999998    0.30000001
   15.62555599  131.84899902    1.39999998    0.30000001
   15.62861156  126.49199677    1.39999998    0.30000001
   15.63361073  126.49199677    1.39999998    0.30000001
   15.63777733  139.61300659    1.39999998    0.30000001
   15.64027786  143.81300354    1.39999998    0.30000001
   15.64138889  138.34100342    1.39999998    0.30000001
   15.64444447  161.28500366    1.39999998    0.30000001
   15.64777756  161.66700745    1.39999998    0.30000001
   15.65083313  127.47799683    1.39999998    0.30000001
   15.65416622  180.26899719    1.39999998    0.30000001
   15.65722179  150.76100159    1.39999998    0.30000001
   15.66055489  143.39500427    1.39999998    0.30000001
   15.66361046  134.29600525    1.39999998    0.30000001
   15.66694450  130.85699463    1.39999998    0.30000001
   15.67000008  126.33999634    1.39999998    0.30000001
   15.67333412  155.61599731    1.39999998    0.30000001
   15.67638874  146.52699280    1.39999998    0.30000001
   15.67972279  166.75700378    1.39999998    0.30000001
   15.68500042  166.75700378    1.39999998    0.30000001
   15.68888855  156.87300110    1.39999998    0.30000001
   15.69027805  157.15899658    1.39999998    0.30000001
   15.69250011  172.37899780    1.39999998    0.30000001
   15.69555569  144.93400574    1.39999998    0.30000001
   15.69888878  152.62500000    1.39999998    0.30000001
   15.70194435  165.83099365    1.39999998    0.30000001
   15.70527744  151.76800537    1.39999998    0.30000001
   15.70833302  170.05799866    1.39999998    0.30000001
   15.71166611  152.52400208    1.39999998    0.30000001
   15.71472168  153.05200195    1.39999998    0.30000001
   15.71805477  162.51800537    1.39999998    0.30000001
   15.72111034  168.66499329    1.39999998    0.30000001
   15.72444439  145.24000549    1.39999998    0.30000001
   15.72749996  181.79499817    1.39999998    0.30000001
   15.73083305  175.13299561    1.39999998    0.30000001
   15.73611164  175.13299561    1.39999998    0.30000001
   15.74027824  174.18499756    1.39999998    0.30000001
   15.74055576  164.71000671    1.39999998    0.30000001
   15.74388885  125.08300018    1.39999998    0.30000001
   15.74694443  160.75799561    1.39999998    0.30000001
   15.75027752  138.30700684    1.39999998    0.30000001
   15.75333309  162.27200317    1.39999998    0.30000001
   15.75666714  154.22500610    1.39999998    0.30000001
   15.75972176  145.94000244    1.39999998    0.30000001
   15.76305580  135.35299683    1.39999998    0.30000001
   15.76611137  156.49899292    1.39999998    0.30000001
   15.76944447  152.63299561    1.39999998    0.30000001
   15.77250004  150.87399292    1.39999998    0.30000001
   15.77583313  129.05000305    1.39999998    0.30000001
   15.77888870  127.19899750    1.39999998    0.30000001
   15.78222179  135.07800293    1.39999998    0.30000001
   15.78722286  135.07800293    1.39999998    0.30000001
   15.79138947  135.18400574    1.39999998    0.30000001
   15.79444504  130.34399414    1.39999998    0.30000001
   15.79777813  140.47700500    1.39999998    0.30000001
   15.80083370  173.43699646    1.39999998    0.30000001
   15.80416679  154.96099854    1.39999998    0.30000001
   15.80722237  142.44200134    1.39999998    0.30000001
   15.81055546  159.28599548    1.39999998    0.30000001
   15.81361103  146.17599487    1.39999998    0.30000001
   15.81694412  134.07400513    1.39999998    0.30000001
   15.81999969  152.90600586    1.39999998    0.30000001
   15.82333374  142.92300415    1.39999998    0.30000001
   15.82638836  136.98500061    1.39999998    0.30000001
   15.82972240  144.39199829    1.39999998    0.30000001
   15.83277798  152.47099304    1.39999998    0.30000001
   15.83833313  152.47099304    1.39999998    0.30000001
   15.84249973  157.59100342    1.39999998    0.30000001
   15.84583282  127.10600281    1.39999998    0.30000001
   15.84888840  137.34199524    1.39999998    0.30000001
   15.85222244  149.12899780    1.39999998    0.30000001
   15.85527802  147.85200500    1.39999998    0.30000001
   15.85861111  157.30999756    1.39999998    0.30000001
   15.86166668  161.42700195    1.39999998    0.30000001
   15.86500072  173.27299500    1.39999998    0.30000001
   15.86805534  178.67700195    1.39999998    0.30000001
   15.87138939  173.40299988    1.39999998    0.30000001
   15.87444496  177.56399536    1.39999998    0.30000001
   15.87777805  156.85299683    1.39999998    0.30000001
   15.88083363  158.70799255    1.39999998    0.30000001
   15.88416672  151.69400024    1.39999998    0.30000001
   15.90583324  164.81399536    1.39999998    0.30000001
   15.90611076  148.34399414    1.39999998    0.30000001
   15.90944386  185.44700623    1.39999998    0.30000001
   15.91249943  169.14599609    1.39999998    0.30000001
   15.91583252  147.20199585    1.39999998    0.30000001
   15.91888905  172.24400330    1.39999998    0.30000001
   15.92222214  147.67900085    1.39999998    0.30000001
   15.92527771  148.95799255    1.39999998    0.30000001
   15.92861176  177.34300232    1.39999998    0.30000001
   15.93166733  144.29200745    1.39999998    0.30000001
   15.93500042  119.53399658    1.39999998    0.30000001
   15.94083309  119.53399658    1.39999998    0.30000001
   15.94499969  125.70700073    1.39999998    0.30000001
   15.94833374  131.43299866    1.39999998    0.30000001
   15.95138836  130.74699402    1.39999998    0.30000001
   15.95472240  159.19799805    1.39999998    0.30000001
   15.95555496  151.67999268    1.39999998    0.30000001
   15.95833302  147.49200439    1.39999998    0.30000001
   15.96138859  136.17500305    1.39999998    0.30000001
   15.96472168  155.22500610    1.39999998    0.30000001
   15.96777725  175.86799622    1.39999998    0.30000001
   15.97111034  192.86500549    1.39999998    0.30000001
   15.97416592  179.91799927    1.39999998    0.30000001
   15.97749996  148.71499634    1.39999998    0.30000001
   15.98055553  156.05999756    1.39999998    0.30000001
   15.98388958  157.22599792    1.39999998    0.30000001
   15.98694515  140.66099548    1.39999998    0.30000001
   15.99222279  140.66099548    1.39999998    0.30000001
   15.99611092  147.41299438    1.39999998    0.30000001
   15.99944496  134.08200073    1.39999998    0.30000001
   16.00250053  163.95300293    1.39999998    0.30000001
   16.00555611  140.98399353    1.39999998    0.30000001
   16.00611115  178.34700012    1.39999998    0.30000001
   16.00916672  127.42199707    1.39999998    0.30000001
   16.01250076  171.80400085    1.39999998    0.30000001
   16.01555634  155.62500000    1.39999998    0.30000001
   16.01888847  152.23199463    1.39999998    0.30000001
   16.02194405  131.71299744    1.39999998    0.30000001
   16.02527809  150.99699402    1.39999998    0.30000001
   16.02833366  137.44099426    1.39999998    0.30000001
   16.03166580  140.35600281    1.39999998    0.30000001
   16.03472137  137.55000305    1.39999998    0.30000001
   16.03805542  133.52400208    1.39999998    0.30000001
   16.04333305  133.52400208    1.39999998    0.30000001
   16.04749870  137.36900330    1.39999998    0.30000001
   16.05055428  136.19599915    1.39999998    0.30000001
   16.05388832  132.14999390    1.39999998    0.30000001
   16.05555534  154.52699280    1.39999998    0.30000001
   16.05749893  140.20599365    1.39999998    0.30000001
   16.06055450  130.09599304    1.39999998    0.30000001
   16.06388855  151.67100525    1.39999998    0.30000001
   16.06694603  169.01300049    1.39999998    0.30000001
   16.07027817  125.84799957    1.39999998    0.30000001
   16.07333374  133.26699829    1.39999998    0.30000001
   16.07666779  158.13299561    1.39999998    0.30000001
   16.07972336  141.97099304    1.39999998    0.30000001
   16.08305550  135.56100464    1.39999998    0.30000001
   16.08611107  138.46699524    1.39999998    0.30000001
   16.08944511  154.34599304    1.39999998    0.30000001
   16.09444427  154.34599304    1.39999998    0.30000001
   16.09861183  138.32200623    1.39999998    0.30000001
   16.10166740  151.03300476    1.39999998    0.30000001
   16.10499954  123.68199921    1.39999998    0.30000001
   16.10555649  145.62600708    1.39999998    0.30000001
   16.10861206  145.80900574    1.39999998    0.30000001
   16.11166763  135.13099670    1.39999998    0.30000001
   16.11499977  141.76899719    1.39999998    0.30000001
   16.11805534  146.75100708    1.39999998    0.30000001
   16.12138939  157.60200500    1.39999998    0.30000001
   16.12444496  144.06700134    1.39999998    0.30000001
   16.12777710  157.36500549    1.39999998    0.30000001
   16.13083267  132.94299316    1.39999998    0.30000001
   16.13416672  136.14599609    1.39999998    0.30000001
   16.13722229  146.33099365    1.39999998    0.30000001
   16.14055634  131.91099548    1.39999998    0.30000001
   16.14555550  131.91099548    1.39999998    0.30000001
   16.14972115  152.37300110    1.39999998    0.30000001
   16.15305519  157.38699341    1.39999998    0.30000001
   16.15555573  117.91699982    1.39999998    0.30000001
   16.15666580  147.63499451    1.39999998    0.30000001
   16.15972137  139.46400452    1.39999998    0.30000001
   16.16305542  134.01899719    1.39999998    0.30000001
   16.16611099  131.36999512    1.39999998    0.30000001
   16.16944313  133.69599915    1.39999998    0.30000001
   16.17249870  127.44300079    1.39999998    0.30000001
   16.17583275  135.54899597    1.39999998    0.30000001
   16.17888832  134.33399963    1.39999998    0.30000001
   16.18222237  141.47500610    1.39999998    0.30000001
   16.18527603  148.94700623    1.39999998    0.30000001
   16.18861008  149.80099487    1.39999998    0.30000001
   16.19166565  146.50300598    1.39999998    0.30000001
   16.19694328  146.50300598    1.39999998    0.30000001
   16.20083427  129.77499390    1.39999998    0.30000001
   16.20416832  122.85600281    1.39999998    0.30000001
   16.20555687  128.98100281    1.39999998    0.30000001
   16.20777893  151.71699524    1.39999998    0.30000001
   16.21083450  147.75500488    1.39999998    0.30000001
   16.21416664  142.09100342    1.39999998    0.30000001
   16.21722221  154.57600403    1.39999998    0.30000001
   16.22055626  157.15699768    1.39999998    0.30000001
   16.22361183  153.39999390    1.39999998    0.30000001
   16.22694588  125.41999817    1.39999998    0.30000001
   16.23000145  139.16000366    1.39999998    0.30000001
   16.23333359  148.77299500    1.39999998    0.30000001
   16.23638916  130.04699707    1.39999998    0.30000001
   16.23972321  153.36700439    1.39999998    0.30000001
   16.24277878  139.97399902    1.39999998    0.30000001
   16.24805641  139.97399902    1.39999998    0.30000001
   16.25222206  134.52299500    1.39999998    0.30000001
   16.25527763  148.79200745    1.39999998    0.30000001
   16.25583267  141.67700195    1.39999998    0.30000001
   16.25888824  140.20300293    1.39999998    0.30000001
   16.26222229  137.87300110    1.39999998    0.30000001
   16.26527786  138.10499573    1.39999998    0.30000001
   16.26861000  154.49200439    1.39999998    0.30000001
   16.27166557  170.56900024    1.39999998    0.30000001
   16.27499962  163.82000732    1.39999998    0.30000001
   16.27805519  148.21899414    1.39999998    0.30000001
   16.28138924  158.47099304    1.39999998    0.30000001
   16.28444481  167.33000183    1.39999998    0.30000001
   16.28777695  159.42300415    1.39999998    0.30000001
   16.29083252  166.89599609    1.39999998    0.30000001
   16.29416656  185.22000122    1.39999998    0.30000001
   16.29916573  185.22000122    1.39999998    0.30000001
   16.30333328  209.57600403    1.39999998    0.30000001
   16.30583191  171.15199280    1.39999998    0.30000001
   16.30666542  170.16099548    1.39999998    0.30000001
   16.30999947  175.00100708    1.39999998    0.30000001
   16.31305504  175.40699768    1.39999998    0.30000001
   16.31638718  184.42199707    1.39999998    0.30000001
   16.31944466  160.62100220    1.39999998    0.30000001
   16.32277870  166.69999695    1.39999998    0.30000001
   16.32583427  152.25799561    1.39999998    0.30000001
   16.32916832  167.00000000    1.39999998    0.30000001
   16.33222389  159.86999512    1.39999998    0.30000001
   16.33555603  155.75399780    1.39999998    0.30000001
   16.33861160  148.99699402    1.39999998    0.30000001
   16.34194565  140.58399963    1.39999998    0.30000001
   16.34500122  156.28799438    1.39999998    0.30000001
   16.35027885  156.28799438    1.39999998    0.30000001
   16.35444450  115.70300293    1.39999998    0.30000001
   16.35583305  139.33999634    1.39999998    0.30000001
   16.35777855  154.26100159    1.39999998    0.30000001
   16.36111069  158.64799500    1.39999998    0.30000001
   16.36416626  151.61199951    1.39999998    0.30000001
   16.36750031  135.36799622    1.39999998    0.30000001
   16.37083435  163.95599365    1.39999998    0.30000001
   16.37388992  168.43299866    1.39999998    0.30000001
   16.37722206  172.69999695    1.39999998    0.30000001
   16.38027763  181.44500732    1.39999998    0.30000001
   16.38361168  166.21000671    1.39999998    0.30000001
   16.38666725  173.33500671    1.39999998    0.30000001
   16.38999939  143.27400208    1.39999998    0.30000001
   16.39305496  150.70100403    1.39999998    0.30000001
   16.39638901  159.01899719    1.39999998    0.30000001
   16.40166664  159.01899719    1.39999998    0.30000001
   16.40555573  122.73500061    1.39999998    0.30000001
   16.40611076  135.93499756    1.39999998    0.30000001
   16.40916634  159.21099854    1.39999998    0.30000001
   16.41250038  139.22599792    1.39999998    0.30000001
   16.41555595  142.67300415    1.39999998    0.30000001
   16.41888809  161.60499573    1.39999998    0.30000001
   16.42194366  119.85500336    1.39999998    0.30000001
   16.42527771  135.23899841    1.39999998    0.30000001
   16.42833328  148.82200623    1.39999998    0.30000001
   16.43166542  146.64599609    1.39999998    0.30000001
   16.43472099  148.02900696    1.39999998    0.30000001
   16.43805504  154.64500427    1.39999998    0.30000001
   16.44111061  142.90899658    1.39999998    0.30000001
   16.44444275  158.77000427    1.39999998    0.30000001
   16.44749832  156.15800476    1.39999998    0.30000001
   16.45277786  156.15800476    1.39999998    0.30000001
   16.45694542  187.39700317    1.39999998    0.30000001
   16.46000099  160.86000061    1.39999998    0.30000001
   16.46333504  171.43699646    1.39999998    0.30000001
   16.46638870  175.97399902    1.39999998    0.30000001
   16.46972275  175.16000366    1.39999998    0.30000001
   16.47277832  173.27299500    1.39999998    0.30000001
   16.47611237  164.18800354    1.39999998    0.30000001
   16.47916794  178.89500427    1.39999998    0.30000001
   16.48250008  145.75199890    1.39999998    0.30000001
   16.48555565  152.28300476    1.39999998    0.30000001
   16.48888969  143.40100098    1.39999998    0.30000001
   16.49194527  163.66200256    1.39999998    0.30000001
   16.49527740  154.85000610    1.39999998    0.30000001
   16.49833298  145.53799438    1.39999998    0.30000001
   16.50388908  145.53799438    1.39999998    0.30000001
   16.50805473  102.55999756    1.39999998    0.30000001
   16.51111031  165.21600342    1.39999998    0.30000001
   16.51444435  122.51799774    1.39999998    0.30000001
   16.51749992  144.97799683    1.39999998    0.30000001
   16.52083397  122.06099701    1.39999998    0.30000001
   16.52388954  151.80599976    1.39999998    0.30000001
   16.52722168  143.61399841    1.39999998    0.30000001
   16.53027725  147.95399475    1.39999998    0.30000001
   16.53361130  132.58799744    1.39999998    0.30000001
   16.53666687  124.79299927    1.39999998    0.30000001
   16.53999901  129.80000305    1.39999998    0.30000001
   16.54305458  118.50099945    1.39999998    0.30000001
   16.54638863  123.52799988    1.39999998    0.30000001
   16.54944420  142.44900513    1.39999998    0.30000001
   16.55499840  142.44900513    1.39999998    0.30000001
   16.55916595  145.30000305    1.39999998    0.30000001
   16.56250000  121.85399628    1.39999998    0.30000001
   16.56555557  136.05000305    1.39999998    0.30000001
   16.56888962  137.76699829    1.39999998    0.30000001
   16.57194519  131.49200439    1.39999998    0.30000001
   16.57527924  132.07600403    1.39999998    0.30000001
   16.57833481  109.84500122    1.39999998    0.30000001
   16.58166695  132.27999878    1.39999998    0.30000001
   16.58472252  106.80599976    1.39999998    0.30000001
   16.58805656  136.05099487    1.39999998    0.30000001
   16.59111214  140.64900208    1.39999998    0.30000001
   16.59444427  131.53100586    1.39999998    0.30000001
   16.59749985  129.90199280    1.39999998    0.30000001
   16.60083389  139.63099670    1.39999998    0.30000001
   16.60639000  139.63099670    1.39999998    0.30000001
   16.61027908  148.80299377    1.39999998    0.30000001
   16.61361122  126.17600250    1.39999998    0.30000001
   16.61666679  117.30500031    1.39999998    0.30000001
   16.62000084  137.43400574    1.39999998    0.30000001
   16.62305641  124.70300293    1.39999998    0.30000001
   16.62638855  152.69099426    1.39999998    0.30000001
   16.62944412  156.17599487    1.39999998    0.30000001
   16.63277817  135.20799255    1.39999998    0.30000001
   16.63583374  165.36799622    1.39999998    0.30000001
   16.63916588  159.12300110    1.39999998    0.30000001
   16.64222145  146.49699402    1.39999998    0.30000001
   16.64555550  159.32000732    1.39999998    0.30000001
   16.64861107  161.96800232    1.39999998    0.30000001
   16.65194321  163.11999512    1.39999998    0.30000001
   16.65749931  163.11999512    1.39999998    0.30000001
   16.66166687  167.80700684    1.39999998    0.30000001
   16.66472244  157.44900513    1.39999998    0.30000001
   16.66805458  156.62600708    1.39999998    0.30000001
   16.67111015  168.34100342    1.39999998    0.30000001
   16.67444420  144.97000122    1.39999998    0.30000001
   16.67749977  151.90299988    1.39999998    0.30000001
   16.68083191  127.52999878    1.39999998    0.30000001
   16.68388748  136.79200745    1.39999998    0.30000001
   16.68722153  179.10800171    1.39999998    0.30000001
   16.69027710  132.34300232    1.39999998    0.30000001
   16.69361115  131.51199341    1.39999998    0.30000001
   16.69666672  124.15699768    1.39999998    0.30000001
   16.70000076  146.29499817    1.39999998    0.30000001
   16.70305634  139.88400269    1.39999998    0.30000001
   16.70861244  139.88400269    1.39999998    0.30000001
   16.71277809  162.55099487    1.39999998    0.30000001
   16.71583366  143.18600464    1.39999998    0.30000001
   16.71916771  170.63299561    1.39999998    0.30000001
   16.72222328  159.96800232    1.39999998    0.30000001
   16.72555542  130.13000488    1.39999998    0.30000001
   16.72861099  145.94999695    1.39999998    0.30000001
   16.73194504  137.27000427    1.39999998    0.30000001
   16.73500061  158.20799255    1.39999998    0.30000001
   16.73833275  138.01100159    1.39999998    0.30000001
   16.74138832  139.62399292    1.39999998    0.30000001
   16.74472237  153.80999756    1.39999998    0.30000001
   16.74777794  146.12699890    1.39999998    0.30000001
   16.75111198  180.66600037    1.39999998    0.30000001
   16.75416756  181.52000427    1.39999998    0.30000001
   16.75972176  181.52000427    1.39999998    0.30000001
   16.76388931  192.09899902    1.39999998    0.30000001
   16.76722145  167.90899658    1.39999998    0.30000001
   16.77027702  173.39199829    1.39999998    0.30000001
   16.77361107  176.19999695    1.39999998    0.30000001
   16.77666664  168.35400391    1.39999998    0.30000001
   16.78000069  174.30299377    1.39999998    0.30000001
   16.78305435  165.58000183    1.39999998    0.30000001
   16.78638840  169.86500549    1.39999998    0.30000001
   16.78944397  150.66099548    1.39999998    0.30000001
   16.79277802  188.82200623    1.39999998    0.30000001
   16.79583359  180.39900208    1.39999998    0.30000001
   16.79916573  166.46499634    1.39999998    0.30000001
   16.80222130  190.05200195    1.39999998    0.30000001
   16.80555534  189.83900452    1.39999998    0.30000001
   16.81110954  189.83900452    1.39999998    0.30000001
   16.81499863  154.46200562    1.39999998    0.30000001
   16.81833458  170.87399292    1.39999998    0.30000001
   16.82139015  168.45500183    1.39999998    0.30000001
   16.82472229  165.61399841    1.39999998    0.30000001
   16.82777786  165.91900635    1.39999998    0.30000001
   16.83111191  174.25399780    1.39999998    0.30000001
   16.83416748  187.96600342    1.39999998    0.30000001
   16.83750153  192.30900574    1.39999998    0.30000001
   16.84055710  195.23699951    1.39999998    0.30000001
   16.84388924  194.08700562    1.39999998    0.30000001
   16.84694481  177.03399658    1.39999998    0.30000001
   16.85027885  152.50000000    1.39999998    0.30000001
   16.85333443  180.91400146    1.39999998    0.30000001
   16.85666656  174.03300476    1.39999998    0.30000001
   16.86222267  174.03300476    1.39999998    0.30000001
   16.86638832  173.95799255    1.39999998    0.30000001
   16.86944389  162.03700256    1.39999998    0.30000001
   16.87277794  185.75399780    1.39999998    0.30000001
   16.87583351  198.50300598    1.39999998    0.30000001
   16.87916756  200.82400513    1.39999998    0.30000001
   16.88222313  196.46499634    1.39999998    0.30000001
   16.88555527  187.61799622    1.39999998    0.30000001
   16.88861084  179.77499390    1.39999998    0.30000001
   16.89194489  189.32499695    1.39999998    0.30000001
   16.89500046  209.39199829    1.39999998    0.30000001
   16.89833260  206.99699402    1.39999998    0.30000001
   16.90138817  196.58000183    1.39999998    0.30000001
   16.90472221  234.83000183    1.39999998    0.30000001
   16.92611122  234.83000183    1.39999998    0.30000001
   16.93000031  172.32800293    1.39999998    0.30000001
   16.93333244  149.25999451    1.39999998    0.30000001
   16.93638802  173.22700500    1.39999998    0.30000001
   16.93972206  180.90899658    1.39999998    0.30000001
   16.94277763  189.57000732    1.39999998    0.30000001
   16.94610977  213.43499756    1.39999998    0.30000001
   16.94916534  170.24400330    1.39999998    0.30000001
   16.95250130  218.21400452    1.39999998    0.30000001
   16.95555687  228.13800049    1.39999998    0.30000001
   16.95888901  198.61000061    1.39999998    0.30000001
   16.96194458  205.87899780    1.39999998    0.30000001
   16.96527863  217.63299561    1.39999998    0.30000001
   16.96833420  206.07899475    1.39999998    0.30000001
   16.97166634  216.56199646    1.39999998    0.30000001
   16.97361183  190.15899658    1.39999998    0.30000001
   16.97750092  190.15899658    1.39999998    0.30000001
   16.98166656  176.60699463    1.39999998    0.30000001
   16.98500061  182.87399292    1.39999998    0.30000001
   16.98805618  193.95700073    1.39999998    0.30000001
   16.99138832  195.62500000    1.39999998    0.30000001
   16.99444389  179.76499939    1.39999998    0.30000001
   16.99777794  203.31100464    1.39999998    0.30000001
   17.00083351  205.46899414    1.39999998    0.30000001
   17.00416756  238.40899658    1.39999998    0.30000001
   17.00722313  184.16799927    1.39999998    0.30000001
   17.01055527  256.91500854    1.39999998    0.30000001
   17.01361084  218.49000549    1.39999998    0.30000001
   17.01694489  239.80999756    1.39999998    0.30000001
   17.02000046  271.00500488    1.39999998    0.30000001
   17.02333260  245.94500732    1.39999998    0.30000001
   17.02361107  243.21000671    1.39999998    0.30000001
   17.02888870  243.21000671    1.39999998    0.30000001
   17.03277779  253.28300476    1.39999998    0.30000001
   17.03610992  284.07199097    1.39999998    0.30000001
   17.03916550  296.68499756    1.39999998    0.30000001
   17.04249954  273.50299072    1.39999998    0.30000001
   17.04555511  271.22299194    1.39999998    0.30000001
   17.04888916  262.34298706    1.39999998    0.30000001
   17.05194283  262.71200562    1.39999998    0.30000001
   17.05527687  272.39999390    1.39999998    0.30000001
   17.05833244  269.21701050    1.39999998    0.30000001
   17.06166649  251.41000366    1.39999998    0.30000001
   17.06472206  278.51901245    1.39999998    0.30000001
   17.06805611  257.55398560    1.39999998    0.30000001
   17.07111168  249.19400024    1.39999998    0.30000001
   17.07361221  250.16099548    1.39999998    0.30000001
   17.07472229  230.75300598    1.39999998    0.30000001
   17.08000183  230.75300598    1.39999998    0.30000001
   17.08416748  261.39801025    1.39999998    0.30000001
   17.08722305  274.59298706    1.39999998    0.30000001
   17.09055710  195.76300049    1.39999998    0.30000001
   17.09361267  198.16999817    1.39999998    0.30000001
   17.09694481  237.31500244    1.39999998    0.30000001
   17.10000038  224.99099731    1.39999998    0.30000001
   17.10333443  225.11500549    1.39999998    0.30000001
   17.10639000  196.65199280    1.39999998    0.30000001
   17.10972214  234.42799377    1.39999998    0.30000001
   17.11277771  228.22700500    1.39999998    0.30000001
   17.11611176  218.00900269    1.39999998    0.30000001
   17.11916733  240.44799805    1.39999998    0.30000001
   17.12249947  233.70300293    1.39999998    0.30000001
   17.12361145  221.72099304    1.39999998    0.30000001
   17.12611198  214.89599609    1.39999998    0.30000001
   17.13111115  214.89599609    1.39999998    0.30000001
   17.13527679  178.64500427    1.39999998    0.30000001
   17.13833237  225.63900757    1.39999998    0.30000001
   17.14166641  238.31300354    1.39999998    0.30000001
   17.14472198  203.76899719    1.39999998    0.30000001
   17.14805603  176.62399292    1.39999998    0.30000001
   17.15111160  166.58399963    1.39999998    0.30000001
   17.15444374  221.98599243    1.39999998    0.30000001
   17.15749931  247.28199768    1.39999998    0.30000001
   17.16083336  187.36099243    1.39999998    0.30000001
   17.16388893  221.38299561    1.39999998    0.30000001
   17.16722107  190.22599792    1.39999998    0.30000001
   17.17027664  227.30200195    1.39999998    0.30000001
   17.17361069  225.23800659    1.39999998    0.30000001
   17.17388916  215.40499878    1.39999998    0.30000001
   17.17722130  211.01300049    1.39999998    0.30000001
   17.18222237  211.01300049    1.39999998    0.30000001
   17.18638802  192.71400452    1.39999998    0.30000001
   17.18944359  195.10200500    1.39999998    0.30000001
   17.19277763  212.81399536    1.39999998    0.30000001
   17.19583321  203.47399902    1.39999998    0.30000001
   17.19916534  186.96800232    1.39999998    0.30000001
   17.20222282  185.23800659    1.39999998    0.30000001
   17.20555687  177.46000671    1.39999998    0.30000001
   17.20888901  196.52000427    1.39999998    0.30000001
   17.21194458  204.42300415    1.39999998    0.30000001
   17.21527863  181.67199707    1.39999998    0.30000001
   17.21833420  178.50100708    1.39999998    0.30000001
   17.22166634  184.20399475    1.39999998    0.30000001
   17.22389030  207.79699707    1.39999998    0.30000001
   17.22527885  195.35800171    1.39999998    0.30000001
   17.22833443  171.83999634    1.39999998    0.30000001
   17.23361206  171.83999634    1.39999998    0.30000001
   17.23750114  140.14599609    1.39999998    0.30000001
   17.24083328  151.70100403    1.39999998    0.30000001
   17.24388885  181.28900146    1.39999998    0.30000001
   17.24722290  170.39599609    1.39999998    0.30000001
   17.25027847  172.44900513    1.39999998    0.30000001
   17.25361061  161.83999634    1.39999998    0.30000001
   17.25666618  177.07099915    1.39999998    0.30000001
   17.26000023  154.34300232    1.39999998    0.30000001
   17.26305580  182.18600464    1.39999998    0.30000001
   17.26638794  170.89999390    1.39999998    0.30000001
   17.26944351  184.36700439    1.39999998    0.30000001
   17.27277756  174.53799438    1.39999998    0.30000001
   17.27416611  171.28700256    1.39999998    0.30000001
   17.27611160  169.13999939    1.39999998    0.30000001
   17.27916718  184.29800415    1.39999998    0.30000001
   17.28472137  184.29800415    1.39999998    0.30000001
   17.28861046  178.68899536    1.39999998    0.30000001
   17.29194450  180.14300537    1.39999998    0.30000001
   17.29500008  192.02299500    1.39999998    0.30000001
   17.29833221  151.58000183    1.39999998    0.30000001
   17.30138779  185.78599548    1.39999998    0.30000001
   17.30472183  167.93699646    1.39999998    0.30000001
   17.30777740  180.09599304    1.39999998    0.30000001
   17.31110954  176.45799255    1.39999998    0.30000001
   17.31416512  195.71699524    1.39999998    0.30000001
   17.31750107  154.23599243    1.39999998    0.30000001
   17.32055664  180.98800659    1.39999998    0.30000001
   17.32389069  177.61700439    1.39999998    0.30000001
   17.32444572  171.83099365    1.39999998    0.30000001
   17.32750130  187.27299500    1.39999998    0.30000001
   17.33083344  176.05099487    1.39999998    0.30000001
   17.33583450  176.05099487    1.39999998    0.30000001
   17.34000015  188.74699402    1.39999998    0.30000001
   17.34305573  187.05200195    1.39999998    0.30000001
   17.34638977  183.60400391    1.39999998    0.30000001
   17.34944534  175.95599365    1.39999998    0.30000001
   17.35277748  178.64399719    1.39999998    0.30000001
   17.35583305  161.35699463    1.39999998    0.30000001
   17.35916710  167.84199524    1.39999998    0.30000001
   17.36222267  175.31799316    1.39999998    0.30000001
   17.36555672  173.57000732    1.39999998    0.30000001
   17.36861038  163.88900757    1.39999998    0.30000001
   17.37194443  190.10600281    1.39999998    0.30000001
   17.37444496  190.28999329    1.39999998    0.30000001
   17.37527847  186.99800110    1.39999998    0.30000001
   17.37861061  177.76300049    1.39999998    0.30000001
   17.38166618  185.85099792    1.39999998    0.30000001
   17.38694382  185.85099792    1.39999998    0.30000001
   17.39111137  188.75599670    1.39999998    0.30000001
   17.39416695  170.22799683    1.39999998    0.30000001
   17.39749908  183.82200623    1.39999998    0.30000001
   17.40055466  159.39199829    1.39999998    0.30000001
   17.40388870  160.80000305    1.39999998    0.30000001
   17.40694427  181.46299744    1.39999998    0.30000001
   17.41027832  157.85299683    1.39999998    0.30000001
   17.41333389  169.90800476    1.39999998    0.30000001
   17.41666603  161.27499390    1.39999998    0.30000001
   17.41972160  178.67500305    1.39999998    0.30000001
   17.42305565  183.13000488    1.39999998    0.30000001
   17.42444420  148.90400696    1.39999998    0.30000001
   17.42638779  171.93099976    1.39999998    0.30000001
   17.42972183  182.48199463    1.39999998    0.30000001
   17.43277740  178.44700623    1.39999998    0.30000001
   17.43833160  178.44700623    1.39999998    0.30000001
   17.44222069  154.36099243    1.39999998    0.30000001
   17.44555473  147.19999695    1.39999998    0.30000001
   17.44861031  163.02600098    1.39999998    0.30000001
   17.45194435  145.67500305    1.39999998    0.30000001
   17.45499992  165.73800659    1.39999998    0.30000001
   17.45833397  158.33200073    1.39999998    0.30000001
   17.46138954  161.67100525    1.39999998    0.30000001
   17.46472359  166.26100159    1.39999998    0.30000001
   17.46777916  169.25100708    1.39999998    0.30000001
   17.47111130  143.69200134    1.39999998    0.30000001
   17.47416687  132.46600342    1.39999998    0.30000001
   17.47472191  134.10699463    1.39999998    0.30000001
   17.47777748  166.50500488    1.39999998    0.30000001
   17.48111153  161.11399841    1.39999998    0.30000001
   17.48416710  155.83700562    1.39999998    0.30000001
   17.48944473  155.83700562    1.39999998    0.30000001
   17.49333382  164.27999878    1.39999998    0.30000001
   17.49666786  163.80299377    1.39999998    0.30000001
   17.49972153  155.34199524    1.39999998    0.30000001
   17.50305557  150.33500671    1.39999998    0.30000001
   17.50611115  166.91499329    1.39999998    0.30000001
   17.50944519  153.80799866    1.39999998    0.30000001
   17.51250076  168.52299500    1.39999998    0.30000001
   17.51583290  155.36099243    1.39999998    0.30000001
   17.51888847  158.21200562    1.39999998    0.30000001
   17.52222252  159.64399719    1.39999998    0.30000001
   17.52472115  185.24299622    1.39999998    0.30000001
   17.52555466  157.38900757    1.39999998    0.30000001
   17.52888870  153.17799377    1.39999998    0.30000001
   17.53194427  161.61500549    1.39999998    0.30000001
   17.53527641  158.97000122    1.39999998    0.30000001
   17.54055595  158.97000122    1.39999998    0.30000001
   17.54472160  148.46200562    1.39999998    0.30000001
   17.54777718  112.86900330    1.39999998    0.30000001
   17.55111122  153.85299683    1.39999998    0.30000001
   17.55416679  138.89900208    1.39999998    0.30000001
   17.55749893  143.75300598    1.39999998    0.30000001
   17.56055450  137.12300110    1.39999998    0.30000001
   17.56388855  139.13200378    1.39999998    0.30000001
   17.56694603  159.35400391    1.39999998    0.30000001
   17.57027817  141.61300659    1.39999998    0.30000001
   17.57333374  123.69699860    1.39999998    0.30000001
   17.57472229  142.79499817    1.39999998    0.30000001
   17.57666779  152.65299988    1.39999998    0.30000001
   17.58000183  133.71499634    1.39999998    0.30000001
   17.58305550  165.44400024    1.39999998    0.30000001
   17.58638954  142.83500671    1.39999998    0.30000001
   17.59166718  142.83500671    1.39999998    0.30000001
   17.59583473  165.93899536    1.39999998    0.30000001
   17.59889030  149.58500671    1.39999998    0.30000001
   17.60222244  152.75500488    1.39999998    0.30000001
   17.60527802  162.08700562    1.39999998    0.30000001
   17.60861206  151.69200134    1.39999998    0.30000001
   17.61166763  152.40299988    1.39999998    0.30000001
   17.61499977  156.36900330    1.39999998    0.30000001
   17.61805534  136.41299438    1.39999998    0.30000001
   17.62138939  151.24800110    1.39999998    0.30000001
   17.62444496  134.63699341    1.39999998    0.30000001
   17.62500000  129.25900269    1.39999998    0.30000001
   17.62833405  136.22399902    1.39999998    0.30000001
   17.63138962  147.21899414    1.39999998    0.30000001
   17.63472176  139.06799316    1.39999998    0.30000001
   17.63777733  136.29800415    1.39999998    0.30000001
   17.64277840  136.29800415    1.39999998    0.30000001
   17.64694405  129.19999695    1.39999998    0.30000001
   17.65027809  147.28599548    1.39999998    0.30000001
   17.65333366  142.57699585    1.39999998    0.30000001
   17.65666580  146.75700378    1.39999998    0.30000001
   17.65972137  136.59399414    1.39999998    0.30000001
   17.66305542  138.03399658    1.39999998    0.30000001
   17.66611099  147.49499512    1.39999998    0.30000001
   17.66944313  148.38400269    1.39999998    0.30000001
   17.67249870  135.96499634    1.39999998    0.30000001
   17.67499924  131.50799561    1.39999998    0.30000001
   17.67611122  133.79400635    1.39999998    0.30000001
   17.67916679  116.78299713    1.39999998    0.30000001
   17.68249893  136.47000122    1.39999998    0.30000001
   17.68555450  121.69799805    1.39999998    0.30000001
   17.68888855  154.82600403    1.39999998    0.30000001
   17.69416618  154.82600403    1.39999998    0.30000001
   17.69805527  151.62500000    1.39999998    0.30000001
   17.70138931  133.34100342    1.39999998    0.30000001
   17.70444489  128.60899353    1.39999998    0.30000001
   17.70777893  144.06900024    1.39999998    0.30000001
   17.71083450  136.83000183    1.39999998    0.30000001
   17.71416664  129.13099670    1.39999998    0.30000001
   17.71722221  120.11499786    1.39999998    0.30000001
   17.72055626  133.86799622    1.39999998    0.30000001
   17.72361183  129.03199768    1.39999998    0.30000001
   17.72500038  147.56799316    1.39999998    0.30000001
   17.72722244  151.39399719    1.39999998    0.30000001
   17.73027802  130.69200134    1.39999998    0.30000001
   17.73361206  123.91899872    1.39999998    0.30000001
   17.73666763  131.79200745    1.39999998    0.30000001
   17.73999977  143.14900208    1.39999998    0.30000001
   17.74527740  143.14900208    1.39999998    0.30000001
   17.74944496  137.30299377    1.39999998    0.30000001
   17.75250053  147.88200378    1.39999998    0.30000001
   17.75583267  131.54499817    1.39999998    0.30000001
   17.75888824  177.26699829    1.39999998    0.30000001
   17.76222229  143.37500000    1.39999998    0.30000001
   17.76527786  144.72999573    1.39999998    0.30000001
   17.76861000  160.00999451    1.39999998    0.30000001
   17.77166557  166.05299377    1.39999998    0.30000001
   17.77499962  155.23699951    1.39999998    0.30000001
   17.77527809  149.66900635    1.39999998    0.30000001
   17.77861023  148.44000244    1.39999998    0.30000001
   17.78166580  161.45399475    1.39999998    0.30000001
   17.78499985  169.31100464    1.39999998    0.30000001
   17.78805542  189.28599548    1.39999998    0.30000001
   17.79138756  148.93299866    1.39999998    0.30000001
   17.79638863  148.93299866    1.39999998    0.30000001
   17.80055428  170.17900085    1.39999998    0.30000001
   17.80360985  172.72500610    1.39999998    0.30000001
   17.80694389  171.13299561    1.39999998    0.30000001
   17.80999947  185.95100403    1.39999998    0.30000001
   17.81333351  187.96600342    1.39999998    0.30000001
   17.81638718  185.14900208    1.39999998    0.30000001
   17.81972313  157.49099731    1.39999998    0.30000001
   17.82277870  145.00100708    1.39999998    0.30000001
   17.82555580  170.82400513    1.39999998    0.30000001
   17.82638931  152.66900635    1.39999998    0.30000001
   17.82972336  157.17599487    1.39999998    0.30000001
   17.83277893  194.08999634    1.39999998    0.30000001
   17.83611107  181.17300415    1.39999998    0.30000001
   17.83916664  165.85699463    1.39999998    0.30000001
   17.84250069  162.28399658    1.39999998    0.30000001
   17.84749985  162.28399658    1.39999998    0.30000001
   17.85166740  185.65400696    1.39999998    0.30000001
   17.85499954  187.86099243    1.39999998    0.30000001
   17.85805511  176.21400452    1.39999998    0.30000001
   17.86138916  205.25500488    1.39999998    0.30000001
   17.86444473  166.03700256    1.39999998    0.30000001
   17.86777878  156.72200012    1.39999998    0.30000001
   17.87083435  160.28500366    1.39999998    0.30000001
   17.87416649  183.29800415    1.39999998    0.30000001
   17.87555504  168.11099243    1.39999998    0.30000001
   17.87750053  196.72799683    1.39999998    0.30000001
   17.88083267  217.66200256    1.39999998    0.30000001
   17.88388824  243.16900635    1.39999998    0.30000001
   17.88722229  228.61700439    1.39999998    0.30000001
   17.89027786  206.70500183    1.39999998    0.30000001
   17.89361191  204.79899597    1.39999998    0.30000001
   17.89888954  204.79899597    1.39999998    0.30000001
   17.90277672  195.25199890    1.39999998    0.30000001
   17.90611076  196.40899658    1.39999998    0.30000001
   17.90916634  186.65499878    1.39999998    0.30000001
   17.91250038  184.90600586    1.39999998    0.30000001
   17.91555595  167.63200378    1.39999998    0.30000001
   17.91888809  178.30700684    1.39999998    0.30000001
   17.92194366  173.03199768    1.39999998    0.30000001
   17.93916512  179.59199524    1.39999998    0.30000001
   17.94194412  179.03700256    1.39999998    0.30000001
   17.94499969  170.81700134    1.39999998    0.30000001
   17.95000076  170.81700134    1.39999998    0.30000001
   17.95416832  158.26199341    1.39999998    0.30000001
   17.95750046  169.44000244    1.39999998    0.30000001
   17.96055603  170.12300110    1.39999998    0.30000001
   17.96389008  155.07099915    1.39999998    0.30000001
   17.96694565  168.05700684    1.39999998    0.30000001
   17.97027779  167.05299377    1.39999998    0.30000001
   17.97333336  184.92599487    1.39999998    0.30000001
   17.97666740  157.32899475    1.39999998    0.30000001
   17.97972298  150.42999268    1.39999998    0.30000001
   17.98305511  152.01199341    1.39999998    0.30000001
   17.98611069  141.75500488    1.39999998    0.30000001
   17.98916626  133.76400757    1.39999998    0.30000001
   17.98972321  154.58099365    1.39999998    0.30000001
   17.99277878  133.89100647    1.39999998    0.30000001
   17.99583435  137.62500000    1.39999998    0.30000001
   18.00138855  137.62500000    1.39999998    0.30000001
   18.00527763  146.53300476    1.39999998    0.30000001
   18.00861168  146.59899902    1.39999998    0.30000001
   18.01166725  153.42399597    1.39999998    0.30000001
   18.01499939  152.82200623    1.39999998    0.30000001
   18.01805496  150.87100220    1.39999998    0.30000001
   18.02138901  117.22299957    1.39999998    0.30000001
   18.02444458  143.65800476    1.39999998    0.30000001
   18.02777672  174.47599792    1.39999998    0.30000001
   18.03083229  162.73899841    1.39999998    0.30000001
   18.03416634  142.07200623    1.39999998    0.30000001
   18.03722191  138.25399780    1.39999998    0.30000001
   18.03916550  136.90299988    1.39999998    0.30000001
   18.04111099  143.38400269    1.39999998    0.30000001
   18.04416656  154.11599731    1.39999998    0.30000001
   18.04749870  131.13400269    1.39999998    0.30000001
   18.05249977  131.13400269    1.39999998    0.30000001
   18.05666542  144.74600220    1.39999998    0.30000001
   18.05972099  145.26400757    1.39999998    0.30000001
   18.06305504  145.62199402    1.39999998    0.30000001
   18.06611061  140.36099243    1.39999998    0.30000001
   18.06944466  153.54100037    1.39999998    0.30000001
   18.07250023  155.28900146    1.39999998    0.30000001
   18.07583427  139.89399719    1.39999998    0.30000001
   18.07888985  142.36300659    1.39999998    0.30000001
   18.08222389  144.12899780    1.39999998    0.30000001
   18.08527756  149.53700256    1.39999998    0.30000001
   18.08861160  150.86900330    1.39999998    0.30000001
   18.08916664  148.02499390    1.39999998    0.30000001
   18.09222221  141.68299866    1.39999998    0.30000001
   18.09527779  138.65899658    1.39999998    0.30000001
   18.09861183  141.69900513    1.39999998    0.30000001
   18.10361099  141.69900513    1.39999998    0.30000001
   18.10777855  170.39700317    1.39999998    0.30000001
   18.11083412  166.83000183    1.39999998    0.30000001
   18.11416626  122.70800018    1.39999998    0.30000001
   18.11722183  131.46800232    1.39999998    0.30000001
   18.12055588  126.67400360    1.39999998    0.30000001
   18.12361145  101.86199951    1.39999998    0.30000001
   18.12694550  115.97399902    1.39999998    0.30000001
   18.13000107  100.41699982    1.39999998    0.30000001
   18.13333321  120.18699646    1.39999998    0.30000001
   18.13638878  119.74800110    1.39999998    0.30000001
   18.13916588   95.40799713    1.39999998    0.30000001
   18.14027786  109.38500214    1.39999998    0.30000001
   18.14333344   93.76770020    1.39999998    0.30000001
   18.14666748   90.87889862    1.39999998    0.30000001
   18.14972115  111.26799774    1.39999998    0.30000001
   18.15472221  111.26799774    1.39999998    0.30000001
   18.15888786   99.83999634    1.39999998    0.30000001
   18.16222191  176.51100159    1.39999998    0.30000001
   18.16527748  152.72099304    1.39999998    0.30000001
   18.16860962  108.44000244    1.39999998    0.30000001
   18.17166519  136.17300415    1.39999998    0.30000001
   18.17499924  198.80499268    1.39999998    0.30000001
   18.17805481  176.42500305    1.39999998    0.30000001
   18.18138885  147.76400757    1.39999998    0.30000001
   18.18444443  201.56199646    1.39999998    0.30000001
   18.18777657  127.94300079    1.39999998    0.30000001
   18.18916512  180.89500427    1.39999998    0.30000001
   18.19138718  180.16499329    1.39999998    0.30000001
   18.19444275  226.88099670    1.39999998    0.30000001
   18.19777679  187.80099487    1.39999998    0.30000001
   18.20083427  160.72900391    1.39999998    0.30000001
   18.20611191  160.72900391    1.39999998    0.30000001
   18.21000099  157.29699707    1.39999998    0.30000001
   18.21333504  105.30200195    1.39999998    0.30000001
   18.21638870  171.83299255    1.39999998    0.30000001
   18.21972275  188.62600708    1.39999998    0.30000001
   18.22277832  169.71600342    1.39999998    0.30000001
   18.22611237  144.77400208    1.39999998    0.30000001
   18.22916794  154.83200073    1.39999998    0.30000001
   18.23250008  205.78300476    1.39999998    0.30000001
   18.23555565  214.87600708    1.39999998    0.30000001
   18.23888969  192.00300598    1.39999998    0.30000001
   18.23944473  180.82200623    1.39999998    0.30000001
   18.24250031  199.93699646    1.39999998    0.30000001
   18.24555588  189.89799500    1.39999998    0.30000001
   18.24888992  180.41000366    1.39999998    0.30000001
   18.25194359  154.28700256    1.39999998    0.30000001
   18.25722313  154.28700256    1.39999998    0.30000001
   18.26138878  200.31100464    1.39999998    0.30000001
   18.26444435  171.21299744    1.39999998    0.30000001
   18.26777840  166.28900146    1.39999998    0.30000001
   18.27083397  173.98800659    1.39999998    0.30000001
   18.27416611  177.25399780    1.39999998    0.30000001
   18.27722168  196.93400574    1.39999998    0.30000001
   18.29583359   -1.00000000   -1.00000000   -1.00000000
   18.29999924   -1.00000000   -1.00000000   -1.00000000
