    HOUR (UT)   FLARE FACTOR    SKY TESTER    SUN TESTER
   11.58722210   -1.00000000   -1.00000000   -1.00000000
   11.68083382   77.88999939    0.58999997    2.75000000
   11.68472195   77.65730286    0.58999997    2.75000000
   11.68944454   80.10340118    0.58999997    2.75000000
   11.69250011   81.23709869    0.58999997    2.75000000
   11.69555569   75.82669830    0.58999997    2.75000000
   11.69888878   74.79930115    0.58999997    2.75000000
   11.70194435   75.49179840    0.58999997    2.75000000
   11.70527744   76.52860260    0.58999997    2.75000000
   11.70861053   79.47750092    0.58999997    2.75000000
   11.71166611   76.78240204    0.58999997    2.75000000
   11.71416664   78.54530334    0.58999997    2.75000000
   11.71527767   73.59860229    0.58999997    2.75000000
   11.71833324   75.95690155    0.58999997    2.75000000
   11.72166634   73.70059967    0.58999997    2.75000000
   11.72472191   75.73429871    0.58999997    2.75000000
   11.72777748   76.05049896    0.58999997    2.75000000
   11.73111057   76.13659668    0.58999997    2.75000000
   11.73416710   82.45539856    0.58999997    2.75000000
   11.73750019   74.19370270    0.58999997    2.75000000
   11.74055576   79.15720367    0.58999997    2.75000000
   11.74388885   75.41729736    0.56999999    2.75000000
   11.74694443   76.39569855    0.56999999    2.76999998
   11.75027752   79.32640076    0.56999999    2.76999998
   11.75333309   74.03379822    0.56999999    2.75000000
   11.75805569   77.87979889    0.58999997    2.75000000
   11.76138878   74.29679871    0.58999997    2.75000000
   11.76416683   77.88520050    0.56999999    2.75000000
   11.76500034   73.95359802    0.56999999    2.75000000
   11.76805496   74.02249908    0.56999999    2.76999998
   11.77138901   75.23349762    0.58999997    2.75000000
   11.77444458   77.68499756    0.58999997    2.75000000
   11.77777767   76.37999725    0.56999999    2.75000000
   11.78083324   76.74389648    0.56999999    2.75000000
   11.78416729   75.34500122    0.56999999    2.76999998
   11.78722286   75.46250153    0.56999999    2.76999998
   11.79055595   74.60079956    0.56999999    2.76999998
   11.79361153   79.63500214    0.55000001    2.76999998
   11.79694462   75.68180084    0.55000001    2.76999998
   11.80000019   75.71569824    0.55000001    2.76999998
   11.80333328   73.67859650    0.52999997    2.75000000
   11.80638885   73.71430206    0.55000001    2.75000000
   11.80972195   79.47709656    0.52999997    2.76999998
   11.81277752   75.58879852    0.52999997    2.76999998
   11.81416702   75.81349945    0.52999997    2.76999998
   11.81638908   75.73809814    0.52999997    2.76999998
   11.81944466   80.32230377    0.55000001    2.76999998
   11.82277775   74.33209991    0.52999997    2.76999998
   11.82583332   76.44699860    0.52999997    2.78999996
   11.82916641   78.01699829    0.52999997    2.76999998
   11.83222198   83.22630310    0.52999997    2.76999998
   11.83555508   75.81559753    0.52999997    2.78999996
   11.83861065   75.74800110    0.55000001    2.76999998
   11.84194374   75.58070374    0.52999997    2.76999998
   11.84499931   76.85320282    0.55000001    2.76999998
   11.84833336   78.23600006    0.52999997    2.76999998
   11.85138893   75.75340271    0.55000001    2.78999996
   11.85472298   83.42440033    0.55000001    2.76999998
   11.85777855   77.03630066    0.52999997    2.78999996
   11.86111164   73.84629822    0.55000001    2.78999996
   11.86416721   82.43099976    0.55000001    2.78999996
   11.86472225   81.64350128    0.55000001    2.78999996
   11.86777782   76.27300262    0.52999997    2.76999998
   11.87111092   77.70580292    0.55000001    2.76999998
   11.87416649   77.77480316    0.55000001    2.76999998
   11.87750053   80.07810211    0.52999997    2.78999996
   11.88055611   76.41870117    0.52999997    2.76999998
   11.88388920   76.27459717    0.52999997    2.78999996
   11.88694477   76.85849762    0.52999997    2.78999996
   11.89027786   81.47899628    0.52999997    2.76999998
   11.89333344   79.05149841    0.52999997    2.78999996
   11.89666653   76.27700043    0.52999997    2.78999996
   11.89972210   75.53589630    0.51999998    2.78999996
   11.90305519   75.67359924    0.52999997    2.78999996
   11.90638828   77.79280090    0.51999998    2.78999996
   11.90944386   79.81529999    0.51999998    2.76999998
   11.91277695   77.63839722    0.52999997    2.78999996
   11.91416645   77.92089844    0.51999998    2.78999996
   11.91638851   77.17900085    0.51999998    2.78999996
   11.91944504   75.78980255    0.51999998    2.78999996
   11.92277813   77.83209991    0.51999998    2.78999996
   11.92583370   76.22859955    0.52999997    2.78999996
   11.92916679   76.23600006    0.51999998    2.78999996
   11.93222237   75.59649658    0.51999998    2.78999996
   11.93555546   79.57060242    0.52999997    2.78999996
   11.93861103   78.26670074    0.51999998    2.78999996
   11.94194412   81.49669647    0.51999998    2.78999996
   11.94499969   75.51789856    0.51999998    2.78999996
   11.94833374   75.96829987    0.51999998    2.78999996
   11.95166683   75.21579742    0.51999998    2.78999996
   11.95472240   79.70059967    0.50000000    2.78999996
   11.95805550   81.75949860    0.51999998    2.78999996
   11.96111107   74.32019806    0.50000000    2.78999996
   11.96416664   78.96369934    0.50000000    2.78999996
   11.96472168   76.68119812    0.50000000    2.78999996
   11.96777725   75.72039795    0.50000000    2.78999996
   11.97111034   84.58020020    0.50000000    2.78999996
   11.97416592   78.30690002    0.50000000    2.80999994
   11.97749996   79.61049652    0.50000000    2.78999996
   11.98055553   78.82209778    0.50000000    2.78999996
   11.98388958   85.38480377    0.50000000    2.78999996
   11.98694515   79.82890320    0.50000000    2.78999996
   11.99027824   84.46630096    0.50000000    2.78999996
   11.99333382   78.72380066    0.50000000    2.80999994
   11.99666691   77.99909973    0.50000000    2.80999994
   11.99972248   78.13549805    0.50000000    2.80999994
   12.00305557   78.36759949    0.50000000    2.78999996
   12.00611115   77.77439880    0.50000000    2.78999996
   12.00944424   76.28179932    0.50000000    2.80999994
   12.01249981   78.13230133    0.50000000    2.78999996
   12.01416683   80.60820007    0.50000000    2.80999994
   12.01611137   76.54650116    0.50000000    2.80999994
   12.01916599   81.91400146    0.50000000    2.80999994
   12.02250004   76.59169769    0.50000000    2.78999996
   12.02666664   82.05560303    0.50000000    2.80999994
   12.03055573   78.88629913    0.50000000    2.80999994
   12.03388977   77.78569794    0.50000000    2.80999994
   12.03722286   76.33940125    0.50000000    2.80999994
   12.04138947   77.39559937    0.50000000    2.80999994
   12.04527855   74.83540344    0.50000000    2.80999994
   12.04916668   74.65850067    0.47999999    2.80999994
   12.05249977   75.17949677    0.50000000    2.80999994
   12.05722237   79.56279755    0.47999999    2.80999994
   12.06111145   75.70490265    0.47999999    2.80999994
   12.06555557   79.69650269    0.47999999    2.80999994
   12.06722260   77.08799744    0.47999999    2.80999994
   12.07083321   75.60119629    0.47999999    2.82999992
   12.07444477   75.30329895    0.47999999    2.80999994
   12.07777786   81.78420258    0.47999999    2.80999994
   12.08111095   78.11350250    0.47999999    2.80999994
   12.08416653   74.27850342    0.50000000    2.80999994
   12.08749962   75.42160034    0.50000000    2.80999994
   12.09055519   74.54239655    0.50000000    2.80999994
   12.09388828   77.99849701    0.50000000    2.80999994
   12.09694386   80.09790039    0.50000000    2.80999994
   12.10027790   78.80159760    0.50000000    2.82999992
   12.10333347   76.72109985    0.50000000    2.82999992
   12.10666752   79.91329956    0.50000000    2.82999992
   12.11000061   76.00279999    0.50000000    2.80999994
   12.11305618   76.59100342    0.50000000    2.82999992
   12.11444473   77.33090210    0.50000000    2.82999992
   12.11694431   77.69149780    0.50000000    2.82999992
   12.11999989   78.95339966    0.50000000    2.82999992
   12.12333393   77.61730194    0.47999999    2.80999994
   12.12666702   76.71569824    0.47999999    2.82999992
   12.13000011   77.63349915    0.47999999    2.82999992
   12.13333321   74.86190033    0.47999999    2.82999992
   12.13666630   77.66950226    0.47999999    2.82999992
   12.13972187   80.91230011    0.47999999    2.82999992
   12.14305496   80.27220154    0.50000000    2.82999992
   12.14611053   81.02010345    0.50000000    2.82999992
   12.14944458   79.02660370    0.47999999    2.82999992
   12.15277767   79.67669678    0.50000000    2.82999992
   12.15611076   78.09709930    0.50000000    2.82999992
   12.15972137   77.37729645    0.50000000    2.82999992
   12.16361046   79.12470245    0.50000000    2.82999992
   12.16694450   80.20909882    0.50000000    2.82999992
   12.17027855   77.61959839    0.50000000    2.82999992
   12.17361164   79.17510223    0.50000000    2.82999992
   12.17666721   80.15979767    0.50000000    2.82999992
   12.18000031   79.46949768    0.50000000    2.82999992
   12.18333340   80.20549774    0.50000000    2.82999992
   12.18666649   80.43139648    0.50000000    2.82999992
   12.18972206   77.39499664    0.50000000    2.82999992
   12.19305515   83.05690002    0.50000000    2.82999992
   12.19638920   83.88899994    0.50000000    2.82999992
   12.19944477   81.83519745    0.50000000    2.82999992
   12.20277786   83.31140137    0.50000000    2.82999992
   12.20611095   82.57700348    0.50000000    2.82999992
   12.20944405   72.76490021    0.50000000    2.82999992
   12.21249962   81.83450317    0.51999998    2.82999992
   12.21444416   80.84529877    0.51999998    2.82999992
   12.21638870   80.69789886    0.50000000    2.82999992
   12.21972179   80.16000366    0.51999998    2.82999992
   12.22305489   78.01499939    0.50000000    2.82999992
   12.22611046   78.10310364    0.51999998    2.82999992
   12.22944355   79.38529968    0.51999998    2.82999992
   12.23277760   78.50749969    0.50000000    2.82999992
   12.23583317   77.65229797    0.50000000    2.84999990
   12.23916721   77.56970215    0.50000000    2.82999992
   12.24250031   79.34369659    0.50000000    2.82999992
   12.24555588   80.38970184    0.50000000    2.82999992
   12.24888897   79.94450378    0.50000000    2.84999990
   12.25222206   75.44460297    0.50000000    2.84999990
   12.25555515   79.19490051    0.50000000    2.84999990
   12.25888920   76.53379822    0.50000000    2.84999990
   12.26194477   76.15260315    0.50000000    2.82999992
   12.26444435   76.56839752    0.47999999    2.84999990
   12.26583290   74.66750336    0.47999999    2.84999990
   12.26916599   76.89839935    0.47999999    2.84999990
   12.27222157   75.78119659    0.47999999    2.84999990
   12.27555561   79.41809845    0.47999999    2.84999990
   12.27888870   81.97229767    0.47999999    2.84999990
   12.28222179   77.22209930    0.47999999    2.84999990
   12.28527832   79.26059723    0.47999999    2.84999990
   12.28861141   77.67469788    0.47999999    2.84999990
   12.29166698   82.49310303    0.47999999    2.84999990
   12.29500008   77.07669830    0.47999999    2.84999990
   12.29833412   77.57440186    0.47999999    2.84999990
   12.30194473   81.19159698    0.47999999    2.84999990
   12.30527782   77.76090240    0.47999999    2.84999990
   12.30833340   79.28659821    0.47999999    2.84999990
   12.31166649   78.85510254    0.47999999    2.84999990
   12.31444454   76.28279877    0.46000001    2.84999990
   12.31527805   74.49929810    0.47999999    2.84999990
   12.31833363   77.25109863    0.47999999    2.84999990
   12.32166672   77.89610291    0.46000001    2.84999990
   12.32472229   75.09459686    0.46000001    2.84999990
   12.32805538   77.28160095    0.46000001    2.84999990
   12.33138847   77.85040283    0.46000001    2.84999990
   12.33444405   78.88780212    0.46000001    2.84999990
   12.33777714   77.28389740    0.46000001    2.84999990
   12.34083271   75.08390045    0.46000001    2.84999990
   12.34416676   78.76640320    0.46000001    2.84999990
   12.34722233   79.11630249    0.46000001    2.84999990
   12.35055637   76.58419800    0.44000000    2.84999990
   12.35388947   81.58950043    0.46000001    2.84999990
   12.35694504   76.30259705    0.46000001    2.84999990
   12.36083412   78.75379944    0.46000001    2.84999990
   12.36416721   76.96679688    0.46000001    2.84999990
   12.36472225   78.21459961    0.46000001    2.84999990
   12.36805534   81.90899658    0.46000001    2.84999990
   12.37111092   73.88539886    0.46000001    2.84999990
   12.37444496   78.47689819    0.46000001    2.86999989
   12.37750053   79.07489777    0.46000001    2.86999989
   12.38083363   78.32869720    0.46000001    2.86999989
   12.38388920   79.75090027    0.46000001    2.86999989
   12.38722229   77.85209656    0.46000001    2.86999989
   12.39027786   77.10399628    0.47999999    2.86999989
   12.39361095   74.71089935    0.46000001    2.84999990
   12.39694405   77.64060211    0.46000001    2.84999990
   12.40027714   76.24919891    0.46000001    2.86999989
   12.40361118   80.53749847    0.47999999    2.86999989
   12.40694427   79.75980377    0.46000001    2.84999990
   12.41027737   77.72139740    0.47999999    2.84999990
   12.41333294   77.63480377    0.47999999    2.84999990
   12.41472149   80.72889709    0.47999999    2.84999990
   12.41722298   76.67040253    0.47999999    2.84999990
   12.42027855   77.28630066    0.46000001    2.86999989
   12.42361164   77.31890106    0.47999999    2.86999989
   12.42666721   80.39119720    0.46000001    2.84999990
   12.43000031   79.05599976    0.47999999    2.84999990
   12.43305588   77.36129761    0.47999999    2.86999989
   12.43638897   82.25070190    0.46000001    2.86999989
   12.43972206   80.47499847    0.47999999    2.86999989
   12.44305515   79.68949890    0.47999999    2.86999989
   12.44611073   79.70220184    0.46000001    2.86999989
   12.44944477   80.78510284    0.47999999    2.86999989
   12.45277786   78.78579712    0.47999999    2.86999989
   12.45583344   77.88500214    0.47999999    2.86999989
   12.45916653   80.57769775    0.47999999    2.86999989
   12.46249962   76.23930359    0.47999999    2.86999989
   12.46500015   77.32089996    0.46000001    2.86999989
   12.46611118   76.60600281    0.46000001    2.86999989
   12.46944427   75.60569763    0.46000001    2.84999990
   12.47277737   76.79280090    0.46000001    2.86999989
   12.47611046   78.85269928    0.46000001    2.86999989
   12.47916603   76.34120178    0.46000001    2.86999989
   12.48249912   80.72209930    0.46000001    2.86999989
   12.48555565   77.43679810    0.46000001    2.84999990
   12.48888874   78.07150269    0.46000001    2.84999990
   12.49194431   80.85679626    0.46000001    2.86999989
   12.49527836   79.70420074    0.46000001    2.86999989
   12.49861145   78.59899902    0.46000001    2.86999989
   12.50166702   75.68109894    0.44000000    2.84999990
   12.50500011   77.69470215    0.44000000    2.86999989
   12.50833321   78.83170319    0.44000000    2.86999989
   12.51138878   75.21389771    0.44000000    2.86999989
   12.51472187   76.32379913    0.44000000    2.84999990
   12.51527786   78.67369843    0.44000000    2.84999990
   12.51861095   79.69950104    0.44000000    2.86999989
   12.52166653   80.57309723    0.44000000    2.86999989
   12.52499962   79.88860321    0.46000001    2.86999989
   12.52833271   81.93099976    0.46000001    2.86999989
   12.53138828   79.27519989    0.46000001    2.86999989
   12.53472233   80.82050323    0.46000001    2.86999989
   12.53777790   79.86979675    0.46000001    2.86999989
   12.54111195   73.37940216    0.46000001    2.86999989
   12.54416752   75.42520142    0.46000001    2.86999989
   12.54750061   77.85279846    0.46000001    2.86999989
   12.55166721   80.02670288    0.46000001    2.86999989
   12.55500031   75.83940125    0.46000001    2.86999989
   12.55833340   86.57019806    0.46000001    2.86999989
   12.56166649   81.42900085    0.46000001    2.86999989
   12.56611156   84.35579681    0.46000001    2.89000010
   12.57027817   78.91709900    0.46000001    2.86999989
   12.57416630   76.20839691    0.44000000    2.86999989
   12.57805538   82.32779694    0.46000001    2.86999989
   12.58388901   79.56140137    0.46000001    2.86999989
   12.58722210   76.42289734    0.44000000    2.89000010
   12.59055519   78.48770142    0.44000000    2.86999989
   12.59388828   76.74759674    0.44000000    2.89000010
   12.59722233   75.45099640    0.44000000    2.89000010
   12.60027790   79.62830353    0.44000000    2.86999989
   12.60361195   75.13549805    0.46000001    2.86999989
   12.60694504   80.55339813    0.46000001    2.89000010
   12.61000061   79.48889923    0.44000000    2.89000010
   12.61361122   76.39070129    0.44000000    2.86999989
   12.61833382   82.07060242    0.44000000    2.89000010
   12.61888885   74.52449799    0.44000000    2.89000010
   12.62194443   79.38870239    0.44000000    2.89000010
   12.62527752   78.23079681    0.44000000    2.89000010
   12.62861156   75.29479980    0.46000001    2.86999989
   12.63166714   77.24949646    0.46000001    2.89000010
   12.63500023   76.08750153    0.44000000    2.86999989
   12.63833332   78.69560242    0.44000000    2.89000010
   12.64166641   74.39309692    0.44000000    2.89000010
   12.64472198   79.03109741    0.44000000    2.86999989
   12.64805508   80.92780304    0.46000001    2.86999989
   12.65138817   78.70629883    0.44000000    2.89000010
   12.65472221   79.91860199    0.44000000    2.91000009
   12.65805531   80.11859894    0.44000000    2.89000010
   12.66138840   75.46690369    0.46000001    2.89000010
   12.66444397   77.03530121    0.46000001    2.89000010
   12.66722298   76.90229797    0.46000001    2.89000010
   12.66861153   74.87719727    0.46000001    2.89000010
   12.67194462   76.51660156    0.46000001    2.89000010
   12.67500019   77.87120056    0.46000001    2.89000010
   12.67833328   77.17800140    0.46000001    2.89000010
   12.68138885   78.69319916    0.44000000    2.89000010
   12.70222187   77.98280334    0.46000001    2.89000010
   12.70555496   76.28610229    0.44000000    2.91000009
   12.70916653   77.41999817    0.44000000    2.89000010
   12.71222210   77.18720245    0.44000000    2.89000010
   12.71555519   80.66220093    0.44000000    2.89000010
   12.71749973   76.34179688    0.44000000    2.89000010
   12.71999931   77.23699951    0.46000001    2.89000010
   12.72333336   75.71299744    0.46000001    2.89000010
   12.72694397   77.84809875    0.46000001    2.89000010
   12.73055553   78.18289948    0.46000001    2.89000010
   12.73388958   78.83350372    0.46000001    2.89000010
   12.73722267   79.37950134    0.46000001    2.89000010
   12.74027824   75.96700287    0.44000000    2.89000010
   12.74361134   77.97299957    0.44000000    2.91000009
   12.74666691   78.23570251    0.46000001    2.91000009
   12.75027752   76.46479797    0.44000000    2.89000010
   12.75333309   76.83609772    0.44000000    2.89000010
   12.75666714   78.84329987    0.44000000    2.89000010
   12.76000023   81.88999939    0.44000000    2.89000010
   12.76333332   83.40589905    0.44000000    2.91000009
   12.76666641   78.86340332    0.44000000    2.89000010
   12.76861095   80.09410095    0.44000000    2.89000010
   12.77250004   80.15779877    0.44000000    2.89000010
   12.77583313   79.89959717    0.44000000    2.89000010
   12.77944374   78.64209747    0.44000000    2.89000010
   12.78249931   75.65889740    0.44000000    2.89000010
   12.78583336   79.41660309    0.44000000    2.89000010
   12.78916740   76.95950317    0.44000000    2.89000010
   12.79250050   79.49160004    0.46000001    2.89000010
   12.79638958   76.68939972    0.46000001    2.89000010
   12.79972267   81.38970184    0.44000000    2.89000010
   12.80305576   76.54599762    0.44000000    2.91000009
   12.80611134   79.36620331    0.46000001    2.91000009
   12.80944443   79.20259857    0.46000001    2.91000009
   12.81277752   78.44319916    0.46000001    2.91000009
   12.81611156   77.95809937    0.46000001    2.89000010
   12.81722260   78.47109985    0.46000001    2.89000010
   12.81944466   81.41819763    0.46000001    2.89000010
   12.82277775   78.07450104    0.46000001    2.89000010
   12.82611084   79.36810303    0.46000001    2.89000010
   12.82916641   79.02590179    0.44000000    2.89000010
   12.83249950   78.10119629    0.46000001    2.91000009
   12.83583260   78.82420349    0.46000001    2.91000009
   12.83888817   90.35330200    0.44000000    2.91000009
   12.84222221   86.81089783    0.44000000    2.91000009
   12.84527779   80.84429932    0.44000000    2.91000009
   12.84861088   80.70149994    0.44000000    2.91000009
   12.85194492   76.77420044    0.44000000    2.91000009
   12.85527802   84.23819733    0.44000000    2.91000009
   12.85833359   75.00779724    0.44000000    2.91000009
   12.86166668   75.18589783    0.44000000    2.91000009
   12.86472225   78.42620087    0.44000000    2.89000010
   12.86750031   76.76300049    0.44000000    2.91000009
   12.86888885   79.20690155    0.44000000    2.91000009
   12.87250042   78.64540100    0.44000000    2.91000009
   12.87638855   75.45240021    0.44000000    2.91000009
   12.88000011   74.53389740    0.44000000    2.91000009
   12.88361073   76.76509857    0.44000000    2.91000009
   12.88722229   74.61830139    0.44000000    2.91000009
   12.89083290   73.15699768    0.44000000    2.91000009
   12.89444447   79.58409882    0.44000000    2.93000007
   12.89833355   74.96360016    0.44000000    2.91000009
   12.90194416   73.45300293    0.44000000    2.91000009
   12.90527725   76.74849701    0.44000000    2.91000009
   12.90916634   74.35510254    0.44000000    2.91000009
   12.91277695   80.38189697    0.44000000    2.91000009
   12.91611099   76.27300262    0.44000000    2.91000009
   12.91805553   75.19819641    0.44000000    2.91000009
   12.92111111   77.13459778    0.41999999    2.91000009
   12.92444515   73.88430023    0.41999999    2.91000009
   12.92750072   74.97029877    0.41999999    2.91000009
   12.93083382   71.72889709    0.41999999    2.93000007
   12.93388939   74.84210205    0.41999999    2.91000009
   12.93722248   76.64289856    0.44000000    2.91000009
   12.94027805   76.74089813    0.41999999    2.91000009
   12.94361115   76.68109894    0.44000000    2.93000007
   12.94666672   70.03730011    0.44000000    2.93000007
   12.94999981   79.56269836    0.41999999    2.91000009
   12.95305538   77.51540375    0.44000000    2.91000009
   12.95638847   74.12819672    0.41999999    2.91000009
   12.95944405   69.98139954    0.41999999    2.91000009
   12.96277714   75.03170013    0.41999999    2.91000009
   12.96583271   75.95870209    0.41999999    2.91000009
   12.96722221   75.32830048    0.41999999    2.91000009
   12.96944427   76.98840332    0.41999999    2.91000009
   12.97277737   76.44629669    0.41999999    2.93000007
   12.97583294   76.74230194    0.41999999    2.93000007
   12.97916603   73.82019806    0.41999999    2.91000009
   12.98222160   75.13970184    0.41999999    2.94000006
   12.98555565   74.76339722    0.41999999    2.93000007
   12.98861122   73.66040039    0.41999999    2.93000007
   12.99194431   77.93139648    0.41999999    2.91000009
   12.99499989   76.17389679    0.41999999    2.93000007
   12.99833393   74.68750000    0.41999999    2.91000009
   13.00138855   76.04360199    0.41999999    2.93000007
   13.00472260   79.55799866    0.41999999    2.93000007
   13.00777817   80.97389984    0.41999999    2.93000007
   13.01111126   78.65429688    0.41999999    2.93000007
   13.01416683   78.72799683    0.44000000    2.93000007
   13.01722240   77.02919769    0.41999999    2.93000007
   13.01777744   78.42120361    0.41999999    2.93000007
   13.02111053   84.99900055    0.41999999    2.93000007
   13.02416611   82.99900055    0.41999999    2.93000007
   13.02750015   76.85320282    0.41999999    2.91000009
   13.03055573   78.87490082    0.41999999    2.93000007
   13.03388977   78.35700226    0.41999999    2.93000007
   13.03694534   78.45200348    0.41999999    2.93000007
   13.04027843   80.34059906    0.41999999    2.93000007
   13.04333401   76.71559906    0.41999999    2.93000007
   13.04666710   76.26429749    0.41999999    2.93000007
   13.04972267   74.81900024    0.41999999    2.91000009
   13.05305576   75.88140106    0.41999999    2.91000009
   13.05611134   76.09130096    0.41999999    2.91000009
   13.05944443   74.66719818    0.41999999    2.93000007
   13.06250000   78.73400116    0.41999999    2.91000009
   13.06583309   76.26830292    0.41999999    2.93000007
   13.06722260   78.50620270    0.41999999    2.93000007
   13.06916618   76.77539825    0.41999999    2.93000007
   13.07250023   78.81069946    0.41999999    2.93000007
   13.07555580   79.40709686    0.44000000    2.93000007
   13.07888889   78.28800201    0.41999999    2.93000007
   13.08194447   72.44889832    0.44000000    2.91000009
   13.08527756   76.42230225    0.41999999    2.93000007
   13.08833313   79.96219635    0.41999999    2.94000006
   13.09166622   77.53029633    0.41999999    2.93000007
   13.09472179   77.61260223    0.41999999    2.91000009
   13.09805489   80.90170288    0.41999999    2.93000007
   13.10111141   79.58830261    0.41999999    2.93000007
   13.10444450   81.61160278    0.41999999    2.93000007
   13.10750008   75.90599823    0.41999999    2.93000007
   13.11083412   75.30370331    0.41999999    2.93000007
   13.11388969   79.24839783    0.41999999    2.93000007
   13.11722279   79.18769836    0.41999999    2.93000007
   13.11750031   77.38279724    0.41999999    2.93000007
   13.12083340   79.46080017    0.41999999    2.93000007
   13.12388897   78.93000031    0.41999999    2.94000006
   13.12722206   75.20079803    0.40000001    2.93000007
   13.13027763   79.70780182    0.41999999    2.93000007
   13.13361073   76.17359924    0.40000001    2.93000007
   13.13666630   75.38110352    0.41999999    2.94000006
   13.14000034   75.38430023    0.41999999    2.91000009
   13.14305496   74.82150269    0.41999999    2.93000007
   13.14638901   74.52660370    0.41999999    2.93000007
   13.14944458   76.23310089    0.41999999    2.94000006
   13.15277767   76.69969940    0.41999999    2.94000006
   13.15583324   80.09020233    0.41999999    2.93000007
   13.15916634   77.70490265    0.41999999    2.94000006
   13.16222191   76.03510284    0.41999999    2.94000006
   13.16555500   74.82879639    0.41999999    2.93000007
   13.16722298   79.04389954    0.41999999    2.93000007
   13.16888905   77.89099884    0.41999999    2.93000007
   13.17222214   79.04920197    0.41999999    2.94000006
   13.17527771   79.77760315    0.44000000    2.93000007
   13.17861176   81.38140106    0.41999999    2.93000007
   13.18166733   75.39630127    0.41999999    2.93000007
   13.18500042   75.65000153    0.44000000    2.93000007
   13.18805599   76.30750275    0.44000000    2.94000006
   13.19138908   77.37100220    0.41999999    2.93000007
   13.19444466   75.26670074    0.41999999    2.93000007
   13.19777775   76.07330322    0.41999999    2.94000006
   13.20083332   75.17150116    0.41999999    2.93000007
   13.20416641   76.00630188    0.41999999    2.93000007
   13.20722198   75.98570251    0.41999999    2.93000007
   13.21055508   74.26029968    0.41999999    2.93000007
   13.21361065   73.99400330    0.40000001    2.93000007
   13.21694374   77.45490265    0.40000001    2.94000006
   13.21749973   75.56089783    0.40000001    2.94000006
   13.22055531   77.67829895    0.41999999    2.94000006
   13.22388840   78.35060120    0.41999999    2.94000006
   13.22694397   78.38890076    0.41999999    2.94000006
   13.23027706   80.54290009    0.41999999    2.93000007
   13.23333359   75.59549713    0.40000001    2.93000007
   13.23666668   77.50779724    0.40000001    2.93000007
   13.23972225   76.05370331    0.40000001    2.93000007
   13.24305534   77.04560089    0.40000001    2.93000007
   13.24611092   78.44660187    0.40000001    2.94000006
   13.24944496   77.60109711    0.40000001    2.94000006
   13.25249958   76.17819977    0.40000001    2.94000006
   13.25583363   81.31220245    0.41999999    2.94000006
   13.25888920   79.75070190    0.41999999    2.94000006
   13.26222229   75.73509979    0.41999999    2.94000006
   13.26527786   74.85900116    0.41999999    2.94000006
   13.26749992   76.26820374    0.41999999    2.94000006
   13.26888847   80.41249847    0.41999999    2.94000006
   13.27222157   79.29650116    0.41999999    2.93000007
   13.27527714   76.52649689    0.44000000    2.94000006
   13.27861118   78.82340240    0.41999999    2.94000006
   13.28166676   76.76679993    0.41999999    2.93000007
   13.28500080   79.74490356    0.41999999    2.94000006
   13.28805637   78.25930023    0.41999999    2.94000006
   13.29138947   79.43029785    0.41999999    2.93000007
   13.29444504   77.14569855    0.41999999    2.93000007
   13.29777813   74.43109894    0.41999999    2.94000006
   13.30083370   79.77680206    0.41999999    2.94000006
   13.30416679   78.29299927    0.41999999    2.94000006
   13.30722237   76.84490204    0.41999999    2.94000006
   13.31055546   78.28520203    0.41999999    2.94000006
   13.31361103   78.08390045    0.41999999    2.94000006
   13.31694412   78.28510284    0.40000001    2.94000006
   13.31750011   77.50990295    0.40000001    2.94000006
   13.32027817   76.41529846    0.40000001    2.94000006
   13.32361126   77.03299713    0.41999999    2.93000007
   13.32694435   77.42289734    0.40000001    2.94000006
   13.32999992   74.81430054    0.40000001    2.94000006
   13.33333302   77.49379730    0.40000001    2.94000006
   13.33638859   78.05719757    0.40000001    2.94000006
   13.33972168   74.44650269    0.40000001    2.94000006
   13.34277725   74.33489990    0.40000001    2.94000006
   13.34611034   74.50930023    0.40000001    2.93000007
   13.34916592   78.00140381    0.40000001    2.94000006
   13.35249996   75.09670258    0.41999999    2.94000006
   13.35555553   75.57550049    0.41999999    2.93000007
   13.35888958   79.23590088    0.41999999    2.94000006
   13.36194515   76.12039948    0.41999999    2.94000006
   13.36527824   74.86270142    0.41999999    2.94000006
   13.36750031   78.51000214    0.41999999    2.94000006
   13.36861134   76.02079773    0.41999999    2.94000006
   13.37194443   80.84590149    0.41999999    2.94000006
   13.37500000   76.84600067    0.41999999    2.93000007
   13.37833309   76.94529724    0.41999999    2.94000006
   13.38138866   77.06839752    0.44000000    2.93000007
   13.38472176   75.30979919    0.44000000    2.93000007
   13.38777733   76.25810242    0.46000001    2.94000006
   13.39111137   76.00430298    0.47999999    2.94000006
   13.39416695   77.27279663    0.50000000    2.94000006
   13.39750004   78.34220123    0.50000000    2.94000006
   13.40055561   75.59130096    0.46000001    2.94000006
   13.40388870   77.57379913    0.46000001    2.96000004
   13.40694427   73.84089661    0.44000000    2.94000006
   13.41027737   75.91470337    0.44000000    2.94000006
   13.41333294   73.63659668    0.44000000    2.94000006
   13.41666698   73.36150360    0.44000000    2.93000007
   13.41750050   75.62519836    0.44000000    2.93000007
   13.42000008   75.30629730    0.44000000    2.94000006
   13.42333412   77.49089813    0.50000000    2.96000004
   13.42638874   78.07610321    0.47999999    2.94000006
   13.42972279   78.64080048    0.50000000    2.94000006
   13.43277836   75.25119781    0.46000001    2.94000006
   13.43611145   74.85209656    0.46000001    2.94000006
   13.43916702   81.64399719    0.46000001    2.94000006
   13.44250011   77.33129883    0.46000001    2.94000006
   13.44555569   79.40409851    0.46000001    2.94000006
   13.44888878   77.35990143    0.44000000    2.94000006
   13.45194435   78.48419952    0.46000001    2.94000006
   13.45527744   79.16919708    0.46000001    2.94000006
   13.45833302   76.75469971    0.47999999    2.94000006
   13.46166611   79.14790344    0.46000001    2.94000006
   13.46472168   78.69789886    0.44000000    2.93000007
   13.46749973   79.58809662    0.44000000    2.93000007
   13.46833324   78.31140137    0.44000000    2.94000006
   13.47166634   81.31749725    0.44000000    2.94000006
   13.47472191   80.39540100    0.44000000    2.96000004
   13.47805500   78.48359680    0.44000000    2.94000006
   13.48111057   75.55909729    0.44000000    2.94000006
   13.48444462   74.55819702    0.44000000    2.94000006
   13.48750019   77.33260345    0.44000000    2.94000006
   13.49083328   73.09590149    0.41999999    2.94000006
   13.49388885   77.06490326    0.41999999    2.94000006
   13.49722290   84.19850159    0.44000000    2.94000006
   13.50027752   82.00890350    0.44000000    2.94000006
   13.50361156   74.11309814    0.41999999    2.94000006
   13.50666714   75.61910248    0.41999999    2.96000004
   13.51000023   78.30069733    0.41999999    2.94000006
   13.51305580   74.77790070    0.41999999    2.96000004
   13.51638889   80.12090302    0.41999999    2.96000004
   13.51749992   77.08360291    0.41999999    2.94000006
   13.51972198   78.59200287    0.41999999    2.96000004
   13.52305508   75.77059937    0.41999999    2.93000007
   13.52611065   73.91459656    0.41999999    2.96000004
   13.52944374   76.28739929    0.41999999    2.96000004
   13.53249931   75.32589722    0.41999999    2.96000004
   13.53583336   83.07450104    0.41999999    2.94000006
   13.53888893   77.78050232    0.41999999    2.96000004
   13.54222298   81.19760132    0.40000001    2.94000006
   13.54527855   74.11039734    0.41999999    2.94000006
   13.54861164   74.53070068    0.40000001    2.94000006
   13.55166721   78.35070038    0.41999999    2.94000006
   13.55500031   76.26660156    0.40000001    2.94000006
   13.55805588   76.57810211    0.40000001    2.96000004
   13.56138897   77.80549622    0.40000001    2.94000006
   13.56444454   78.22149658    0.40000001    2.96000004
   13.56750011   74.31999969    0.40000001    2.94000006
   13.56805515   77.81220245    0.40000001    2.94000006
   13.57138920   75.90229797    0.40000001    2.94000006
   13.57444477   75.66570282    0.38000000    2.94000006
   13.57777786   79.14749908    0.40000001    2.96000004
   13.58083344   80.04570007    0.38000000    2.94000006
   13.58416653   74.91970062    0.40000001    2.94000006
   13.58722210   74.34049988    0.40000001    2.96000004
   13.59055519   76.76830292    0.44000000    2.94000006
   13.59361076   74.44390106    0.44000000    2.96000004
   13.59694386   74.06140137    0.44000000    2.96000004
   13.60000038   77.34259796    0.44000000    2.94000006
   13.60333347   74.85510254    0.41999999    2.94000006
   13.60638905   76.03859711    0.41999999    2.96000004
   13.60972214   76.96910095    0.41999999    2.96000004
   13.61277771   77.90950012    0.41999999    2.96000004
   13.61611176   81.06539917    0.41999999    2.96000004
   13.61750031   78.19689941    0.41999999    2.94000006
   13.61944485   76.48870087    0.44000000    2.96000004
   13.62277794   79.22019958    0.46000001    2.96000004
   13.62583351   78.39459991    0.46000001    2.94000006
   13.62916660   75.64959717    0.55000001    2.94000006
   13.63222218   75.93350220    0.56999999    2.94000006
   13.63555527   77.66510010    0.56999999    2.96000004
   13.63861084   79.62989807    0.63000000    2.94000006
   13.64194393   77.92369843    0.75000000    2.94000006
   13.64499950   76.87799835    0.81999999    2.96000004
   13.64833355   75.53780365    0.83999997    2.94000006
   13.65138817   76.34089661    0.88000000    2.94000006
   13.65472221   77.16870117    0.79000002    2.96000004
   13.65777779   74.63710022    0.76999998    2.96000004
   13.66111088   77.33999634    0.75000000    2.96000004
   13.66416645   75.78900146    0.64999998    2.96000004
   13.66750050   75.48809814    0.64999998    2.96000004
   13.66777802   77.59269714    0.64999998    2.96000004
   13.67111111   76.49720001    0.56999999    2.96000004
   13.67416668   76.51360321    0.63000000    2.96000004
   13.67750072   79.43620300    0.67000002    2.96000004
   13.68055630   82.60230255    0.92000002    2.94000006
   13.68388939   77.53240204    0.92000002    2.94000006
   13.68694496   77.01010132    0.64999998    2.96000004
   13.69027805   75.49710083    0.58999997    2.96000004
   13.69333363   76.26799774    0.56999999    2.96000004
   13.69666672   76.90879822    0.56999999    2.96000004
   13.71638870   76.74919891    0.40000001    2.96000004
   13.71749973   79.37110138    0.40000001    2.98000002
   13.71999931   74.62090302    0.40000001    2.98000002
   13.72305489   75.13430023    0.41999999    2.96000004
   13.72638798   77.87729645    0.40000001    2.96000004
   13.72944355   77.06410217    0.40000001    2.96000004
   13.73277760   76.18689728    0.40000001    2.96000004
   13.73583317   75.80590057    0.38000000    2.96000004
   13.73916721   74.48519897    0.38000000    2.96000004
   13.74222279   74.81030273    0.38000000    2.96000004
   13.74555588   77.71589661    0.40000001    2.96000004
   13.74861145   78.04290009    0.38000000    2.96000004
   13.75194454   80.44300079    0.40000001    2.98000002
   13.75500011   78.30319977    0.38000000    2.96000004
   13.75833321   74.35549927    0.40000001    2.98000002
   13.76138878   73.27890015    0.40000001    2.98000002
   13.76472187   75.21810150    0.38000000    2.96000004
   13.76749992   78.43029785    0.36000001    2.96000004
   13.76805496   75.01429749    0.36000001    2.98000002
   13.77138901   76.11049652    0.36000001    2.96000004
   13.77444458   76.64610291    0.38000000    2.96000004
   13.77777767   76.77140045    0.36000001    2.98000002
   13.78083324   74.39129639    0.38000000    2.98000002
   13.78416729   76.97920227    0.38000000    2.96000004
   13.78722286   78.06780243    0.38000000    2.96000004
   13.79055595   74.73400116    0.40000001    2.98000002
   13.79361153   72.49340057    0.38000000    2.98000002
   13.79694462   76.42469788    0.38000000    2.98000002
   13.80000019   76.10150146    0.36000001    2.98000002
   13.80333328   77.21579742    0.38000000    2.96000004
   13.80638885   76.80249786    0.38000000    2.96000004
   13.80972195   78.96150208    0.36000001    2.98000002
   13.81277752   75.42079926    0.36000001    2.96000004
   13.81611156   74.56379700    0.38000000    2.98000002
   13.81750011   77.94999695    0.38000000    2.98000002
   13.81972218   77.62979889    0.38000000    2.98000002
   13.82277775   76.38649750    0.36000001    2.96000004
   13.82611084   78.89790344    0.36000001    2.96000004
   13.82916641   77.24539948    0.36000001    2.98000002
   13.83249950   79.53479767    0.38000000    2.96000004
   13.83555508   77.19229889    0.38000000    2.98000002
   13.83888817   76.21900177    0.38000000    2.96000004
   13.84194374   77.01349640    0.38000000    2.96000004
   13.84527779   76.53479767    0.38000000    2.96000004
   13.84833336   73.39469910    0.40000001    2.96000004
   13.85166740   80.91889954    0.41999999    2.96000004
   13.85472298   73.81890106    0.41999999    2.96000004
   13.85805607   78.34320068    0.41999999    2.96000004
   13.86111164   76.74469757    0.41999999    2.96000004
   13.86444473   73.58540344    0.44000000    2.98000002
   13.86750031   73.26000214    0.44000000    2.98000002
   13.86805534   76.37619781    0.44000000    2.98000002
   13.87111092   77.73339844    0.44000000    2.96000004
   13.87444496   76.29650116    0.41999999    2.98000002
   13.87750053   74.98419952    0.41999999    2.98000002
   13.88083363   75.98560333    0.41999999    2.96000004
   13.88388920   75.37670135    0.41999999    2.96000004
   13.88722229   73.80400085    0.41999999    2.98000002
   13.89027786   76.13880157    0.41999999    2.96000004
   13.89361095   76.34140015    0.41999999    2.98000002
   13.89666653   76.18659973    0.41999999    2.98000002
   13.89999962   75.65560150    0.40000001    2.98000002
   13.90305519   77.66349792    0.40000001    2.96000004
   13.90638828   76.42939758    0.40000001    2.98000002
   13.90944386   73.91000366    0.40000001    2.96000004
   13.91277695   72.54810333    0.38000000    2.98000002
   13.91583252   74.51820374    0.38000000    2.98000002
   13.91750050   77.07659912    0.38000000    2.98000002
   13.91944504   72.97609711    0.38000000    2.98000002
   13.92250061   78.01979828    0.38000000    2.98000002
   13.92583370   74.13749695    0.38000000    2.96000004
   13.92888927   75.09200287    0.36000001    2.98000002
   13.93222237   75.84320068    0.36000001    2.98000002
   14.04388905   -1.00000000   -1.00000000   -1.00000000
   14.14083290   -1.00000000   -1.00000000   -1.00000000
   14.24194431   -1.00000000   -1.00000000   -1.00000000
   14.29722309   66.03040314    0.36000001    3.01999998
   14.30027771   75.40450287    0.36000001    3.00000000
   14.30361176   74.23210144    0.36000001    3.00000000
   14.30666733   71.44580078    0.36000001    3.00000000
   14.31000042   70.52210236    0.36000001    3.00000000
   14.31305599   72.94370270    0.36000001    3.00000000
   14.31638908   75.20989990    0.36000001    3.00000000
   14.31944466   76.93730164    0.38000000    3.00000000
   14.32583332   76.93730164    0.38000000    3.00000000
   14.32972240   72.16770172    0.38000000    3.00000000
   14.33305550   75.37190247    0.40000001    3.00000000
   14.33611107   72.74919891    0.38000000    3.00000000
   14.33944416   75.12290192    0.36000001    3.00000000
   14.34249973   70.88269806    0.38000000    3.00000000
   14.34583282   70.04720306    0.38000000    3.00000000
   14.34722233   72.88919830    0.40000001    3.00000000
   14.34916592   71.98480225    0.40000001    3.00000000
   14.35249996   72.65129852    0.40000001    3.00000000
   14.35555553   73.91770172    0.40000001    2.96000004
   14.35888958   73.20850372    0.41999999    3.00000000
   14.36194515   73.77159882    0.41999999    2.98000002
   14.36527824   73.76170349    0.40000001    3.00000000
   14.36833382   74.47760010    0.41999999    2.98000002
   14.37166691   71.92620087    0.41999999    3.00000000
   14.37694454   71.92620087    0.41999999    3.00000000
   14.38111115   72.99269867    0.44000000    3.00000000
   14.38416672   72.01979828    0.47999999    3.00000000
   14.38749981   74.57990265    0.50000000    3.00000000
   14.39055538   75.29109955    0.50000000    2.98000002
   14.39388847   74.17630005    0.50000000    3.00000000
   14.39694405   73.95279694    0.47999999    3.00000000
   14.39750004   74.58370209    0.47999999    3.00000000
   14.40055561   76.54920197    0.46000001    3.00000000
   14.40388870   76.84510040    0.46000001    2.98000002
   14.40694427   74.49189758    0.46000001    2.98000002
   14.41027737   76.12590027    0.44000000    2.98000002
   14.41333294   76.17659760    0.44000000    3.00000000
   14.41666698   76.80770111    0.44000000    2.98000002
   14.41972256   75.56600189    0.44000000    2.98000002
   14.42305565   75.76959991    0.44000000    3.00000000
   14.42805576   75.76959991    0.46000001    3.00000000
   14.43222237   72.50869751    0.47999999    2.98000002
   14.43527794   80.27210236    0.51999998    3.00000000
   14.43861103   73.21199799    0.52999997    3.00000000
   14.44166660   73.60240173    0.63000000    2.98000002
   14.44499969   74.05139923    0.51999998    3.00000000
   14.44750023   73.89080048    0.52999997    3.00000000
   14.44833374   77.08000183    0.52999997    2.98000002
   14.45166683   73.86129761    0.51999998    2.98000002
   14.45472240   75.48739624    0.58999997    3.00000000
   14.45805550   76.76570129    0.51999998    3.00000000
   14.46111107   74.83509827    0.50000000    3.00000000
   14.46444416   75.15010071    0.47999999    2.98000002
   14.46749973   76.75129700    0.47999999    3.00000000
   14.47083282   74.56929779    0.41999999    3.00000000
   14.47388840   76.41320038    0.41999999    3.00000000
   14.47916603   76.41320038    0.40000001    3.00000000
   14.48333359   73.65789795    0.40000001    3.00000000
   14.48666668   75.78109741    0.31999999    3.00000000
   14.48972225   77.67420197    0.31999999    3.00000000
   14.49305534   74.62280273    0.34000000    3.00000000
   14.49611092   75.60140228    0.31999999    2.98000002
   14.49750042   76.84649658    0.31999999    2.98000002
   14.49972248   74.83300018    0.31999999    3.00000000
   14.50305557   77.67720032    0.30000001    3.00000000
   14.50611115   75.73519897    0.30000001    3.00000000
   14.50944424   75.80870056    0.28000000    3.00000000
   14.51249981   78.18720245    0.28000000    3.00000000
   14.51583290   74.22209930    0.31999999    3.00000000
   14.51888847   73.56990051    0.36000001    3.00000000
   14.52222157   77.11669922    0.36000001    3.00000000
   14.52527714   75.06809998    0.38000000    3.00000000
   14.53055573   75.06809998    0.46000001    2.98000002
   14.53444481   71.94719696    0.38000000    3.00000000
   14.53777790   72.39140320    0.44000000    3.00000000
   14.54083347   76.19049835    0.50000000    3.00000000
   14.54416752   75.83679962    0.41999999    3.00000000
   14.54722309   75.07929993    0.31999999    3.00000000
   14.54777813   76.92759705    0.31999999    3.00000000
   14.55111122   71.21160126    0.31999999    3.00000000
   14.55416679   76.98069763    0.28000000    3.00000000
   14.55722237   77.54489899    0.30000001    3.00000000
   14.56055546   76.03240204    0.31999999    3.00000000
   14.56361103   79.06600189    0.31999999    3.00000000
   14.56694412   77.57289886    0.31999999    3.00000000
   14.56999969   72.46929932    0.34000000    3.00000000
   14.57333374   75.95890045    0.31999999    3.00000000
   14.57638836   74.65650177    0.31999999    3.00000000
   14.58166695   74.65650177    0.34000000    3.00000000
   14.58583260   74.17690277    0.34000000    3.00000000
   14.58888817   80.95909882    0.36000001    3.00000000
   14.59222221   76.84999847    0.34000000    3.00000000
   14.59527779   75.17359924    0.38000000    3.00000000
   14.59777737   74.64779663    0.36000001    3.00000000
   14.59888840   78.31909943    0.36000001    3.00000000
   14.60194492   73.31990051    0.40000001    3.00000000
   14.60500050   79.18319702    0.41999999    3.00000000
   14.60833359   75.60430145    0.38000000    3.01999998
   14.61138916   76.08070374    0.36000001    3.00000000
   14.61472225   74.30639648    0.34000000    3.01999998
   14.61777782   78.12989807    0.38000000    3.00000000
   14.62111092   77.33200073    0.41999999    3.00000000
   14.62416649   73.51869965    0.40000001    3.00000000
   14.62750053   73.61930084    0.41999999    3.00000000
   14.63277817   73.61930084    0.38000000    3.00000000
   14.63694477   74.04579926    0.40000001    3.00000000
   14.64000034   72.31990051    0.36000001    3.00000000
   14.64333344   74.74250031    0.36000001    3.00000000
   14.64638901   74.71929932    0.40000001    3.00000000
   14.64805508   76.07910156    0.40000001    3.00000000
   14.65027714   74.38890076    0.36000001    3.00000000
   14.65333271   76.83820343    0.34000000    3.00000000
   14.65638828   76.74359894    0.34000000    3.00000000
   14.65972137   79.38960266    0.34000000    3.00000000
   14.66277695   75.40129852    0.28000000    3.00000000
   14.66611099   77.84130096    0.28000000    3.00000000
   14.66916656   78.56109619    0.28000000    3.00000000
   14.67250061   74.54640198    0.28000000    3.00000000
   14.67555618   77.60739899    0.30000001    3.00000000
   14.67888927   77.10449982    0.30000001    3.01999998
   14.68388939   77.10449982    0.30000001    3.00000000
   14.68805599   72.64600372    0.36000001    3.00000000
   14.69138908   73.28949738    0.36000001    3.01999998
   14.69444466   75.71099854    0.38000000    3.00000000
   14.69750023   74.39969635    0.36000001    3.00000000
   14.69833374   73.48660278    0.36000001    3.00000000
   14.70138836   76.23899841    0.38000000    3.00000000
   14.70444393   74.46600342    0.38000000    3.00000000
   14.70777798   75.43650055    0.38000000    3.00000000
   14.71083355   73.16400146    0.36000001    3.00000000
   14.71388912   73.53510284    0.36000001    3.00000000
   14.71722221   77.73320007    0.36000001    3.01999998
   14.72055531   74.57559967    0.36000001    3.01999998
   14.72361088   75.03800201    0.36000001    3.00000000
   14.72694397   74.31639862    0.36000001    3.00000000
   14.72999954   73.98030090    0.36000001    3.00000000
   14.73527813   73.98030090    0.36000001    3.00000000
   14.73916721   77.01869965    0.36000001    3.00000000
   14.74250031   74.08699799    0.34000000    3.00000000
   14.74555588  123.02500153    0.34000000    3.00000000
   14.74833393   75.78220367    0.34000000    3.00000000
   14.74944496   74.07900238    0.36000001    3.00000000
   14.75249958   76.90039825    0.36000001    3.01999998
   14.75583363   77.44830322    0.36000001    3.00000000
   14.75888920   79.45829773    0.34000000    3.00000000
   14.76222229   76.37590027    0.36000001    3.00000000
   14.76555538   74.74720001    0.36000001    3.00000000
   14.76861095   74.71060181    0.36000001    3.00000000
   14.77194405   74.56870270    0.38000000    3.00000000
   14.77499962   76.35389709    0.38000000    3.00000000
   14.77833271   74.53009796    0.36000001    3.00000000
   14.78138828   74.88510132    0.36000001    3.00000000
   14.78638935   74.88510132    0.36000001    3.01999998
   14.79055595   75.37210083    0.36000001    3.00000000
   14.79361153   78.13629913    0.38000000    3.01999998
   14.79666710   76.15550232    0.36000001    3.01999998
   14.79833412   73.59089661    0.36000001    3.00000000
   14.80055618   76.47910309    0.36000001    3.00000000
   14.80361176   79.29129791    0.36000001    3.00000000
   14.80694485   75.66089630    0.34000000    3.00000000
   14.81000042   75.04730225    0.34000000    3.00000000
   14.81333351   74.31469727    0.34000000    3.00000000
   14.81638908   74.83860016    0.46000001    3.00000000
   14.81972218   80.35199738    0.38000000    3.01999998
   14.82277775   74.68039703    0.38000000    3.01999998
   14.82611084   73.21749878    0.51999998    3.01999998
   14.82916641   74.82319641    0.73000002    3.01999998
   14.83249950   77.72149658    0.61000001    3.00000000
   14.83749962   77.72149658    0.47999999    3.00000000
   14.84166622   77.32949829    0.34000000    3.00000000
   14.84472179   74.89099884    0.34000000    3.01999998
   14.84805489   80.73639679    0.34000000    3.00000000
   14.84833336   76.26270294    0.34000000    3.00000000
   14.85138893   75.69329834    0.30000001    3.01999998
   14.85444450   74.48870087    0.30000001    3.01999998
   14.85777855   75.75319672    0.30000001    3.01999998
   14.86083412   77.36560059    0.31999999    3.00000000
   14.86416721   78.94899750    0.34000000    3.00000000
   14.86722279   75.77100372    0.34000000    3.00000000
   14.87055588   73.06970215    0.31999999    3.01999998
   14.87361145   75.16010284    0.31999999    3.00000000
   14.87694454   77.96569824    0.34000000    3.00000000
   14.88027763   75.24389648    0.34000000    3.00000000
   14.88333321   73.76210022    0.34000000    3.01999998
   14.88861084   73.76210022    0.31999999    3.00000000
   14.89277744   75.63939667    0.31999999    3.00000000
   14.89583302   78.64769745    0.34000000    3.01999998
   14.89861107   76.02639771    0.34000000    3.00000000
   14.89944458   77.35620117    0.34000000    3.01999998
   14.90249920   75.98850250    0.36000001    3.00000000
   14.90583324   74.07099915    0.38000000    3.00000000
   14.90888882   78.65129852    0.38000000    3.00000000
   14.91222191   77.09529877    0.36000001    3.00000000
   14.91527748   74.34870148    0.36000001    3.00000000
   14.91861153   77.40679932    0.38000000    3.00000000
   14.92166710   77.39990234    0.40000001    3.00000000
   14.92500019   77.93599701    0.40000001    3.00000000
   14.92805576   77.02400208    0.40000001    3.00000000
   14.93138885   75.32589722    0.40000001    3.00000000
   14.93444443   80.20300293    0.40000001    3.00000000
   14.94000053   80.20300293    0.40000001    3.00000000
   14.94388866   76.81649780    0.40000001    3.00000000
   14.94722271   79.63449860    0.38000000    3.00000000
   14.94861126   73.13040161    0.36000001    3.00000000
   14.95055580   79.16699982    0.36000001    3.00000000
   14.95361137   77.59200287    0.36000001    3.00000000
   14.95694447   74.57769775    0.34000000    3.01999998
   14.96000004   78.35150146    0.34000000    3.01999998
   14.96333313   74.86309814    0.36000001    3.01999998
   14.96638870   74.88189697    0.36000001    3.00000000
   14.96972179   75.09989929    0.38000000    3.01999998
   14.97277737   73.96450043    0.38000000    3.01999998
   14.97611046   74.63269806    0.36000001    3.00000000
   14.97916603   74.66680145    0.38000000    3.00000000
   14.98249912   74.47370148    0.38000000    3.01999998
   14.98555565   75.80220032    0.38000000    3.01999998
   14.99111176   75.80220032    0.41999999    3.00000000
   14.99499989   74.46130371    0.41999999    3.00000000
   14.99833393   74.70200348    0.41999999    3.01999998
   14.99888897   77.27660370    0.41999999    3.01999998
   15.00194454   73.54630280    0.44000000    3.01999998
   15.00527763   74.09790039    0.44000000    3.00000000
   15.00833321   78.77519989    0.41999999    3.00000000
   15.01166630   74.45639801    0.44000000    3.00000000
   15.01472187   79.50849915    0.44000000    3.00000000
   15.01805496   79.78859711    0.46000001    3.00000000
   15.02111053   80.65630341    0.46000001    3.00000000
   15.02444458   72.25309753    0.46000001    3.00000000
   15.02750015   77.54229736    0.46000001    3.00000000
   15.03083324   78.99939728    0.46000001    3.00000000
   15.03416729   74.51180267    0.47999999    3.01999998
   15.03722286   73.46389771    0.47999999    3.01999998
   15.04222298   73.46389771    0.51999998    3.01999998
   15.04638958   75.07340240    0.51999998    3.00000000
   15.04888916   80.46009827    0.51999998    3.00000000
   15.04972267   76.74990082    0.52999997    3.00000000
   15.05305576   77.24919891    0.51999998    3.00000000
   15.05611134   74.63439941    0.47999999    3.00000000
   15.05944443   75.67220306    0.51999998    3.00000000
   15.06250000   77.90840149    0.52999997    3.01999998
   15.06583309   77.68080139    0.51999998    3.00000000
   15.06888866   74.27519989    0.51999998    3.01999998
   15.07222176   79.01129913    0.50000000    3.00000000
   15.07527733   74.30030060    0.50000000    3.01999998
   15.07861137   77.14119720    0.50000000    3.01999998
   15.08166695   76.87079620    0.47999999    3.00000000
   15.08500004   72.66989899    0.50000000    3.00000000
   15.08805561   75.79350281    0.50000000    3.00000000
   15.09333324   75.79350281    0.51999998    3.01999998
   15.09749985   72.81130219    0.51999998    3.00000000
   15.09888840   73.06210327    0.51999998    3.00000000
   15.10083389   71.48010254    0.51999998    3.00000000
   15.10416698   73.96510315    0.55000001    3.01999998
   15.10722256   76.79429626    0.51999998    3.01999998
   15.11055565   75.10959625    0.51999998    3.01999998
   15.11361122   79.13359833    0.52999997    3.00000000
   15.11694431   76.49340057    0.52999997    3.00000000
   15.11999989   74.06539917    0.46000001    3.01999998
   15.12333393   73.32409668    0.46000001    3.00000000
   15.12638855   76.63659668    0.46000001    3.01999998
   15.12972260   74.78389740    0.44000000    3.01999998
   15.13277817   72.48739624    0.52999997    3.01999998
   15.13611126   72.84590149    0.52999997    3.01999998
   15.13916683   77.11160278    0.55000001    3.00000000
   15.14472198   77.11160278    0.52999997    3.01999998
   15.14861107   76.48600006    0.55000001    3.00000000
   15.14916611   75.04479980    0.56999999    3.00000000
   15.15222168   75.51370239    0.58999997    3.00000000
   15.15555477   76.00659943    0.61000001    3.00000000
   15.15861034   76.75119781    0.56999999    3.01999998
   15.16194439   77.53569794    0.56999999    3.00000000
   15.16499996   79.08650208    0.55000001    3.00000000
   15.16833401   76.26239777    0.56999999    3.01999998
   15.17138958   74.81960297    0.64999998    3.01999998
   15.17472267   75.04360199    0.64999998    3.01999998
   15.17777824   78.62799835    0.63000000    3.01999998
   15.18111134   75.99479675    0.63000000    3.01999998
   15.18416691   74.04479980    0.67000002    3.00000000
   15.18750000   72.50430298    0.67000002    3.00000000
   15.19055557   74.83989716    0.67000002    3.00000000
   15.19583321   74.83989716    0.73000002    3.00000000
   15.19972229   76.14869690    0.63000000    3.00000000
   15.20305538   78.08709717    0.61000001    3.01999998
   15.20611095   74.60739899    0.69000000    3.01999998
   15.20944405   74.47419739    0.63000000    3.01999998
   15.21249962   73.59790039    0.61000001    3.01999998
   15.21583271   74.33260345    0.55000001    3.01999998
   15.21888828   78.60939789    0.56999999    3.00000000
   15.22222137   74.47080231    0.56999999    3.00000000
   15.22527695   76.80359650    0.56999999    3.00000000
   15.22861099   76.77529907    0.55000001    3.00000000
   15.23194408   72.25700378    0.55000001    3.01999998
   15.23500061   76.36579895    0.55000001    3.00000000
   15.23833370   74.38909912    0.64999998    3.00000000
   15.24138927   77.18900299    0.63000000    3.00000000
   15.24694443   77.18900299    0.51999998    3.00000000
   15.25111103   76.43740082    0.47999999    3.01999998
   15.25416660   75.24359894    0.46000001    3.01999998
   15.25749969   75.27390289    0.46000001    3.00000000
   15.26055527   76.97460175    0.47999999    3.01999998
   15.26388931   75.52330017    0.50000000    3.01999998
   15.26694393   76.92189789    0.56999999    3.01999998
   15.27027798   74.11139679    0.55000001    3.00000000
   15.27333355   77.77549744    0.51999998    3.00000000
   15.27666664   75.23889923    0.52999997    3.00000000
   15.27972221   79.27680206    0.50000000    3.00000000
   15.28305531   80.79409790    0.47999999    3.01999998
   15.28611183   77.19499969    0.47999999    3.01999998
   15.28944492   79.95880127    0.47999999    3.01999998
   15.29250050   77.38819885    0.47999999    3.00000000
   15.31416702   74.67259979    0.56999999    3.00000000
   15.31472206   77.40760040    0.56999999    3.01999998
   15.31777763   78.81300354    0.56999999    3.01999998
   15.32111073   76.03250122    0.56999999    3.01999998
   15.32416630   79.21089935    0.58999997    3.01999998
   15.32750034   77.40190125    0.58999997    3.00000000
   15.33055592   74.92530060    0.73000002    3.01999998
   15.33388901   77.68810272    0.69000000    3.00000000
   15.33694458   74.03479767    0.70999998    3.00000000
   15.34027767   75.18530273    0.61000001    3.00000000
   15.34333324   75.20089722    0.58999997    3.01999998
   15.34944439   75.20089722    0.56999999    3.00000000
   15.35361195   76.11129761    0.56999999    3.01999998
   15.35666752   78.11409760    0.55000001    3.01999998
   15.36000061   83.18540192    0.55000001    3.01999998
   15.36305618   76.52429962    0.56999999    3.01999998
   15.36416721   75.79100037    0.56999999    3.01999998
   15.36666679   76.84570313    0.56999999    3.00000000
   15.36999989   78.91729736    0.58999997    3.00000000
   15.37305546   74.92430115    0.58999997    3.00000000
   15.37638855   77.48300171    0.64999998    3.00000000
   15.37944412   80.16519928    0.64999998    3.01999998
   15.38277817   74.33830261    0.52999997    3.00000000
   15.38583279   78.33300018    0.51999998    3.01999998
   15.38916683   74.76309967    0.51999998    3.01999998
   15.39222240   79.13369751    0.51999998    3.01999998
   15.39555550   76.85009766    0.51999998    3.00000000
   15.40055561   76.85009766    0.51999998    3.00000000
   15.40472221   77.40769958    0.47999999    3.01999998
   15.40777779   74.72119904    0.47999999    3.01999998
   15.41111088   76.52380371    0.46000001    3.01999998
   15.41416645   77.65609741    0.47999999    3.01999998
   15.41472149   77.35890198    0.47999999    3.01999998
   15.41805553   77.73239899    0.47999999    3.01999998
   15.42111111   81.26119995    0.47999999    3.01999998
   15.42444515   78.74739838    0.46000001    3.01999998
   15.42750072   73.63600159    0.46000001    3.01999998
   15.43083382   78.31629944    0.46000001    3.01999998
   15.43388939   74.57759857    0.44000000    3.01999998
   15.43722248   77.77970123    0.44000000    3.01999998
   15.44027805   74.63639832    0.44000000    3.01999998
   15.44361115   73.15529633    0.44000000    3.01999998
   15.44666672   74.98059845    0.44000000    3.00000000
   15.45166683   74.98059845    0.47999999    3.01999998
   15.45583344   76.71450043    0.51999998    3.01999998
   15.45916653   79.40899658    0.51999998    3.01999998
   15.46222210   76.48989868    0.52999997    3.01999998
   15.46416664   74.17060089    0.52999997    3.01999998
   15.46583271   72.63539886    0.56999999    3.00000000
   15.46916580   77.59020233    0.56999999    3.01999998
   15.47222137   76.35669708    0.58999997    3.00000000
   15.47555542   77.53350067    0.56999999    3.01999998
   15.47861099   74.58920288    0.61000001    3.01999998
   15.48194408   75.46679688    0.61000001    3.01999998
   15.48500061   75.01339722    0.58999997    3.00000000
   15.48833370   74.28730011    0.58999997    3.00000000
   15.49138927   72.81559753    0.61000001    3.00000000
   15.49472237   75.63649750    0.50000000    3.01999998
   15.49777794   79.23410034    0.50000000    3.01999998
   15.50305557   79.23410034    0.51999998    3.01999998
   15.50694466   76.68759918    0.55000001    3.01999998
   15.51027775   75.22630310    0.55000001    3.01999998
   15.51333332   72.28469849    0.56999999    3.01999998
   15.51416683   76.44889832    0.56999999    3.01999998
   15.51694393   74.27780151    0.55000001    3.00000000
   15.52027798   73.71099854    0.51999998    3.00000000
   15.52333355   74.95159912    0.52999997    3.01999998
   15.52666664   71.99790192    0.52999997    3.01999998
   15.52972221   74.17690277    0.52999997    3.01999998
   15.53305531   73.61440277    0.52999997    3.01999998
   15.53611183   78.40959930    0.51999998    3.01999998
   15.53944492   75.05629730    0.51999998    3.01999998
   15.54250050   79.11650085    0.51999998    3.01999998
   15.54583359   74.50350189    0.47999999    3.01999998
   15.54888916   74.32479858    0.44000000    3.01999998
   15.55416679   74.32479858    0.44000000    3.01999998
   15.55833340   75.50969696    0.41999999    3.01999998
   15.56138897   75.68070221    0.40000001    3.01999998
   15.56416702   80.26409912    0.36000001    3.01999998
   15.56500053   81.18869781    0.36000001    3.01999998
   15.56833363   80.53720093    0.36000001    3.01999998
   15.57138920   81.79910278    0.38000000    3.01999998
   15.57472229   78.62239838    0.36000001    3.01999998
   15.57777786   75.81369781    0.36000001    3.01999998
   15.58111095   76.92900085    0.38000000    3.01999998
   15.58416653   82.13369751    0.40000001    3.01999998
   15.58749962   80.28269958    0.40000001    3.01999998
   15.59055519   87.79519653    0.40000001    3.01999998
   15.59388828   85.55110168    0.40000001    3.01999998
   15.59694386   82.06870270    0.40000001    3.01999998
   15.60027790   76.63569641    0.38000000    3.01999998
   15.60527802   76.63569641    0.38000000    3.01999998
   15.60944462   72.42749786    0.38000000    3.01999998
   15.61250019   72.27780151    0.46000001    3.01999998
   15.61416721   73.73149872    0.40000001    3.01999998
   15.61611176   72.26550293    0.47999999    3.01999998
   15.61944485   77.74340057    0.47999999    3.03999996
   15.62250042   73.79940033    0.41999999    3.01999998
   15.62583351   76.31809998    0.44000000    3.01999998
   15.62888908  143.56700134    0.46000001    3.01999998
   15.63222218   75.56400299    0.46000001    3.01999998
   15.63527775   76.96859741    0.46000001    3.01999998
   15.63861084   75.40019989    0.47999999    3.01999998
   15.64166641   76.28639984    0.46000001    3.01999998
   15.64499950   79.33950043    0.47999999    3.01999998
   15.64805508   76.73690033    0.47999999    3.01999998
   15.65138817   77.79470062    0.47999999    3.01999998
   15.65638828   77.79470062    0.47999999    3.01999998
   15.66055489   79.50090027    0.47999999    3.01999998
   15.66388893   82.84889984    0.47999999    3.01999998
   15.66416645   78.45469666    0.47999999    3.01999998
   15.66750050   75.25589752    0.50000000    3.01999998
   15.67055607   74.50360107    0.50000000    3.01999998
   15.67388916   76.95529938    0.51999998    3.01999998
   15.67694473   78.57520294    0.51999998    3.01999998
   15.68027782   81.05159760    0.50000000    3.01999998
   15.68333340   75.97170258    0.50000000    3.01999998
   15.68666649   80.07279968    0.50000000    3.01999998
   15.68972206   74.84169769    0.50000000    3.00000000
   15.69305515   78.87429810    0.50000000    3.01999998
   15.69611073   77.40029907    0.51999998    3.01999998
   15.69944477   78.70610046    0.51999998    3.01999998
   15.70249939   78.08139801    0.51999998    3.01999998
   15.70777798   78.08139801    0.52999997    3.01999998
   15.71166611   72.39839935    0.52999997    3.01999998
   15.71416664   76.09729767    0.52999997    3.01999998
   15.71527767   76.45020294    0.52999997    3.01999998
   15.71833324   80.26210022    0.52999997    3.01999998
   15.72166634   78.78209686    0.52999997    3.01999998
   15.72472191   76.63529968    0.51999998    3.00000000
   15.72805500   76.87580109    0.55000001    3.01999998
   15.73111057   73.20970154    0.56999999    3.01999998
   15.73444462   77.71949768    0.56999999    3.00000000
   15.73750019   78.56469727    0.58999997    3.01999998
   15.74083328   76.30169678    0.63000000    3.01999998
   15.74388885   76.89150238    0.64999998    3.01999998
   15.74722290   75.59300232    0.56999999    3.01999998
   15.75027752   77.22899628    0.56999999    3.01999998
   15.75361156   74.14980316    0.56999999    3.01999998
   15.75888920   74.14980316    0.58999997    3.01999998
   15.76305580   76.40689850    0.56999999    3.00000000
   15.76416683   75.82189941    0.55000001    3.01999998
   15.76666641   74.76509857    0.55000001    3.01999998
   15.76972198   75.20970154    0.52999997    3.01999998
   15.77305508   75.69550323    0.52999997    3.01999998
   15.77611065   78.39009857    0.51999998    3.01999998
   15.77944374   77.22200012    0.51999998    3.01999998
   15.78249931   76.29949951    0.51999998    3.03999996
   15.78583336   76.82800293    0.51999998    3.01999998
   15.78888893   75.92819977    0.51999998    3.01999998
   15.79222298   75.71209717    0.51999998    3.01999998
   15.79527855   77.13050079    0.50000000    3.01999998
   15.79861164   80.74749756    0.50000000    3.01999998
   15.80166721   76.47940063    0.50000000    3.01999998
   15.80500031   74.58010101    0.47999999    3.01999998
   15.81000042   74.58010101    0.47999999    3.01999998
   15.81416702   75.23130035    0.47999999    3.01999998
   15.81472206   79.99140167    0.47999999    3.01999998
   15.81777763   77.85540009    0.47999999    3.01999998
   15.82111073   75.03489685    0.46000001    3.01999998
   15.82416630   74.50920105    0.46000001    3.01999998
   15.82750034   74.91040039    0.46000001    3.01999998
   15.83055592   76.84490204    0.47999999    3.01999998
   15.83388901   72.71330261    0.50000000    3.01999998
   15.83694458   72.98349762    0.50000000    3.01999998
   15.84027767   73.19439697    0.50000000    3.01999998
   15.84333324   75.31860352    0.51999998    3.01999998
   15.84666634   76.33360291    0.51999998    3.01999998
   15.84972191   76.35939789    0.55000001    3.01999998
   15.85305595   75.59980011    0.50000000    3.01999998
   15.85611153   75.30349731    0.50000000    3.01999998
   15.86138916   75.30349731    0.47999999    3.01999998
   15.86527824   80.04730225    0.47999999    3.01999998
   15.86861134   76.26909637    0.46000001    3.01999998
   15.87166691   76.78579712    0.46000001    3.01999998
   15.87500000   76.46009827    0.46000001    3.01999998
   15.87805557   80.18299866    0.46000001    3.01999998
   15.88138866   77.90910339    0.47999999    3.00000000
   15.88444424   75.73809814    0.46000001    3.01999998
   15.88777733   78.63159943    0.50000000    3.01999998
   15.89083290   76.63369751    0.50000000    3.01999998
   15.89416695   73.38529968    0.50000000    3.01999998
   15.89722252   74.17579651    0.50000000    3.01999998
   15.90055561   75.45369720    0.50000000    3.01999998
   15.90361118   74.19429779    0.50000000    3.01999998
   15.90694427   78.51899719    0.51999998    3.01999998
   15.91249943   78.51899719    0.52999997    3.01999998
   15.91638851   74.43329620    0.50000000    3.01999998
   15.91972256   74.52349854    0.50000000    3.01999998
   15.92277813   76.32160187    0.52999997    3.01999998
   15.92611122   74.43219757    0.61000001    3.01999998
   15.92916679   72.96829987    0.67000002    3.01999998
   15.93249989   74.26090240    0.63000000    3.01999998
   15.93555546   73.20709991    0.61000001    3.01999998
   15.93888855   73.47029877    0.58999997    3.01999998
   15.94194412   72.73960114    0.56999999    3.00000000
   15.94527817   74.35549927    0.52999997    3.01999998
   15.94833374   75.11759949    0.55000001    3.01999998
   15.95166683   72.80190277    0.52999997    3.01999998
   15.95472240   72.38629913    0.55000001    3.01999998
   15.95805550   73.65100098    0.56999999    3.01999998
   15.96361065   73.65100098    0.63000000    3.01999998
   15.96777725   71.24700165    0.63000000    3.01999998
   15.97083282   75.28759766    0.63000000    3.01999998
   15.97416592   74.51229858    0.51999998    3.01999998
   15.97722149   76.02549744    0.51999998    3.01999998
   15.98055553   75.98770142    0.51999998    3.01999998
   15.98361111   74.40779877    0.50000000    3.03999996
   15.98694515   75.85449982    0.50000000    3.01999998
   15.99000072   76.74469757    0.51999998    3.01999998
   15.99333382   78.09359741    0.51999998    3.01999998
   15.99638939   80.73410034    0.55000001    3.01999998
   15.99972248   76.27349854    0.56999999    3.01999998
   16.00277710   75.20510101    0.58999997    3.00000000
   16.00611115   74.26589966    0.61000001    3.01999998
   16.00916672   74.38929749    0.70999998    3.01999998
   16.01472282   74.38929749    0.76999998    3.01999998
   16.01888847   74.08129883    0.98000002    3.01999998
   16.02194405   72.63469696    1.83000004    3.01999998
   16.02527809   76.46330261    1.16999996    3.01999998
   16.02833366   75.91860199    0.79000002    3.01999998
   16.03166580   74.37779999    0.75000000    3.01999998
   16.03472137   75.82910156    0.70999998    3.01999998
   16.03805542   75.78430176    0.70999998    3.01999998
   16.04111099   77.05549622    0.80000001    3.01999998
   16.04444313   73.94039917    0.63000000    3.03999996
   16.04749870   75.72869873    0.58999997    3.01999998
   16.05083275   75.09120178    0.50000000    3.01999998
   16.05388832   78.53700256    0.47999999    3.01999998
   16.05722237   77.82289886    0.46000001    3.01999998
   16.06027794   80.93049622    0.44000000    3.01999998
   16.06583214   80.93049622    0.44000000    3.01999998
   16.07000160   77.64389801    0.46000001    3.01999998
   16.07333374   77.30719757    0.50000000    3.01999998
   16.07638931   78.51090240    0.47999999    3.01999998
   16.07972336   79.15589905    0.44000000    3.01999998
   16.08277893   76.11640167    0.44000000    3.01999998
   16.08611107   71.16609955    0.46000001    3.01999998
   16.08916664   74.43430328    0.50000000    3.01999998
   16.09250069   72.82859802    0.46000001    3.01999998
   16.09555626   75.73459625    0.47999999    3.01999998
   16.09889030   80.48950195    0.44000000    3.01999998
   16.10194397   75.63030243    0.44000000    3.01999998
   16.10527802   78.29229736    0.40000001    3.01999998
   16.10833359   78.22480011    0.38000000    3.01999998
   16.11166763   79.49649811    0.40000001    3.03999996
   16.11722183   79.49649811    0.36000001    3.01999998
   16.12111092   77.77040100    0.36000001    3.01999998
   16.12444496   75.65519714    0.40000001    3.01999998
   16.12777710   80.07360077    0.41999999    3.01999998
   16.13083267   81.82499695    0.38000000    3.01999998
   16.13416672   78.19229889    0.38000000    3.01999998
   16.13722229   77.73059845    0.38000000    3.01999998
   16.14055634   78.18949890    0.38000000    3.01999998
   16.14361191   78.14769745    0.38000000    3.01999998
   16.14694405   79.89849854    0.36000001    3.01999998
   16.14999962   78.82019806    0.38000000    3.01999998
   16.15333366   76.23729706    0.36000001    3.03999996
   16.15638924   77.70279694    0.38000000    3.01999998
   16.15972137   79.71369934    0.38000000    3.03999996
   16.16277695   79.20480347    0.38000000    3.01999998
   16.16833305   79.20480347    0.38000000    3.03999996
   16.17249870   80.12079620    0.40000001    3.01999998
   16.17555428   82.51460266    0.41999999    3.01999998
   16.17888832   82.43099976    0.44000000    3.01999998
   16.18194389   80.51979828    0.44000000    3.03999996
   16.18527603   82.66220093    0.46000001    3.01999998
   16.18833160   77.66230011    0.47999999    3.01999998
   16.19166565   78.38269806    0.46000001    3.01999998
   16.19472122   78.96489716    0.50000000    3.01999998
   16.19805527   78.28430176    0.50000000    3.01999998
   16.20111275   78.85949707    0.50000000    3.01999998
   16.20444489   79.34989929    0.50000000    3.01999998
   16.20750046   78.26809692    0.51999998    3.01999998
   16.21083450   80.21800232    0.50000000    3.01999998
   16.21389008   77.67769623    0.50000000    3.01999998
   16.21944427   77.67769623    0.52999997    3.01999998
   16.22361183   75.78459930    0.55000001    3.01999998
   16.22666740   78.32630157    0.58999997    3.01999998
   16.23000145   79.02220154    0.64999998    3.01999998
   16.23305511   77.08840179    0.69000000    3.01999998
   16.23638916   76.72699738    0.67000002    3.01999998
   16.23944473   77.13410187    0.64999998    3.01999998
   16.24277878   76.52809906    0.67000002    3.01999998
   16.24583435   76.45800018    0.63000000    3.01999998
   16.24916649   75.84780121    0.63000000    3.01999998
   16.25222206   76.93119812    0.69000000    3.01999998
   16.25555611   78.75099945    0.69000000    3.01999998
   16.25861168   76.10079956    0.69000000    3.01999998
   16.26194382   78.28900146    0.70999998    3.01999998
   16.26499939   77.95210266    0.69000000    3.01999998
   16.27055550   77.95210266    0.69000000    3.01999998
   16.27472115   78.82540131    0.75000000    3.03999996
   16.27805519   77.35620117    0.75000000    3.03999996
   16.28111076   74.76039886    0.79000002    3.01999998
   16.28444481   76.64579773    0.80000001    3.01999998
   16.28750038   75.57379913    0.81999999    3.01999998
   16.29083252   78.64320374    0.81999999    3.01999998
   16.29388809   74.96659851    0.92000002    3.01999998
   16.29722214   74.84980011    0.95999998    3.01999998
   16.30027771   75.66280365    1.05999994    3.00000000
   16.30360985   75.80390167    1.05999994    3.00000000
   16.30666542   74.58869934    1.07000005    3.00000000
   16.30999947   74.37709808    1.23000002    3.01999998
   16.31305504   71.83429718    1.19000006    3.01999998
   16.33444595   71.83429718    1.00000000    3.00000000
   16.33861160   78.12539673    1.00000000    3.00000000
   16.34194565   75.56900024    1.00000000    3.00000000
   16.34500122   73.80280304    1.01999998    3.01999998
   16.34833336   73.04750061    1.39999998    3.01999998
   16.35138893   75.51439667    1.26999998    3.01999998
   16.35472298   78.79830170    1.44000006    3.00000000
   16.35777855   73.86499786    1.28999996    3.01999998
   16.36111069   73.29039764    1.07000005    3.01999998
   16.36416626   76.84590149    1.11000001    3.01999998
   16.36750031   77.84200287    0.89999998    3.01999998
   16.37055588   76.20839691    0.88000000    3.01999998
   16.37388992   77.46499634    0.79000002    3.01999998
   16.37694550   77.52860260    0.86000001    3.01999998
   16.38027763   75.03359985    0.79000002    3.01999998
   16.38194466   79.60710144    0.79000002    3.01999998
   16.38611031   79.60710144    0.86000001    3.01999998
   16.39027786   76.40219879    0.94000000    3.01999998
   16.39333344   79.20700073    0.83999997    3.01999998
   16.39666748   76.66059875    0.88000000    3.01999998
   16.39972115   86.52549744    0.92000002    3.01999998
   16.40305519   77.94960022    0.92000002    3.01999998
   16.40611076   80.18569946    0.83999997    3.01999998
   16.40944481   79.60849762    0.76999998    3.01999998
   16.41250038   82.34470367    0.76999998    3.01999998
   16.41583252   78.09940338    0.76999998    3.01999998
   16.41888809   82.55870056    0.76999998    3.01999998
   16.42222214   76.85089874    0.79000002    3.01999998
   16.42527771   81.60880280    0.79000002    3.01999998
   16.42860985   74.86039734    0.79000002    3.01999998
   16.43166542   75.98529816    0.79000002    3.01999998
   16.43222237   74.02629852    0.75000000    3.01999998
   16.43722153   74.02629852    0.79000002    3.01999998
   16.44138718   75.59169769    0.79000002    3.01999998
   16.44444275   79.19480133    0.75000000    3.01999998
   16.44777679   76.23639679    0.73000002    3.01999998
   16.45083427   80.35310364    0.75000000    3.01999998
   16.45416832   76.19529724    0.80000001    3.01999998
   16.45722389   78.15209961    0.81999999    3.01999998
   16.46055603   79.14479828    0.81999999    3.01999998
   16.46361160   76.58450317    0.86000001    3.01999998
   16.46694565   80.38569641    0.81999999    3.01999998
   16.47000122   75.93119812    0.80000001    3.01999998
   16.47333336   76.56449890    0.79000002    3.01999998
   16.47638893   72.95420074    0.79000002    3.01999998
   16.47972298   74.74079895    0.76999998    3.00000000
   16.48222351   74.89350128    0.75000000    3.01999998
   16.48305511   74.04779816    0.75000000    3.01999998
   16.48861122   74.04779816    0.70999998    3.01999998
   16.49250031   76.85260010    0.70999998    3.03999996
   16.49583435   73.30500031    0.73000002    3.01999998
   16.49888992   72.25080109    0.73000002    3.01999998
   16.50222206   74.91680145    0.70999998    3.01999998
   16.50527763   75.71399689    0.70999998    3.01999998
   16.50861168   75.64910126    0.76999998    3.00000000
   16.51166725   73.80400085    0.75000000    3.01999998
   16.51499939   77.24770355    0.69000000    3.01999998
   16.51805496   73.72270203    0.67000002    3.01999998
   16.52138901   78.95659637    0.67000002    3.01999998
   16.52444458   77.38150024    0.64999998    3.01999998
   16.52777672   74.08660126    0.67000002    3.01999998
   16.53083229   75.39479828    0.64999998    3.01999998
   16.53222275   74.77169800    0.67000002    3.01999998
   16.53444481   76.26670074    0.67000002    3.01999998
   16.53972244   76.26670074    0.69000000    3.01999998
   16.54361153   74.96849823    0.70999998    3.01999998
   16.54694366   76.41159821    0.70999998    3.00000000
   16.54999924   73.16660309    0.73000002    3.01999998
   16.55333328  149.86099243    0.73000002    3.01999998
   16.55638885   72.35369873    0.70999998    3.01999998
   16.55972099   76.63700104    0.69000000    3.00000000
   16.56277657   75.06310272    0.80000001    3.01999998
   16.56611061   71.57060242    0.79000002    3.00000000
   16.56916809   72.77369690    0.80000001    3.01999998
   16.57250023   73.39869690    0.75000000    3.01999998
   16.57555580   70.20590210    0.75000000    3.01999998
   16.57888985   73.06459808    0.75000000    3.01999998
   16.58194542   72.79989624    0.76999998    3.01999998
   16.58250046   71.61550140    0.79000002    3.00000000
   16.58583450   76.52290344    0.81999999    3.01999998
   16.59083366   76.52290344    0.79000002    3.01999998
   16.59500122   74.65170288    0.76999998    3.01999998
   16.59805679   76.05210114    0.81999999    3.01999998
   16.60138893   75.45939636    0.80000001    3.01999998
   16.60444450   75.09279633    0.79000002    3.01999998
   16.60777855   78.56880188    0.79000002    3.01999998
   16.61083412   79.51879883    0.81999999    3.01999998
   16.61416626   76.81060028    0.80000001    3.01999998
   16.61722183   73.96219635    0.80000001    3.01999998
   16.62055588   77.21040344    0.73000002    3.01999998
   16.62361145   76.49620056    0.75000000    3.01999998
   16.62694550   78.95429993    0.75000000    3.01999998
   16.63000107   79.45970154    0.75000000    3.01999998
   16.63249969   77.85410309    0.79000002    3.01999998
   16.63361168   78.64669800    0.79000002    3.01999998
   16.63666725   76.20829773    0.81999999    3.01999998
   16.64194489   76.20829773    0.80000001    3.01999998
   16.64611053   73.88430023    0.80000001    3.01999998
   16.64916611   75.59870148    0.81999999    3.01999998
   16.65250015   78.36720276    0.80000001    3.01999998
   16.65555573   74.06849670    0.76999998    3.01999998
   16.65888786   75.90270233    0.79000002    3.00000000
   16.66194344   76.47650146    0.79000002    3.01999998
   16.66527748   74.38169861    0.79000002    3.01999998
   16.66833305   75.46759796    0.76999998    3.01999998
   16.67166519   79.23139954    0.76999998    3.01999998
   16.67472076   73.64759827    0.79000002    3.01999998
   16.67805481   74.86990356    0.81999999    3.01999998
   16.68111038   75.02490234    0.83999997    3.01999998
   16.68249893   74.13739777    0.81999999    3.01999998
   16.68472099   77.00019836    0.86000001    3.01999998
   16.68777657   77.63829803    0.83999997    3.01999998
   16.69305420   77.63829803    0.95999998    3.01999998
   16.69722176   75.89669800    1.00000000    3.01999998
   16.70055580   75.35859680    1.00000000    3.01999998
   16.70361137   71.87539673    0.89999998    3.01999998
   16.70694542   73.61049652    0.88000000    3.01999998
   16.71000099   74.54589844    0.98000002    3.01999998
   16.71333504  130.55999756    0.94000000    3.01999998
   16.71638870   75.09940338    0.94000000    3.01999998
   16.71972275   74.23100281    0.88000000    3.00000000
   16.72277832   76.38089752    0.95999998    3.00000000
   16.72611237   80.29029846    0.92000002    3.00000000
   16.72916794   76.34079742    0.83999997    3.00000000
   16.73250008   77.70909882    0.88000000    3.01999998
   16.73277855   74.86900330    0.88000000    3.01999998
   16.73611069   74.53520203    0.88000000    3.01999998
   16.73916626   77.90689850    0.94000000    3.01999998
   16.74444389   77.90689850    0.89999998    3.01999998
   16.74833298   75.02169800    1.00000000    3.01999998
   16.75166702   76.76480103    1.14999998    3.01999998
   16.75472260   74.41629791    1.19000006    3.01999998
   16.75805473   74.55940247    1.16999996    3.01999998
   16.76111031   74.23719788    4.90999985    3.16000009
   16.76444435   80.65229797    0.03000000    0.31999999
   16.76749992   76.03849792    0.03000000    0.31999999
   16.77083397   77.93000031    0.03000000    0.31999999
   16.77388954   71.65809631    0.03000000    0.31999999
   16.77722168   72.59700012    0.03000000    0.31999999
   16.78027725   71.43039703    0.03000000    0.31999999
   16.78277779   76.18049622    0.03000000    0.31999999
   16.78388786   77.34459686    0.03000000    0.31999999
   16.78694344   75.26309967    0.03000000    0.31999999
   16.79027748   83.41889954    0.03000000    0.31999999
   16.79555511   83.41889954    0.03000000    0.31999999
   16.79972076   75.68740082    0.03000000    0.31999999
   16.80277634   74.35420227    0.03000000    0.31999999
   16.80611038   74.01619720    0.03000000    0.31999999
   16.80916595   75.11199951    0.03000000    0.31999999
   16.81250000   73.57369995    0.03000000    0.31999999
   16.81555557   80.05030060    0.03000000    0.31999999
   16.81888962   74.70490265    0.03000000    0.31999999
   16.82194519   79.94650269    0.03000000    0.31999999
   16.82527924   77.43730164    0.03000000    0.31999999
   16.82833481   78.72499847    0.03000000    0.31999999
   16.83166695   77.14019775    0.03000000    0.31999999
   16.83277893   75.41760254    0.03000000    0.31999999
   16.83500099   78.75849915    0.03000000    0.31999999
   16.83805656   74.91760254    0.03000000    0.31999999
   16.84138870   74.62960052    0.03000000    0.31999999
   16.84666824   74.62960052    0.03000000    0.31999999
   16.85083389   74.59410095    0.03000000    0.31999999
   16.85388947   75.56439972    0.03000000    0.31999999
   16.85722351   75.89839935    0.03000000    0.31999999
   16.86027908   79.96980286    0.03000000    0.31999999
   16.86361122   74.53679657    0.03000000    0.31999999
   16.86666679   71.23690033    0.03000000    0.31999999
   16.87000084  137.37500000    0.03000000    0.31999999
   16.87305641   72.62370300    0.03000000    0.31999999
   16.87638855   77.32089996    0.03000000    0.31999999
   16.87944412   76.32350159    0.03000000    0.31999999
   16.88277817   74.44589996    0.03000000    0.31999999
   16.88333321   77.96939850    0.03000000    0.31999999
   16.88638878   72.91840363    0.03000000    0.31999999
   16.88972282   76.23110199    0.03000000    0.31999999
   16.89277840   77.28900146    0.03000000    0.31999999
   16.89777756   77.28900146    0.03000000    0.31999999
   16.90194321   77.26380157    0.03000000    0.31999999
   16.90527725   75.27909851    0.03000000    0.31999999
   16.90833282   75.27839661    0.03000000    0.31999999
   16.91166687   78.60179901    0.03000000    0.31999999
   16.91472244   77.14389801    0.03000000    0.31999999
   16.91805458   75.12169647    0.03000000    0.31999999
   16.92111015   75.84439850    0.03000000    0.31999999
   16.92444420   74.96800232    0.03000000    0.31999999
   16.92749977   81.11170197    0.03000000    0.31999999
   16.93083191   81.22799683    0.03000000    0.31999999
   16.93333244   77.93949890    0.03000000    0.31999999
   16.93416595   77.00579834    0.03000000    0.31999999
   16.93722153   83.17089844    0.03000000    0.31999999
   16.94055557   82.51480103    0.03000000    0.31999999
   16.94361115   76.15899658    0.03000000    0.31999999
   16.94916534   76.15899658    0.03000000    0.31999999
   16.95305634   75.05120087    0.03000000    0.31999999
   16.95639038   75.77050018    0.03000000    0.31999999
   16.95944595   74.33309937    0.03000000    0.31999999
   16.96277809   78.56390381    0.03000000    0.31999999
   16.96583366   80.16210175    0.03000000    0.31999999
   16.96916771   79.53029633    0.03000000    0.31999999
   16.97222328   79.47019958    0.03000000    0.31999999
   16.97555542   81.42130280    0.03000000    0.31999999
   16.97861099   81.31099701    0.03000000    0.31999999
   16.98194504   77.11409760    0.03000000    0.31999999
   16.98333359   78.38939667    0.03000000    0.31999999
   16.98527718   81.38439941    0.03000000    0.31999999
   16.98861122   76.30239868    0.03000000    0.31999999
   16.99166679   73.18070221    0.03000000    0.31999999
   16.99500084   74.86160278    0.03000000    0.31999999
   17.00027847   74.86160278    0.03000000    0.31999999
   17.00444412   72.22139740    0.03000000    0.31999999
   17.00749969   71.16369629    0.03000000    0.31999999
   17.01083374   79.21730042    0.03000000    0.31999999
   17.01388931   73.85230255    0.03000000    0.31999999
   17.01722145   71.74700165    0.03000000    0.31999999
   17.02027702   72.38569641    0.03000000    0.31999999
   17.02361107   76.18810272    0.03000000    0.31999999
   17.02666664   73.77799988    0.03000000    0.31999999
   17.03000069   74.61789703    0.03000000    0.31999999
   17.03305435   75.32569885    0.03000000    0.31999999
   17.03361130   77.02310181    0.03000000    0.31999999
   17.03666687   76.89779663    0.03000000    0.31999999
   17.03999901   75.09390259    0.03000000    0.31999999
   17.04305458   71.64270020    0.03000000    0.31999999
   17.04638863   78.61579895    0.03000000    0.31999999
   17.05138779   78.61579895    0.03000000    0.31999999
   17.05555534   76.82720184    0.03000000    0.31999999
   17.05861092   79.21389771    0.03000000    0.31999999
   17.06194305   75.48770142    0.03000000    0.31999999
   17.06499863   79.31970215    0.03000000    0.31999999
   17.06833458   83.65730286    0.03000000    0.31999999
   17.07139015   77.93990326    0.03000000    0.31999999
   17.07472229   78.01200104    0.03000000    0.31999999
   17.07777786   77.85700226    0.03000000    0.31999999
   17.08111191   74.65650177    0.03000000    0.31999999
   17.08361244   81.49479675    0.03000000    0.31999999
   17.08444595   75.42700195    0.03000000    0.31999999
   17.08777809   75.29759979    0.03000000    0.31999999
   17.09083366   74.73100281    0.03000000    0.31999999
   17.09416771   79.33029938    0.03000000    0.31999999
   17.09722328   79.66320038    0.03000000    0.31999999
   17.10250092   79.66320038    0.03000000    0.31999999
   17.10666656   82.56250000    0.03000000    0.31999999
   17.11000061   77.19750214    0.03000000    0.31999999
   17.11305618   74.86609650    0.03000000    0.31999999
   17.11638832   76.44770050    0.03000000    0.31999999
   17.11944389   80.13970184    0.03000000    0.31999999
   17.12277794   79.89520264    0.03000000    0.31999999
   17.12583351   75.70549774    0.03000000    0.31999999
   17.12916756   77.25469971    0.03000000    0.31999999
   17.13222313   75.52670288    0.03000000    0.31999999
   17.13361168   77.93099976    0.03000000    0.31999999
   17.13583374   80.61080170    0.03000000    0.31999999
   17.13888931   74.30670166    0.03000000    0.31999999
   17.14194489   74.03070068    0.03000000    0.31999999
   17.14527702   76.59600067    0.03000000    0.31999999
   17.14833260   78.68720245    0.03000000    0.31999999
   17.15388870   78.68720245    0.03000000    0.31999999
   17.15777779   76.16929626    0.03000000    0.31999999
   17.16110992   72.74770355    0.03000000    0.31999999
   17.16416550   77.28269958    0.03000000    0.31999999
   17.16749954   73.16909790    0.03000000    0.31999999
   17.17055511   75.29830170    0.03000000    0.31999999
   17.17388916   77.07289886    0.03000000    0.31999999
   17.17694473   75.52610016    0.03000000    0.31999999
   17.18027687   75.72640228    0.03000000    0.31999999
   17.18333244   77.82109833    0.03000000    0.31999999
   17.18388748   77.44490051    0.03000000    0.31999999
   17.18722153   80.43599701    0.03000000    0.31999999
   17.19027710   78.37860107    0.03000000    0.31999999
   17.19361115   74.32379913    0.03000000    0.31999999
   17.19666672   76.47380066    0.03000000    0.31999999
   17.20000076   77.52860260    0.03000000    0.31999999
   17.20499992   77.52860260    0.03000000    0.31999999
   17.20916748   77.00150299    0.03000000    0.31999999
   17.21222305   75.56960297    0.03000000    0.31999999
   17.21555710   77.61560059    0.03000000    0.31999999
   17.21861076   78.37339783    0.03000000    0.31999999
   17.22194481   80.53220367    0.03000000    0.31999999
   17.22500038   81.18370056    0.03000000    0.31999999
   17.22833443   76.79039764    0.03000000    0.31999999
   17.23139000   77.73870087    0.03000000    0.31999999
   17.23416710   77.70310211    0.03000000    0.31999999
   17.23500061   74.30419922    0.03000000    0.31999999
   17.23805618   76.48570251    0.03000000    0.31999999
   17.24138832   77.85729980    0.03000000    0.31999999
   17.24444389   72.55509949    0.03000000    0.31999999
   17.24777794   80.63980103    0.03000000    0.31999999
   17.25083351   77.01180267    0.03000000    0.31999999
   17.25611115   77.01180267    0.03000000    0.31999999
   17.26027870   81.61399841    0.03000000    0.31999999
   17.26333427   74.85769653    0.03000000    0.31999999
   17.26666641   76.55699921    0.03000000    0.31999999
   17.26972198   78.90830231    0.03000000    0.31999999
   17.27305603   72.98139954    0.03000000    0.31999999
   17.27611160   78.19629669    0.03000000    0.31999999
   17.27944374   78.53820038    0.03000000    0.31999999
   17.28249931   76.90489960    0.03000000    0.31999999
   17.28416634   76.29370117    0.03000000    0.31999999
   17.28610992   80.88099670    0.03000000    0.31999999
   17.28944397   80.07099915    0.03000000    0.31999999
   17.29249954   77.01860046    0.03000000    0.31999999
   17.29583359   78.28620148    0.03000000    0.31999999
   17.29888916   76.64019775    0.03000000    0.31999999
   17.30222130   74.66590118    0.03000000    0.31999999
   17.30722237   74.66590118    0.03000000    0.31999999
   17.31138802   81.23809814    0.03000000    0.31999999
   17.31472206   78.14129639    0.03000000    0.31999999
   17.31777954   80.03289795    0.03000000    0.31999999
   17.32111168   77.56120300    0.03000000    0.31999999
   17.32416725   77.86129761    0.03000000    0.31999999
   17.32750130   79.15769958    0.03000000    0.31999999
   17.33055687   80.54090118    0.03000000    0.31999999
   17.34777832   77.85939789    0.03000000    0.31999999
   17.35055542   82.16799927    0.03000000    0.31999999
   17.35361099   79.93180084    0.03000000    0.31999999
   17.35861206   79.93180084    0.03000000    0.31999999
   17.36277771   78.48410034    0.03000000    0.31999999
   17.36583328   78.92759705    0.03000000    0.31999999
   17.36916733   75.29250336    0.03000000    0.31999999
   17.37222290   75.48390198    0.03000000    0.31999999
   17.37555504   76.42369843    0.03000000    0.31999999
   17.37861061   79.88400269    0.03000000    0.31999999
   17.38194466   80.18489838    0.03000000    0.31999999
   17.38500023   75.89219666    0.03000000    0.31999999
   17.38833237   76.18450165    0.03000000    0.31999999
   17.39138794   77.08390045    0.03000000    0.31999999
   17.39472198   78.37020111    0.03000000    0.31999999
   17.39777756   77.24479675    0.03000000    0.31999999
   17.39805603   75.85289764    0.03000000    0.31999999
   17.40138817   75.88999939    0.03000000    0.31999999
   17.40444374   74.35459900    0.03000000    0.31999999
   17.40972137   74.35459900    0.03000000    0.31999999
   17.41388893   75.83730316    0.03000000    0.31999999
   17.41722107   75.57379913    0.03000000    0.31999999
   17.42027664   76.83139801    0.03000000    0.31999999
   17.42361069   74.72239685    0.03000000    0.31999999
   17.42666626   77.88040161    0.03000000    0.31999999
   17.43000031   76.26399994    0.03000000    0.31999999
   17.43305397   77.47409821    0.03000000    0.31999999
   17.43638802   81.50969696    0.03000000    0.31999999
   17.43944359   76.21730042    0.03000000    0.31999999
   17.44277763   75.72149658    0.03000000    0.31999999
   17.44583321   75.62560272    0.03000000    0.31999999
   17.44777679   74.97029877    0.03000000    0.31999999
   17.44916534   73.06439972    0.03000000    0.31999999
   17.45250130   75.65650177    0.03000000    0.31999999
   17.45555687   74.86660004    0.03000000    0.31999999
   17.46111107   74.86660004    0.03000000    0.31999999
   17.46500015   75.76899719    0.03000000    0.31999999
   17.46833420   73.77940369    0.03000000    0.31999999
   17.47138977   76.84719849    0.03000000    0.31999999
   17.47472191   78.03240204    0.03000000    0.31999999
   17.47777748   77.01470184    0.03000000    0.31999999
   17.48111153   74.70960236    0.03000000    0.31999999
   17.48416710   75.12290192    0.03000000    0.31999999
   17.48750114   75.97260284    0.03000000    0.31999999
   17.49055672   73.31140137    0.03000000    0.31999999
   17.49388885   76.00270081    0.03000000    0.31999999
   17.49694443   77.33280182    0.03000000    0.31999999
   17.49777794   82.68959808    0.03000000    0.31999999
   17.50083351   81.22010040    0.03000000    0.31999999
   17.50388908   79.03150177    0.03000000    0.31999999
   17.50722313   77.16510010    0.03000000    0.31999999
   17.51222229   77.16510010    0.03000000    0.31999999
   17.51638794   83.06960297    0.03000000    0.31999999
   17.51944351   80.90799713    0.03000000    0.31999999
   17.52277756   77.55110168    0.03000000    0.31999999
   17.52583313   73.50689697    0.03000000    0.31999999
   17.52916718   79.84989929    0.03000000    0.31999999
   17.53222275   78.49440002    0.03000000    0.31999999
   17.53555489   79.64450073    0.03000000    0.31999999
   17.53861046   79.17980194    0.03000000    0.31999999
   17.54194450   78.85030365    0.03000000    0.31999999
   17.54500008   76.40090179    0.03000000    0.31999999
   17.54777718   82.87169647    0.03000000    0.31999999
   17.54833221   77.40049744    0.03000000    0.31999999
   17.55166626   75.80210114    0.03000000    0.31999999
   17.55472183   82.59110260    0.03000000    0.31999999
   17.55805397   78.10720062    0.03000000    0.31999999
   17.56333351   78.10720062    0.03000000    0.31999999
   17.56750107   77.44509888    0.03000000    0.31999999
   17.57055664   76.40260315    0.03000000    0.31999999
   17.57389069   77.85659790    0.03000000    0.31999999
   17.57694626   74.57029724    0.03000000    0.31999999
   17.58027840   74.44519806    0.03000000    0.31999999
   17.58333397   75.55509949    0.03000000    0.31999999
   17.58666801   78.16899872    0.03000000    0.31999999
