    HOUR (UT)   FLARE FACTOR    SKY TESTER    SUN TESTER
   11.28972244   -1.00000000   -1.00000000   -1.00000000
   11.35027790   81.67330170    0.25000000    1.00000000
   11.35361195   86.41819763    0.25000000    1.00000000
   11.35666752   83.75579834    0.23000000    1.00000000
   11.36000061   81.41979980    0.23000000    1.00000000
   11.36305618   84.90799713    0.25000000    1.00000000
   11.36638927   81.28620148    0.25000000    1.00000000
   11.36972237   79.54350281    0.25000000    1.00000000
   11.37277794   80.12750244    0.25000000    1.00000000
   11.37888908   80.12750244    0.25000000    1.00000000
   11.38305569   84.65239716    0.25000000    1.00000000
   11.38611126   81.60160065    0.25000000    1.00000000
   11.38944435   84.60510254    0.25000000    1.00000000
   11.39277744   81.86840057    0.25000000    1.00000000
   11.39583302   80.72160339    0.25999999    1.00000000
   11.39916611   79.01660156    0.25000000    1.00000000
   11.40027714   80.19589996    0.25000000    1.00000000
   11.40277767   78.82969666    0.25000000    1.00000000
   11.40611076   79.25710297    0.23000000    1.00000000
   11.40944386   79.64099884    0.23000000    1.00000000
   11.41249943   80.35199738    0.23000000    1.00000000
   11.41583252   80.66110229    0.20999999    1.00000000
   11.41916656   80.57679749    0.23000000    1.00000000
   11.42222214   79.32369995    0.23000000    1.00000000
   11.42555618   80.61530304    0.23000000    1.00000000
   11.43000031   80.61530304    0.20999999    1.00000000
   11.43416691   83.88680267    0.23000000    1.00000000
   11.43722248   83.25759888    0.20999999    1.76999998
   11.44055557   99.81739807    0.50000000    2.51999998
   11.44388866   83.11289978    0.51999998    2.53999996
   11.44694424   90.38169861    0.52999997    2.51999998
   11.45027733   78.07890320    0.52999997    2.51999998
   11.45055580   82.24459839    0.51999998    2.51999998
   11.45388889   81.40390015    0.52999997    2.53999996
   11.45722198   78.75890350    0.52999997    2.53999996
   11.46027756   78.87400055    0.52999997    2.53999996
   11.46361065   78.49970245    0.52999997    2.53999996
   11.46694374   78.14640045    0.55000001    2.55999994
   11.46999931   79.01989746    0.52999997    2.53999996
   11.47333336   78.56410217    0.52999997    2.53999996
   11.47638798   77.44170380    0.52999997    2.53999996
   11.48111057   77.44170380    0.55000001    2.53999996
   11.48527813   78.34670258    0.56999999    2.53999996
   11.48861122   77.68759918    0.56999999    2.53999996
   11.49194431   80.13420105    0.58999997    2.53999996
   11.49499989   79.37229919    0.58999997    2.55999994
   11.49833393   80.39790344    0.56999999    2.53999996
   11.50027752   77.66590118    0.56999999    2.55999994
   11.50222206   81.20189667    0.56999999    2.53999996
   11.50527763   79.70349884    0.55000001    2.55999994
   11.50861073   81.88110352    0.52999997    2.53999996
   11.51166630   79.57170105    0.52999997    2.55999994
   11.51500034   85.07450104    0.52999997    2.55999994
   11.51833344   78.31060028    0.52999997    2.55999994
   11.52138901   79.79299927    0.52999997    2.55999994
   11.52472210   84.44840240    0.52999997    2.55999994
   11.52805519   78.11859894    0.52999997    2.55999994
   11.53222179   78.11859894    0.51999998    2.55999994
   11.53638935   78.46810150    0.52999997    2.55999994
   11.53972244   80.28479767    0.52999997    2.55999994
   11.54305553   80.90440369    0.51999998    2.55999994
   11.54611111   81.64089966    0.51999998    2.55999994
   11.54944515   80.78330231    0.51999998    2.55999994
   11.55027771   80.64759827    0.51999998    2.55999994
   11.55305576   82.08280182    0.52999997    2.55999994
   11.55611134   81.16030121    0.51999998    2.55999994
   11.55944443   78.46260071    0.51999998    2.55999994
   11.56250000   78.40070343    0.51999998    2.57999992
   11.56583309   80.13110352    0.51999998    2.55999994
   11.56916618   78.65550232    0.52999997    2.57999992
   11.57222176   78.14790344    0.51999998    2.55999994
   11.57555580   79.58439636    0.51999998    2.55999994
   11.57888889   79.32180023    0.51999998    2.55999994
   11.58361053   79.32180023    0.51999998    2.57999992
   11.58777714   77.97720337    0.50000000    2.57999992
   11.59083271   79.67199707    0.50000000    2.57999992
   11.59416676   76.90239716    0.47999999    2.57999992
   11.59749985   80.37789917    0.46000001    2.57999992
   11.60027790   79.14199829    0.46000001    2.57999992
   11.60111141   79.68199921    0.46000001    2.57999992
   11.60416698   79.68170166    0.47999999    2.57999992
   11.60750008   82.09909821    0.47999999    2.57999992
   11.61083412   77.50499725    0.50000000    2.57999992
   11.61388969   78.63520050    0.50000000    2.57999992
   11.61722279   77.39949799    0.51999998    2.57999992
   11.62027836   78.24909973    0.50000000    2.59999990
   11.62361145   79.83619690    0.50000000    2.59999990
   11.62694454   80.69290161    0.50000000    2.57999992
   11.63000011   83.72699738    0.51999998    2.59999990
   11.63472176   83.72699738    0.51999998    2.57999992
   11.63888836   78.47190094    0.50000000    2.59999990
   11.64194393   80.06300354    0.50000000    2.59999990
   11.64527798   81.44419861    0.50000000    2.59999990
   11.64861107   83.78340149    0.50000000    2.59999990
   11.65027714   78.76300049    0.47999999    2.59999990
   11.65222168   77.30319977    0.47999999    2.59999990
   11.65527725   80.49729919    0.47999999    2.59999990
   11.65861034   80.64600372    0.50000000    2.59999990
   11.66194439   80.16629791    0.50000000    2.59999990
   11.66499996   79.12480164    0.51999998    2.59999990
   11.66833401   78.91459656    0.51999998    2.59999990
   11.67138958   78.94290161    0.52999997    2.59999990
   11.67472267   78.67859650    0.51999998    2.59999990
   11.67805576   79.71970367    0.52999997    2.59999990
   11.68111134   78.84380341    0.52999997    2.59999990
   11.68583298   78.84380341    0.50000000    2.59999990
   11.69000053   80.48690033    0.47999999    2.59999990
   11.69333363   79.28150177    0.47999999    2.59999990
   11.69638920   77.52110291    0.47999999    2.59999990
   11.69972229   78.62770081    0.50000000    2.59999990
   11.70027733   77.26820374    0.50000000    2.59999990
   11.70333290   77.86499786    0.50000000    2.61999989
   11.70638847   75.14659882    0.50000000    2.61999989
   11.70972157   80.57800293    0.50000000    2.61999989
   11.71305561   75.58969879    0.52999997    2.59999990
   11.71611118   75.55380249    0.51999998    2.59999990
   11.71944427   76.09110260    0.51999998    2.59999990
   11.72277737   80.49050140    0.50000000    2.61999989
   11.72583294   75.83740234    0.50000000    2.61999989
   11.72916603   77.85630035    0.50000000    2.61999989
   11.73222160   76.79720306    0.50000000    2.61999989
   11.73694515   76.79720306    0.51999998    2.59999990
   11.74111176   78.33070374    0.51999998    2.61999989
   11.74444485   76.10639954    0.50000000    2.61999989
   11.74777794   77.60549927    0.50000000    2.59999990
   11.75027752   79.24849701    0.50000000    2.61999989
   11.75138855   77.73909760    0.51999998    2.61999989
   11.75472260   82.28639984    0.51999998    2.61999989
   11.75777817   78.09089661    0.51999998    2.61999989
   11.76111126   83.66020203    0.51999998    2.61999989
   11.76416683   76.31079865    0.51999998    2.61999989
   11.76749992   76.43810272    0.51999998    2.61999989
   11.77083302   79.83519745    0.51999998    2.64000010
   11.77388859   78.48310089    0.52999997    2.61999989
   11.77722168   78.21669769    0.52999997    2.61999989
   11.78055573   78.80159760    0.51999998    2.61999989
   11.78361130   80.91400146    0.51999998    2.61999989
   11.78833389   80.91400146    0.51999998    2.64000010
   11.79250050   77.68840027    0.50000000    2.61999989
   11.79555607   77.54540253    0.50000000    2.61999989
   11.79888916   77.26540375    0.50000000    2.61999989
   11.80027771   78.11309814    0.50000000    2.61999989
   11.80249977   79.04340363    0.47999999    2.64000010
   11.80583382   77.83499908    0.50000000    2.64000010
   11.80888939   77.31829834    0.52999997    2.64000010
   11.81222248   76.23169708    0.52999997    2.64000010
   11.81527805   75.05950165    0.52999997    2.61999989
   11.81861115   77.79329681    0.52999997    2.64000010
   11.82194424   77.95110321    0.55000001    2.64000010
   11.82499981   76.39849854    0.55000001    2.64000010
   11.82833290   77.85890198    0.56999999    2.64000010
   11.83166695   78.34169769    0.56999999    2.64000010
   11.83472157   79.41790009    0.56999999    2.64000010
   11.83944416   79.41790009    0.56999999    2.66000009
   11.84361076   76.57879639    0.58999997    2.64000010
   11.84666634   76.88839722    0.56999999    2.64000010
   11.85000038   74.66850281    0.56999999    2.64000010
   11.85055637   77.69819641    0.56999999    2.64000010
   11.85361195   77.48829651    0.56999999    2.64000010
   11.85666752   74.50319672    0.56999999    2.64000010
   11.86000061   74.93119812    0.56999999    2.64000010
   11.86333370   76.50340271    0.56999999    2.64000010
   11.86638927   75.92400360    0.56999999    2.64000010
   11.86972237   75.85379791    0.55000001    2.64000010
   11.87305546   76.27330017    0.55000001    2.64000010
   11.87611103   76.31359863    0.50000000    2.66000009
   11.87944412   78.26779938    0.51999998    2.64000010
   11.88249969   77.13950348    0.50000000    2.66000009
   11.88583279   77.03780365    0.50000000    2.66000009
   11.89055538   77.03780365    0.50000000    2.64000010
   11.89472198   81.95300293    0.50000000    2.66000009
   11.89805508   80.44170380    0.51999998    2.66000009
   11.90055561   83.14800262    0.50000000    2.66000009
   11.90166664   80.46990204    0.50000000    2.66000009
   11.90472221   77.72930145    0.50000000    2.66000009
   11.90805531   79.08070374    0.46000001    2.66000009
   11.91138840   76.01419830    0.47999999    2.66000009
   11.91444397   81.36569977    0.47999999    2.64000010
   11.91777802   81.34470367    0.47999999    2.66000009
   11.92111111   79.07089996    0.47999999    2.66000009
   11.92416668   79.50910187    0.47999999    2.66000009
   11.92750072   78.26619720    0.47999999    2.66000009
   11.93055630   75.18150330    0.50000000    2.66000009
   11.93388939   79.55380249    0.50000000    2.66000009
   11.93722248   77.31749725    0.50000000    2.66000009
   11.94166660   77.31749725    0.50000000    2.67000008
   11.94583321   76.63420105    0.50000000    2.66000009
   11.94916630   76.77819824    0.50000000    2.67000008
   11.95055580   76.89009857    0.50000000    2.67000008
   11.95277786   78.60980225    0.50000000    2.67000008
   11.95611095   75.68479919    0.47999999    2.66000009
   11.95916653   77.10949707    0.44000000    2.66000009
   11.96249962   79.37349701    0.44000000    2.66000009
   11.96555519   77.98030090    0.44000000    2.66000009
   11.96888828   77.94969940    0.44000000    2.67000008
   11.97222137   79.09190369    0.46000001    2.67000008
   11.97527695   76.23930359    0.46000001    2.66000009
   11.97861099   74.35839844    0.46000001    2.67000008
   11.98194408   79.23269653    0.47999999    2.67000008
   11.98500061   78.01270294    0.47999999    2.66000009
   11.98833370   78.38649750    0.47999999    2.67000008
   11.99305534   78.38649750    0.50000000    2.66000009
   11.99722290   78.02290344    0.50000000    2.67000008
   12.00111103   77.53359985    0.51999998    2.67000008
   12.00166702   76.66719818    0.50000000    2.67000008
   12.00527763   75.60399628    0.46000001    2.67000008
   12.00833321   76.93579865    0.46000001    2.67000008
   12.01166630   78.20549774    0.47999999    2.67000008
   12.01500034   76.94360352    0.47999999    2.67000008
   12.01805496   75.80159760    0.47999999    2.69000006
   12.02138901   76.12129974    0.47999999    2.67000008
   12.02555561   77.43399811    0.47999999    2.67000008
   12.02916622   77.75150299    0.47999999    2.67000008
   12.03249931   75.07530212    0.47999999    2.67000008
   12.03583336   79.08170319    0.47999999    2.67000008
   12.04083347   77.70860291    0.47999999    2.67000008
   12.04638958   77.70860291    0.46000001    2.69000006
   12.05083370   77.64350128    0.46000001    2.67000008
   12.05166721   78.32119751    0.46000001    2.67000008
   12.05583382   75.77850342    0.47999999    2.67000008
   12.05944443   78.45520020    0.47999999    2.67000008
   12.06333351   77.68209839    0.47999999    2.67000008
   12.06750011   78.29429626    0.47999999    2.67000008
   12.07083321   76.46469879    0.47999999    2.69000006
   12.07444477   79.92720032    0.51999998    2.67000008
   12.07777786   77.40180206    0.51999998    2.67000008
   12.08138847   79.28489685    0.51999998    2.69000006
   12.08472157   76.78029633    0.51999998    2.69000006
   12.08805561   78.09899902    0.47999999    2.69000006
   12.09111118   75.62709808    0.47999999    2.69000006
   12.09638882   75.62709808    0.46000001    2.67000008
   12.10027790   81.51799774    0.44000000    2.69000006
   12.10166740   75.96520233    0.44000000    2.69000006
   12.10416698   76.70590210    0.44000000    2.69000006
   12.10750008   75.83309937    0.41999999    2.69000006
   12.11055565   75.78269958    0.41999999    2.69000006
   12.11416721   77.62429810    0.40000001    2.69000006
   12.11722279   77.28299713    0.40000001    2.69000006
   12.12055588   76.25659943    0.38000000    2.71000004
   12.12388897   76.05359650    0.40000001    2.69000006
   12.12722206   78.01300049    0.38000000    2.69000006
   12.13055611   77.61740112    0.38000000    2.69000006
   12.13388920   79.59169769    0.40000001    2.69000006
   12.13694477   76.73010254    0.40000001    2.69000006
   12.14027786   79.52819824    0.40000001    2.71000004
   12.14361095   79.98069763    0.44000000    2.69000006
   12.14777756   79.98069763    0.44000000    2.69000006
   12.15222168   76.89140320    0.44000000    2.71000004
   12.15555477   77.15329742    0.41999999    2.71000004
   12.15972137   78.95510101    0.41999999    2.71000004
   12.16305542   75.81580353    0.44000000    2.69000006
   12.16694450   78.59649658    0.44000000    2.69000006
   12.17083359   75.82099915    0.44000000    2.69000006
   12.17416668   77.76059723    0.44000000    2.69000006
   12.17750072   77.10929871    0.46000001    2.69000006
   12.18083382   76.94259644    0.46000001    2.69000006
   12.18416691   75.75170135    0.46000001    2.69000006
   12.18750000   76.93939972    0.46000001    2.71000004
   12.19083309   77.63559723    0.46000001    2.71000004
   12.19416714   76.93990326    0.46000001    2.71000004
   12.19916630   76.93990326    0.46000001    2.71000004
   12.20361137   82.38569641    0.44000000    2.71000004
   12.20694447   76.65219879    0.46000001    2.71000004
   12.21027756   76.62280273    0.41999999    2.71000004
   12.21361065   77.31659698    0.40000001    2.71000004
   12.21694374   81.70069885    0.40000001    2.71000004
   12.22027779   77.33550262    0.38000000    2.71000004
   12.22361088   82.18969727    0.38000000    2.71000004
   12.22694397   82.83070374    0.36000001    2.71000004
   12.23027706   82.91989899    0.38000000    2.71000004
   12.23361111   75.50769806    0.40000001    2.71000004
   12.23694515   80.77850342    0.40000001    2.71000004
   12.24027824   78.45570374    0.40000001    2.71000004
   12.24361134   79.39710236    0.41999999    2.73000002
   12.25055599   79.39710236    0.38000000    2.71000004
   12.25500011   78.81099701    0.40000001    2.73000002
   12.25833321   79.35569763    0.40000001    2.71000004
   12.26166630   75.97000122    0.46000001    2.71000004
   12.26500034   77.21130371    0.51999998    2.71000004
   12.26805496   80.03849792    0.44000000    2.71000004
   12.27138901   77.25630188    0.41999999    2.71000004
   12.27472210   79.97699738    0.46000001    2.71000004
   12.27805519   79.41790009    0.41999999    2.73000002
   12.28166676   76.41989899    0.40000001    2.71000004
   12.28500080   78.44010162    0.40000001    2.71000004
   12.28833389   85.32350159    0.40000001    2.73000002
   12.29166698   77.96230316    0.40000001    2.73000002
   12.29472256   91.20890045    0.38000000    2.73000002
   12.30166721   91.20890045    0.40000001    2.73000002
   12.30583382   83.16470337    0.40000001    2.73000002
   12.30888939   77.01319885    0.41999999    2.73000002
   12.31222248   82.18340302    0.41999999    2.73000002
   12.31555557   79.33509827    0.41999999    2.73000002
   12.31861115   79.59609985    0.41999999    2.73000002
   12.32194424   78.23760223    0.41999999    2.73000002
   12.32527733   79.60790253    0.41999999    2.73000002
   12.32833290   78.19640350    0.41999999    2.73000002
   12.33166695   89.01989746    0.41999999    2.73000002
   12.33500004   82.14910126    0.41999999    2.73000002
   12.33833313   78.20030212    0.41999999    2.73000002
   12.34166622   78.40380096    0.41999999    2.73000002
   12.34527779   80.17410278    0.41999999    2.73000002
   12.34861088   78.45510101    0.44000000    2.73000002
   12.36777782   66.62920380    0.46000001    2.75000000
   12.36972237   84.94619751    0.46000001    2.73000002
   12.37277794   82.13279724    0.46000001    2.73000002
   12.37611103   84.35269928    0.47999999    2.73000002
   12.37972260   83.24490356    0.47999999    2.73000002
   12.38305569   77.95269775    0.47999999    2.73000002
   12.38611126   78.86229706    0.50000000    2.73000002
   12.38944435   82.37139893    0.51999998    2.75000000
   12.39277744   85.52310181    0.50000000    2.75000000
   12.39611053   79.35780334    0.50000000    2.75000000
   12.39916611   77.30049896    0.51999998    2.75000000
   12.40416622   77.30049896    0.50000000    2.73000002
   12.40833282   77.71469879    0.51999998    2.73000002
   12.41166592   80.28849792    0.51999998    2.73000002
   12.41499996   78.03510284    0.51999998    2.73000002
   12.41750050   83.26719666    0.52999997    2.73000002
   12.41861153   84.46869659    0.51999998    2.73000002
   12.42194462   75.82129669    0.51999998    2.75000000
   12.42527771   83.29299927    0.52999997    2.75000000
   12.42861176   77.03630066    0.52999997    2.75000000
   12.43194485   78.87020111    0.55000001    2.75000000
   12.43527794   85.92340088    0.52999997    2.75000000
   12.43861103   79.80259705    0.52999997    2.73000002
   12.44166660   78.79309845    0.52999997    2.73000002
   12.44499969   80.04869843    0.55000001    2.73000002
   12.44833374   78.19000244    0.52999997    2.73000002
   12.45527744   78.19000244    0.46000001    2.75000000
   12.45944405   78.36260223    0.46000001    2.75000000
   12.46277714   76.39450073    0.46000001    2.75000000
   12.46611118   81.87889862    0.47999999    2.75000000
   12.46805477   79.01709747    0.47999999    2.75000000
   12.47027779   80.01609802    0.47999999    2.75000000
   12.47361088   82.37339783    0.47999999    2.75000000
   12.47666645   86.09559631    0.47999999    2.75000000
   12.48055553   80.56289673    0.47999999    2.75000000
   12.48388958   82.58180237    0.47999999    2.75000000
   12.48722267   80.21510315    0.47999999    2.75000000
   12.49055576   79.10369873    0.47999999    2.75000000
   12.49361134   78.05249786    0.41999999    2.75000000
   12.49694443   79.69819641    0.40000001    2.75000000
   12.50027752   79.95870209    0.40000001    2.75000000
   12.50638866   79.95870209    0.40000001    2.75000000
   12.51055527   77.57879639    0.40000001    2.75000000
   12.51388931   75.79589844    0.40000001    2.75000000
   12.51722240   87.01159668    0.40000001    2.75000000
   12.51777744   76.90280151    0.40000001    2.75000000
   12.52055550   76.36489868    0.40000001    2.75000000
   12.52388859   84.38469696    0.40000001    2.75000000
   12.52805519   76.01699829    0.38000000    2.75000000
   12.53138828   78.99790192    0.40000001    2.76999998
   12.53472233   75.90339661    0.41999999    2.75000000
   12.53805637   78.37609863    0.41999999    2.75000000
   12.54361153   82.71219635    0.44000000    2.75000000
   12.54750061   77.33439636    0.41999999    2.76999998
   12.55388927   78.94609833    0.40000001    2.76999998
   12.56055546   78.94609833    0.40000001    2.75000000
   12.56472206   80.46589661    0.41999999    2.76999998
   12.56805515   81.23760223    0.40000001    2.75000000
   12.56861115   83.67559814    0.40000001    2.76999998
   12.57194424   81.13430023    0.41999999    2.76999998
   12.57527733   78.76000214    0.41999999    2.76999998
   12.57861137   83.88580322    0.44000000    2.76999998
   12.58194447   82.32550049    0.44000000    2.75000000
   12.58527756   82.60250092    0.44000000    2.75000000
   12.58916664   85.58290100    0.44000000    2.75000000
   12.59388828   81.35710144    0.44000000    2.75000000
   12.59722233   82.12539673    0.44000000    2.75000000
   12.60055637   85.24250031    0.44000000    2.75000000
   12.60361195   82.93170166    0.44000000    2.75000000
   12.60944462   82.93170166    0.44000000    2.75000000
   12.61361122   81.75090027    0.44000000    2.75000000
   12.61694431   84.25759888    0.44000000    2.75000000
   12.61805534   84.33380127    0.44000000    2.75000000
   12.62083340   85.27970123    0.44000000    2.75000000
   12.62416649   82.11419678    0.44000000    2.75000000
   12.62722206   80.51619720    0.44000000    2.75000000
   12.63055611   77.48789978    0.44000000    2.75000000
   12.63388920   83.89700317    0.44000000    2.75000000
   12.63722229   82.40270233    0.44000000    2.75000000
   12.64055538   84.49079895    0.44000000    2.75000000
   12.64388847   81.59210205    0.44000000    2.75000000
   12.64694405   88.88249969    0.44000000    2.75000000
   12.65027714   86.07579803    0.44000000    2.75000000
   12.65361118   81.24669647    0.44000000    2.75000000
   12.66055489   81.24669647    0.44000000    2.75000000
   12.66472149   86.25430298    0.44000000    2.75000000
   12.66861153   79.10489655    0.44000000    2.75000000
   12.66944504   85.75260162    0.44000000    2.75000000
   12.67305565   80.25240326    0.44000000    2.75000000
   12.67638874   81.40450287    0.44000000    2.75000000
   12.68027782   77.18659973    0.44000000    2.75000000
   12.68388939   80.55269623    0.44000000    2.75000000
   12.68722248   82.96980286    0.44000000    2.75000000
   12.69055557   85.81459808    0.44000000    2.75000000
   12.69416714   83.02050018    0.44000000    2.75000000
   12.69777775   79.86190033    0.44000000    2.75000000
   12.70111084   84.85260010    0.44000000    2.75000000
   12.70499992   82.31649780    0.44000000    2.75000000
   12.71222210   82.31649780    0.44000000    2.75000000
   12.71694374   90.99289703    0.44000000    2.75000000
   12.71833324   81.06300354    0.44000000    2.75000000
   12.72111034   89.67520142    0.44000000    2.75000000
   12.72416592   82.17630005    0.44000000    2.75000000
   12.72777748   82.01909637    0.44000000    2.75000000
   12.73111057   85.05419922    0.44000000    2.75000000
   12.73444462   87.54859924    0.44000000    2.75000000
   12.73777771   86.77839661    0.44000000    2.75000000
   12.74083328   82.76909637    0.44000000    2.75000000
   12.74444485   89.03350067    0.44000000    2.75000000
   12.74777794   88.63240051    0.44000000    2.75000000
   12.75138855   78.92040253    0.44000000    2.75000000
   12.75472260   87.05480194    0.44000000    2.75000000
   12.75805569   83.27459717    0.44000000    2.75000000
   12.76333332   83.27459717    0.44000000    2.75000000
   12.76777744   85.27059937    0.44000000    2.75000000
   12.76833344   79.67030334    0.44000000    2.75000000
   12.77138901   82.41510010    0.44000000    2.75000000
   12.77472210   86.90959930    0.44000000    2.75000000
   12.77805519   88.42079926    0.44000000    2.75000000
   12.78138828   86.11489868    0.44000000    2.75000000
   12.78472233   87.67179871    0.44000000    2.75000000
   12.78805637   85.50980377    0.44000000    2.75000000
   12.79138947   82.96910095    0.44000000    2.75000000
   12.79472256   87.90769958    0.44000000    2.75000000
   12.79777813   85.61460114    0.44000000    2.75000000
   12.80111122   91.00009918    0.44000000    2.75000000
   12.80444431   87.41539764    0.44000000    2.75000000
   12.80777836   81.20570374    0.44000000    2.75000000
   12.81583309   81.20570374    0.44000000    2.75000000
   12.81999969   85.19940186    0.44000000    2.75000000
   12.82333374   91.16089630    0.44000000    2.75000000
   12.82638836   87.43340302    0.44000000    2.75000000
   12.82999992   83.88529968    0.44000000    2.75000000
   12.83333302   90.78260040    0.44000000    2.75000000
   12.83638859   85.84880066    0.44000000    2.75000000
   12.83972168   86.09760284    0.44000000    2.75000000
   12.84305477   88.78170013    0.44000000    2.75000000
   12.84638882   93.00610352    0.44000000    2.75000000
   12.84972191   87.14859772    0.44000000    2.75000000
   12.85333347   86.40360260    0.44000000    2.75000000
   12.85722256   87.15630341    0.44000000    2.75000000
   12.86083412   84.74340057    0.44000000    2.75000000
   12.86694431   84.74340057    0.44000000    2.75000000
   12.87166691   81.21060181    0.44000000    2.75000000
   12.87555599   81.74520111    0.44000000    2.75000000
   12.87916660   84.50509644    0.44000000    2.75000000
   12.88305569   85.07540131    0.44000000    2.75000000
   12.88666630   84.49659729    0.44000000    2.75000000
   12.89055538   85.66819763    0.44000000    2.75000000
   12.89388847   85.43370056    0.44000000    2.75000000
   12.89750004   82.64589691    0.44000000    2.75000000
   12.90111065   85.62870026    0.44000000    2.75000000
   12.90499973   84.60320282    0.44000000    2.75000000
   12.90888882   85.39910126    0.44000000    2.75000000
   12.91249943   81.08119965    0.44000000    2.75000000
   12.91805553   81.08119965    0.44000000    2.75000000
   12.92361164   83.84200287    0.44000000    2.75000000
   12.92722225   89.86710358    0.44000000    2.75000000
   12.93111134   86.37740326    0.44000000    2.75000000
   12.93500042   88.66799927    0.44000000    2.75000000
   12.93916702   90.25540161    0.44000000    2.75000000
   12.94277763   85.50279999    0.44000000    2.75000000
   12.94666672   84.45290375    0.44000000    2.75000000
   12.95055580   83.83830261    0.44000000    2.75000000
   12.95472240   83.22260284    0.44000000    2.75000000
   12.95861053   91.99960327    0.44000000    2.75000000
   12.96222210   85.96179962    0.44000000    2.75000000
   12.96972179   85.96179962    0.44000000    2.75000000
   12.97499943   83.32910156    0.44000000    2.75000000
   12.97888851   86.05069733    0.44000000    2.75000000
   12.98249912   85.39610291    0.44000000    2.75000000
   12.98666668   84.98190308    0.44000000    2.75000000
   12.99055576   88.62079620    0.44000000    2.75000000
   12.99444485   88.98940277    0.44000000    2.75000000
   12.99861145   83.66259766    0.44000000    2.75000000
   13.00194454   87.51370239    0.44000000    2.75000000
   13.00527763   85.90360260    0.44000000    2.75000000
   13.00916672   86.54060364    0.44000000    2.75000000
   13.01305580   85.36540222    0.44000000    2.75000000
   13.02083302   85.36540222    0.44000000    2.75000000
   13.02555561   84.56330109    0.44000000    2.75000000
   13.02944374   86.54380035    0.44000000    2.75000000
   13.03333378   84.86000061    0.44000000    2.75000000
   13.03777790   80.04969788    0.44000000    2.75000000
   13.04194450   89.78990173    0.44000000    2.75000000
   13.04555607   84.90370178    0.44000000    2.75000000
   13.04916668   84.56999969    0.44000000    2.75000000
   13.05277824   87.46890259    0.44000000    2.75000000
   13.05666733   85.95680237    0.44000000    2.75000000
   13.06055546   92.51969910    0.44000000    2.75000000
   13.06444454   91.27610016    0.44000000    2.75000000
   13.07194424   91.27610016    0.44000000    2.75000000
   13.07666683   89.50550079    0.44000000    2.75000000
   13.08027744   90.91940308    0.44000000    2.75000000
   13.08388901   89.78070068    0.44000000    2.75000000
   13.08777714   91.21540070    0.44000000    2.75000000
   13.09249973   88.56839752    0.44000000    2.75000000
   13.09666634   87.81289673    0.44000000    2.75000000
   13.10055637   84.73159790    0.44000000    2.75000000
   13.10444450   91.40989685    0.44000000    2.75000000
   13.10833359   83.37110138    0.44000000    2.75000000
   13.11250019   83.67690277    0.44000000    2.75000000
   13.11583328   83.49389648    0.44000000    2.75000000
   13.12416649   83.49389648    0.44000000    2.75000000
   13.13055611   87.40329742    0.44000000    2.75000000
   13.13638878   88.66590118    0.44000000    2.75000000
   13.14277744   87.14219666    0.44000000    2.75000000
   13.14805508   91.52050018    0.44000000    2.75000000
   13.15361118   87.51039886    0.44000000    2.75000000
   13.15944386   85.41339874    0.44000000    2.75000000
   13.16305542   86.39420319    0.44000000    2.75000000
   13.16638851   87.01999664    0.44000000    2.75000000
   13.17000008   89.43379974    0.44000000    2.75000000
   13.17472267   89.43379974    0.44000000    2.75000000
   13.17916679   89.56310272    0.44000000    2.75000000
   13.18249989   89.99240112    0.44000000    2.75000000
   13.18583298   87.97129822    0.44000000    2.75000000
   13.18916702   88.22180176    0.44000000    2.75000000
   13.19222260   91.77600098    0.44000000    2.75000000
   13.19555569   90.10130310    0.44000000    2.75000000
   13.19888878   92.16639709    0.44000000    2.75000000
   13.20194435   83.63549805    0.44000000    2.75000000
   13.20527744   88.01399994    0.44000000    2.75000000
   13.20833302   88.33580017    0.44000000    2.75000000
   13.21166611   83.72329712    0.44000000    2.75000000
   13.21500015   87.76930237    0.44000000    2.75000000
   13.21805477   87.04489899    0.44000000    2.75000000
   13.22138882   86.40080261    0.44000000    2.75000000
   13.22555542   86.40080261    0.44000000    2.75000000
   13.22972202   84.05020142    0.44000000    2.75000000
   13.23305511   91.85160065    0.44000000    2.75000000
   13.23611164   90.86849976    0.44000000    2.75000000
   13.23944473   93.41909790    0.44000000    2.75000000
   13.24250031   88.35250092    0.44000000    2.75000000
   13.24583340   89.56379700    0.44000000    2.75000000
   13.24916649   88.76499939    0.44000000    2.75000000
   13.25222206   86.35260010    0.44000000    2.75000000
   13.25555515   95.31569672    0.44000000    2.75000000
   13.25888920   90.52799988    0.44000000    2.75000000
   13.26194477   93.17220306    0.44000000    2.75000000
   13.26527786   90.28919983    0.44000000    2.75000000
   13.26833344   91.85119629    0.44000000    2.75000000
   13.27166653   89.82620239    0.44000000    2.75000000
   13.27666664   89.82620239    0.44000000    2.75000000
   13.28083324   83.38600159    0.44000000    2.75000000
   13.28416729   85.83110046    0.44000000    2.75000000
   13.28722286   88.01470184    0.44000000    2.75000000
   13.29055595   88.68560028    0.44000000    2.75000000
   13.29388905   87.14730072    0.44000000    2.75000000
   13.29694462   85.55359650    0.44000000    2.75000000
   13.30027771   89.12770081    0.44000000    2.75000000
   13.30333328   86.56970215    0.44000000    2.75000000
   13.30666733   84.04660034    0.44000000    2.75000000
   13.31000042   86.68019867    0.44000000    2.75000000
   13.31305599   92.40859985    0.44000000    2.75000000
   13.31638908   89.93800354    0.44000000    2.75000000
   13.31972218   85.83769989    0.44000000    2.75000000
   13.32277775   90.59470367    0.44000000    2.75000000
   13.32777786   90.59470367    0.44000000    2.75000000
   13.33194447   88.84020233    0.44000000    2.75000000
   13.33527756   85.72630310    0.44000000    2.75000000
   13.33861065   91.26779938    0.44000000    2.75000000
   13.34166622   94.12909698    0.44000000    2.75000000
   13.34499931   89.36900330    0.44000000    2.75000000
   13.34805489   89.52799988    0.44000000    2.75000000
   13.35138893   88.84110260    0.44000000    2.75000000
   13.35472298   88.71369934    0.44000000    2.75000000
   13.35777855   85.11139679    0.44000000    2.75000000
   13.36111164   88.45649719    0.44000000    2.75000000
   13.36444473   95.28350067    0.44000000    2.75000000
   13.36750031   85.73059845    0.44000000    2.75000000
   13.38916683   85.73059845    0.44000000    2.75000000
   13.39333344   87.58589935    0.44000000    2.75000000
   13.39638901   86.77410126    0.44000000    2.75000000
   13.39972210   89.43319702    0.44000000    2.75000000
   13.40305519   82.93450165    0.44000000    2.75000000
   13.40611076   80.70890045    0.44000000    2.75000000
   13.40944386   99.66459656    0.44000000    2.75000000
   13.41249943  106.87999725    0.44000000    2.75000000
   13.41583252  101.69000244    0.44000000    2.75000000
   13.41916656   97.59590149    0.44000000    2.75000000
   13.42222214   90.14070129    0.44000000    2.75000000
   13.42555618   90.90529633    0.44000000    2.75000000
   13.42888927   91.11329651    0.44000000    2.75000000
   13.43194485   87.67819977    0.44000000    2.75000000
   13.43527794   90.59729767    0.44000000    2.75000000
   13.43666649   88.82009888    0.44000000    2.75000000
   13.44083309   88.82009888    0.44000000    2.75000000
   13.44472218   83.60739899    0.44000000    2.75000000
   13.44805527   82.31060028    0.44000000    2.75000000
   13.45138836   89.14679718    0.44000000    2.75000000
   13.45444393   84.24639893    0.44000000    2.75000000
   13.45777798   87.81310272    0.44000000    2.75000000
   13.46111107   88.24939728    0.44000000    2.75000000
   13.46416664   89.36940002    0.44000000    2.75000000
   13.46749973   88.47979736    0.44000000    2.75000000
   13.47055531   90.50789642    0.44000000    2.75000000
   13.47388840   87.07270050    0.44000000    2.75000000
   13.47722149   89.30419922    0.44000000    2.75000000
   13.48027706   85.24890137    0.44000000    2.75000000
   13.48361111   87.11319733    0.44000000    2.75000000
   13.48666668   91.57440186    0.44000000    2.75000000
   13.48722267   91.48650360    0.44000000    2.75000000
   13.49194431   91.48650360    0.44000000    2.75000000
   13.49611092   86.16829681    0.44000000    2.75000000
   13.49916649   86.82520294    0.44000000    2.75000000
   13.50249958   89.47650146    0.44000000    2.75000000
   13.50583363   88.33409882    0.44000000    2.75000000
   13.50888920   88.32779694    0.44000000    2.75000000
   13.51222229   91.43789673    0.44000000    2.75000000
   13.51527786   86.03610229    0.44000000    2.75000000
   13.51861095   86.85839844    0.44000000    2.75000000
   13.52194405   87.81189728    0.44000000    2.75000000
   13.52499962   89.71250153    0.44000000    2.75000000
   13.52833271   87.62560272    0.44000000    2.75000000
   13.53166676   84.61710358    0.44000000    2.75000000
   13.53472233   90.20729828    0.44000000    2.75000000
   13.53666687   86.41079712    0.44000000    2.75000000
   13.53833389   87.20690155    0.44000000    2.75000000
   13.54305553   87.20690155    0.44000000    2.75000000
   13.54722309   90.83699799    0.44000000    2.75000000
   13.55055618   88.45919800    0.44000000    2.75000000
   13.55361176   88.81929779    0.44000000    2.75000000
   13.55694485   85.75379944    0.44000000    2.75000000
   13.56000042   85.24490356    0.44000000    2.75000000
   13.56333351   89.65740204    0.44000000    2.75000000
   13.56666660   86.60369873    0.44000000    2.75000000
   13.56972218   87.93340302    0.44000000    2.75000000
   13.57305527   89.59709930    0.44000000    2.75000000
   13.57638836   86.27359772    0.44000000    2.75000000
   13.57944393   88.49939728    0.44000000    2.75000000
   13.58277798   90.26200104    0.44000000    2.75000000
   13.58583260   86.17769623    0.44000000    2.75000000
   13.58666611   91.92259979    0.44000000    2.75000000
   13.58944416   90.59059906    0.44000000    2.75000000
   13.59416676   90.59059906    0.44000000    2.75000000
   13.59833336   84.68830109    0.44000000    2.75000000
   13.60166740   90.61979675    0.44000000    2.75000000
   13.60472298   92.48370361    0.44000000    2.75000000
   13.60805607   88.69259644    0.44000000    2.75000000
   13.61138916   90.42389679    0.44000000    2.75000000
   13.61444473   87.63880157    0.44000000    2.75000000
   13.61777782   87.59899902    0.44000000    2.75000000
   13.62111092   93.04679871    0.44000000    2.75000000
   13.62416649   92.45349884    0.44000000    2.75000000
   13.62750053   87.02590179    0.44000000    2.75000000
   13.63055611   89.24199677    0.44000000    2.75000000
   13.63388920   85.15740204    0.44000000    2.75000000
   13.63666630   99.31279755    0.44000000    2.75000000
   13.63749981   90.67890167    0.44000000    2.75000000
   13.64083290   91.05030060    0.44000000    2.75000000
   13.64555550   91.05030060    0.44000000    2.75000000
   13.64944458   92.37470245    0.44000000    2.75000000
   13.65277767   88.43289948    0.44000000    2.75000000
   13.65611076   87.79699707    0.44000000    2.75000000
   13.65916634   92.99539948    0.44000000    2.75000000
   13.66249943   92.08709717    0.44000000    2.75000000
   13.66583252   92.60959625    0.44000000    2.75000000
   13.66888905   87.42030334    0.44000000    2.75000000
   13.67222214   88.08989716    0.44000000    2.75000000
   13.67527771   86.54660034    0.44000000    2.75000000
   13.67861176   77.45269775    0.44000000    2.75000000
   13.68194485   87.11940002    0.44000000    2.75000000
   13.68500042   92.20420074    0.44000000    2.75000000
   13.68666649   84.51699829    0.44000000    2.75000000
   13.68861103   88.25520325    0.44000000    2.75000000
   13.69194412   84.10890198    0.44000000    2.75000000
   13.69666672   84.10890198    0.44000000    2.75000000
   13.70083332   83.11959839    0.44000000    2.75000000
   13.70388889   82.79270172    0.44000000    2.75000000
   13.70722198   89.68540192    0.44000000    2.75000000
   13.71055508   99.53109741    0.44000000    2.75000000
   13.71361065   93.72910309    0.44000000    2.75000000
   13.71694374   93.41919708    0.44000000    2.75000000
   13.71999931   94.45649719    0.44000000    2.75000000
   13.72333336   88.15110016    0.44000000    2.75000000
   13.72666645   82.32679749    0.44000000    2.75000000
   13.72972202   89.55200195    0.44000000    2.75000000
   13.73305511   81.25620270    0.44000000    2.75000000
   13.73638916   94.72930145    0.44000000    2.75000000
   13.73694515   89.89949799    0.44000000    2.75000000
   13.74000072   86.65730286    0.44000000    2.75000000
   13.74333382   89.40090179    0.44000000    2.75000000
   13.74777794   89.40090179    0.44000000    2.75000000
   13.75194454   89.41729736    0.44000000    2.75000000
   13.75527763   92.50679779    0.44000000    2.75000000
   13.75833321   82.67559814    0.44000000    2.75000000
   13.76166630   85.19200134    0.44000000    2.75000000
   13.76472187   90.33719635    0.44000000    2.75000000
   13.76805496   90.75109863    0.44000000    2.75000000
   13.77138901   89.38860321    0.44000000    2.75000000
   13.77444458   88.47370148    0.44000000    2.75000000
   13.77777767   89.44529724    0.44000000    2.75000000
   13.78111076   80.70459747    0.44000000    2.75000000
   13.78416729   90.04810333    0.44000000    2.75000000
   13.78694534   86.19609833    0.44000000    2.75000000
   13.78777790   92.58110046    0.44000000    2.75000000
   13.79111195   93.99759674    0.44000000    2.75000000
   13.79416752   85.92230225    0.44000000    2.75000000
   13.79888916   85.92230225    0.44000000    2.75000000
   13.80305576   90.65910339    0.44000000    2.75000000
   13.80638885   91.47489929    0.44000000    2.75000000
   13.80944443   90.67539978    0.44000000    2.75000000
   13.81277752   89.74310303    0.44000000    2.75000000
   13.81611156   88.81430054    0.44000000    2.75000000
   13.81916618   93.05639648    0.44000000    2.75000000
   13.82250023   91.35199738    0.44000000    2.75000000
   13.82583332   93.32219696    0.44000000    2.75000000
   13.82888889   90.38649750    0.44000000    2.75000000
   13.83222198   93.80370331    0.44000000    2.75000000
   13.83527756   82.47879791    0.44000000    2.75000000
   13.83694458   86.03040314    0.44000000    2.75000000
   13.83888817   90.88590240    0.44000000    2.75000000
   13.84222221   94.11489868    0.44000000    2.75000000
   13.84555531   92.58399963    0.44000000    2.75000000
   13.85027790   92.58399963    0.44000000    2.75000000
   13.85416698   86.78549957    0.44000000    2.75000000
   13.85750008   89.61399841    0.44000000    2.75000000
   13.86083412   87.88659668    0.44000000    2.75000000
   13.86388969   88.90969849    0.44000000    2.75000000
   13.86722279   83.12879944    0.44000000    2.75000000
   13.87055588   88.85299683    0.44000000    2.75000000
   13.87361145   87.56359863    0.44000000    2.75000000
   13.87694454   85.47280121    0.44000000    2.75000000
   13.88111115   84.91719818    0.44000000    2.75000000
   13.88444424   -1.00000000    0.44000000    2.75000000
   13.88777733   -1.00000000    0.44000000    2.75000000
   13.89111137   -1.00000000    0.44000000    2.75000000
   13.89416695   -1.00000000    0.44000000    2.75000000
   13.89750004   -1.00000000    0.44000000    2.75000000
   13.90611076  105.14499664    0.50000000    2.86999989
   13.90944386   91.72720337    0.51999998    2.86999989
   13.91277695   92.86840057    0.51999998    2.89000010
   13.91583252   97.21980286    0.51999998    2.86999989
   13.91916656   91.92379761    0.50000000    2.89000010
   13.92250061   89.01840210    0.50000000    2.89000010
   13.92555618   97.20439911    0.50000000    2.89000010
   13.92888927   92.29029846    0.47999999    2.89000010
   13.93194485   96.15239716    0.50000000    2.89000010
   13.93527794   92.79019928    0.50000000    2.86999989
   13.93694496   86.56069946    0.52999997    2.86999989
   13.93888855   94.66020203    0.55000001    2.86999989
   13.94222260  101.00599670    0.52999997    2.86999989
   13.94555569   90.88179779    0.55000001    2.86999989
   13.94861126   92.85279846    0.56999999    2.86999989
   13.95277786   92.85279846    0.58999997    2.86999989
   13.95694447   90.36599731    0.63000000    2.89000010
   13.96027756   89.68350220    0.64999998    2.86999989
   13.96333313   84.43599701    0.64999998    2.86999989
   13.96666622   86.16439819    0.70999998    2.89000010
   13.96972179   83.54309845    0.70999998    2.86999989
   13.97305489   89.71469879    0.75000000    2.89000010
   13.97638798   95.40519714    0.86000001    2.86999989
   13.97944355   87.40789795    0.95999998    2.86999989
   13.98277760   89.28279877    0.75000000    2.86999989
   13.98611164   92.21040344    0.69000000    2.86999989
   13.98694515   88.48419952    0.64999998    2.86999989
   13.98972225   88.84519958    0.58999997    2.89000010
   13.99305534   89.98609924    0.51999998    2.89000010
   13.99638939   88.04170227    0.50000000    2.89000010
   13.99944496   89.74490356    0.50000000    2.86999989
   14.00388908   89.74490356    0.50000000    2.89000010
   14.00805569   91.93540192    0.50000000    2.89000010
   14.01138878   96.08480072    0.50000000    2.89000010
   14.01472187   90.86219788    0.50000000    2.89000010
   14.01777744   93.20970154    0.50000000    2.89000010
   14.02111053   88.51619720    0.50000000    2.89000010
   14.02416611   92.14109802    0.51999998    2.86999989
   14.02750015   90.45030212    0.51999998    2.86999989
   14.03083324   88.32839966    0.50000000    2.86999989
   14.03388977   89.64949799    0.52999997    2.89000010
   14.03694534   88.10399628    0.51999998    2.91000009
   14.03750038   93.70429993    0.52999997    2.89000010
   14.04083347   90.32240295    0.51999998    2.89000010
   14.04416752   86.72260284    0.51999998    2.86999989
   14.04722309   92.24310303    0.51999998    2.89000010
   14.05055618   89.92009735    0.51999998    2.89000010
   14.05527782   89.92009735    0.51999998    2.89000010
   14.05944443   86.55979919    0.50000000    2.89000010
   14.06250000   84.98229980    0.51999998    2.89000010
   14.06583309   91.45670319    0.52999997    2.89000010
   14.06888866   84.03340149    0.51999998    2.89000010
   14.07222176   89.72209930    0.51999998    2.89000010
   14.07555580   89.68990326    0.51999998    2.89000010
   14.07861137   86.22899628    0.51999998    2.89000010
   14.08194447   84.51869965    0.51999998    2.89000010
   14.08527756   82.96119690    0.51999998    2.89000010
   14.08694458   83.52359772    0.51999998    2.89000010
   14.08888817   85.66979980    0.51999998    2.89000010
   14.09194374   82.84179688    0.50000000    2.89000010
   14.09527779   89.47329712    0.50000000    2.89000010
   14.09833336   82.84839630    0.47999999    2.89000010
   14.10166740   79.87570190    0.47999999    2.89000010
   14.10638905   79.87570190    0.47999999    2.89000010
   14.11055565   91.57080078    0.47999999    2.89000010
   14.11361122   88.58959961    0.47999999    2.89000010
   14.11694431   88.40440369    0.50000000    2.89000010
   14.12027836   85.63310242    0.50000000    2.91000009
   14.12333393   89.90100098    0.51999998    2.89000010
   14.12666702   89.39189911    0.51999998    2.89000010
   14.13000011   88.36550140    0.51999998    2.89000010
   14.13305569   90.28610229    0.50000000    2.89000010
   14.13638878   90.70249939    0.50000000    2.89000010
   14.13694477   93.23560333    0.50000000    2.89000010
   14.14000034   92.51470184    0.50000000    2.91000009
   14.14305496   93.21199799    0.47999999    2.89000010
   14.14638901   91.56220245    0.47999999    2.89000010
   14.14944458   90.32610321    0.47999999    2.89000010
   14.15277767   91.50650024    0.50000000    2.89000010
   14.15749931   91.50650024    0.50000000    2.89000010
   14.16166592   88.89550018    0.52999997    2.89000010
   14.16499996   93.57689667    0.51999998    2.89000010
   14.16805553   91.83039856    0.51999998    2.89000010
   14.17138958   91.76360321    0.52999997    2.89000010
   14.17472267   92.03910065    0.51999998    2.89000010
   14.17777824   93.55609894    0.51999998    2.89000010
   14.18111134   89.29689789    0.51999998    2.89000010
   14.18416691   89.71499634    0.51999998    2.89000010
   14.18694496   88.48650360    0.51999998    2.89000010
   14.18805599   92.26850128    0.51999998    2.89000010
   14.19111156   89.31199646    0.51999998    2.89000010
   14.19444466   95.25460052    0.55000001    2.89000010
   14.19750023   90.13220215    0.55000001    2.89000010
   14.20083332   90.75869751    0.55000001    2.89000010
   14.20416641   87.78369904    0.56999999    2.91000009
   14.20861053   87.78369904    0.55000001    2.89000010
   14.21277714   93.03330231    0.56999999    2.91000009
   14.21611118   97.04889679    0.56999999    2.89000010
   14.21944427   92.12429810    0.58999997    2.89000010
   14.22249985   87.12699890    0.58999997    2.89000010
   14.22583294   83.32540131    0.58999997    2.89000010
   14.22916603   87.92040253    0.61000001    2.89000010
   14.23222160   97.29139709    0.61000001    2.89000010
   14.23555565   91.18910217    0.61000001    2.89000010
   14.23722267   89.36319733    0.61000001    2.89000010
   14.23916721   90.72489929    0.61000001    2.89000010
   14.24222279   93.62680054    0.58999997    2.89000010
   14.24555588   88.51329803    0.58999997    2.91000009
   14.24861145   84.80670166    0.55000001    2.89000010
   14.25194454   86.94799805    0.55000001    2.89000010
   14.25527763   90.62560272    0.56999999    2.89000010
   14.26000023   90.62560272    0.61000001    2.89000010
   14.26416683   86.46949768    0.64999998    2.89000010
   14.26722240   85.89459991    0.64999998    2.89000010
   14.27055550   90.38379669    0.64999998    2.89000010
   14.27388859   91.54869843    0.67000002    2.89000010
   14.27694416   89.84619904    0.67000002    2.91000009
   14.28027725   89.60449982    0.67000002    2.89000010
   14.28333378   85.84590149    0.67000002    2.89000010
   14.28666687   93.76229858    0.67000002    2.89000010
   14.28722286   88.33329773    0.67000002    2.91000009
   14.29027843   87.62999725    0.67000002    2.89000010
   14.29333401   87.58309937    0.64999998    2.89000010
   14.29666710   94.12950134    0.61000001    2.89000010
   14.30000019   92.91030121    0.56999999    2.89000010
   14.30305576   86.74079895    0.52999997    2.91000009
   14.30638885   90.57180023    0.52999997    2.91000009
   14.31111145   90.57180023    0.52999997    2.91000009
   14.31527805   88.56220245    0.50000000    2.91000009
   14.31833363   95.13719940    0.50000000    2.91000009
   14.32166672   90.63539886    0.52999997    2.91000009
   14.32499981   85.88870239    0.55000001    2.91000009
   14.32805538   82.64929962    0.55000001    2.89000010
   14.33138847   91.96240234    0.58999997    2.89000010
   14.33472157   90.69309998    0.61000001    2.91000009
   14.33722210   87.75990295    0.63000000    2.91000009
   14.33833313   87.04630280    0.63000000    2.91000009
   14.34138870   88.78199768    0.64999998    2.91000009
   14.34472179   83.67469788    0.64999998    2.89000010
   14.34777737   87.33950043    0.61000001    2.89000010
   14.35111141   88.80660248    0.63000000    2.91000009
   14.35444450   92.14969635    0.61000001    2.89000010
   14.35750008   87.88289642    0.61000001    2.89000010
   14.36222267   87.88289642    0.63000000    2.91000009
   14.36638927   91.33119965    0.61000001    2.89000010
   14.36944485   85.28500366    0.63000000    2.89000010
   14.37277794   85.80840302    0.61000001    2.89000010
   14.37611103   83.92659760    0.61000001    2.91000009
   14.37916660   90.21970367    0.61000001    2.91000009
   14.38249969   85.44889832    0.63000000    2.91000009
   14.40222168   83.41059875    0.64999998    2.89000010
   14.40277767   86.68070221    0.64999998    2.89000010
   14.40583324   82.98840332    0.64999998    2.91000009
   14.40916634   87.34680176    0.64999998    2.91000009
   14.41361046   87.34680176    0.61000001    2.91000009
   14.41777802   81.29039764    0.58999997    2.91000009
   14.42083359   87.45929718    0.58999997    2.91000009
   14.42416668   92.47409821    0.56999999    2.91000009
   14.42722225   85.16390228    0.56999999    2.91000009
   14.43055630   91.65350342    0.58999997    2.91000009
   14.43388939   93.95729828    0.61000001    2.91000009
   14.43694496   91.21769714    0.63000000    2.91000009
   14.44027805   89.41419983    0.63000000    2.91000009
   14.44361115   86.32599640    0.63000000    2.91000009
   14.44666672   82.05549622    0.64999998    2.91000009
   14.44999981   87.38390350    0.64999998    2.91000009
   14.45277786   89.30280304    0.64999998    2.91000009
   14.45361137   84.73139954    0.64999998    2.91000009
   14.45694447   87.12149811    0.63000000    2.91000009
   14.46000004   85.80130005    0.63000000    2.89000010
   14.46472168   85.80130005    0.61000001    2.91000009
   14.46888828   79.85610199    0.61000001    2.89000010
   14.47194386   80.70339966    0.61000001    2.91000009
   14.47527695   83.97460175    0.61000001    2.91000009
   14.47861099   84.90329742    0.61000001    2.91000009
   14.48166656   84.54049683    0.61000001    2.91000009
   14.48500061   81.67600250    0.61000001    2.91000009
   14.48833370   85.44879913    0.61000001    2.91000009
   14.49138927   87.62640381    0.56999999    2.91000009
   14.49472237   86.51959991    0.56999999    2.89000010
   14.49805546   86.64430237    0.61000001    2.91000009
   14.50111103   82.61329651    0.61000001    2.91000009
   14.50277805   97.96530151    0.58999997    2.91000009
   14.50472260   85.73529816    0.58999997    2.91000009
   14.50805569   89.53359985    0.58999997    2.89000010
   14.51138878   84.71939850    0.58999997    2.89000010
   14.51583290   84.71939850    0.58999997    2.91000009
   14.51999950   90.48519897    0.63000000    2.91000009
   14.52333355   93.77100372    0.63000000    2.91000009
   14.52638817   88.89040375    0.64999998    2.89000010
   14.52972221   85.31520081    0.67000002    2.89000010
   14.53305531   95.72409821    0.70999998    2.91000009
   14.53611183   92.33380127    0.69000000    2.91000009
   14.53944492   91.02189636    0.73000002    2.89000010
   14.54250050   89.75910187    0.73000002    2.91000009
   14.54583359   87.51660156    0.73000002    2.89000010
   14.54916668   86.43650055    0.73000002    2.91000009
   14.55222225   84.26090240    0.70999998    2.91000009
   14.55277824   89.44139862    0.70999998    2.91000009
   14.55611134   83.91369629    0.70999998    2.91000009
   14.55944443   84.46150208    0.70999998    2.91000009
   14.56250000   88.34590149    0.70999998    2.91000009
   14.56694412   88.34590149    0.70999998    2.91000009
   14.57111073   89.88359833    0.73000002    2.89000010
   14.57444477   89.48699951    0.70999998    2.91000009
   14.57777786   96.57579803    0.70999998    2.89000010
   14.58083344   82.77739716    0.69000000    2.91000009
   14.58416653   95.64440155    0.70999998    2.91000009
   14.58749962   91.84210205    0.69000000    2.91000009
   14.59083271   90.85679626    0.64999998    2.91000009
   14.59388828   94.33689880    0.64999998    2.91000009
   14.59722233   86.80940247    0.64999998    2.91000009
   14.60055637   84.84929657    0.64999998    2.91000009
   14.60277843   90.96869659    0.64999998    2.91000009
   14.60416698   87.56670380    0.64999998    2.91000009
   14.60750008   89.95850372    0.63000000    2.91000009
   14.61055565   89.69120026    0.63000000    2.91000009
   14.61388969   94.17960358    0.58999997    2.91000009
   14.61833382   94.17960358    0.56999999    2.91000009
   14.62250042   91.23950195    0.56999999    2.91000009
   14.62555599   95.90399933    0.56999999    2.91000009
   14.62888908   91.21949768    0.56999999    2.91000009
   14.63194466   88.32019806    0.56999999    2.91000009
   14.63527775   90.35970306    0.56999999    2.91000009
   14.63861084   95.65660095    0.55000001    2.91000009
   14.64166641   92.02459717    0.55000001    2.91000009
   14.64499950   98.32520294    0.55000001    2.91000009
   14.64833355   87.70960236    0.55000001    2.91000009
   14.65138817   92.13690186    0.55000001    2.91000009
   14.65305519   83.01599884    0.55000001    2.91000009
   14.65499973   94.72859955    0.55000001    2.91000009
   14.65833282   87.99800110    0.55000001    2.91000009
   14.66166592   83.61509705    0.55000001    2.91000009
   14.66472149   91.10739899    0.56999999    2.91000009
   14.66944504   91.10739899    0.56999999    2.91000009
   14.67361164   88.26419830    0.55000001    2.91000009
   14.67666721   87.56900024    0.55000001    2.91000009
   14.68000031   90.86229706    0.52999997    2.91000009
   14.68333340   91.36550140    0.52999997    2.91000009
   14.68666649   93.95529938    0.50000000    2.91000009
   14.69000053   93.41410065    0.50000000    2.91000009
   14.69305515   89.08630371    0.51999998    2.91000009
   14.69638920   91.54750061    0.51999998    2.91000009
   14.69944477   93.23899841    0.51999998    2.91000009
   14.70277786   90.49559784    0.51999998    2.91000009
   14.70333290   89.45120239    0.51999998    2.91000009
   14.70666695   90.26679993    0.52999997    2.91000009
   14.70972157   94.27760315    0.51999998    2.91000009
   14.71305561   92.26020050    0.51999998    2.91000009
   14.71638870   98.13480377    0.51999998    2.91000009
   14.72055531   98.13480377    0.51999998    2.91000009
   14.72472191   94.71970367    0.51999998    2.93000007
   14.72805500   88.64969635    0.51999998    2.91000009
   14.73111057   87.27860260    0.51999998    2.91000009
   14.73444462   89.74479675    0.51999998    2.91000009
   14.73777771   84.15589905    0.51999998    2.91000009
   14.74083328   87.72109985    0.51999998    2.91000009
   14.74416733   85.80460358    0.51999998    2.91000009
   14.74750042   86.30059814    0.51999998    2.91000009
   14.75055599   86.14029694    0.51999998    2.91000009
   14.75361156   85.03060150    0.51999998    2.93000007
   14.75416660   92.45210266    0.52999997    2.91000009
   14.75749969   94.65950012    0.52999997    2.91000009
   14.76083374   99.34459686    0.52999997    2.93000007
   14.76388931   86.05269623    0.52999997    2.91000009
   14.76722240   85.24220276    0.52999997    2.91000009
   14.77194405   85.24220276    0.52999997    2.93000007
   14.77583313   82.15630341    0.55000001    2.93000007
   14.77916622   82.35089874    0.52999997    2.91000009
   14.78249931   81.03459930    0.55000001    2.91000009
   14.78555584   85.56359863    0.55000001    2.91000009
   14.78888893   81.56919861    0.55000001    2.91000009
   14.79222298   80.95890045    0.55000001    2.91000009
   14.79527855   82.39920044    0.55000001    2.91000009
   14.79861164   78.29309845    0.55000001    2.91000009
   14.80166721   86.08450317    0.56999999    2.93000007
   14.80361176   89.15660095    0.56999999    2.93000007
   14.80527782   82.82900238    0.56999999    2.91000009
   14.80861092   81.29399872    0.56999999    2.91000009
   14.81194496   83.73300171    0.56999999    2.91000009
   14.81500053   78.93620300    0.58999997    2.91000009
   14.81833363   86.07910156    0.58999997    2.93000007
   14.82305527   86.07910156    0.58999997    2.91000009
   14.82722187   80.27390289    0.61000001    2.91000009
   14.83027744   82.21179962    0.61000001    2.93000007
   14.83361053   78.82980347    0.58999997    2.91000009
   14.83666611   81.94450378    0.58999997    2.93000007
   14.84000015   81.39800262    0.58999997    2.91000009
   14.84333324   92.80919647    0.58999997    2.91000009
   14.84638882   85.01339722    0.56999999    2.91000009
   14.84972191   84.10420227    0.56999999    2.91000009
   14.85305595   83.16439819    0.58999997    2.91000009
   14.85361195   88.94869995    0.58999997    2.91000009
   14.85638905   89.32900238    0.61000001    2.91000009
   14.85972214   90.01470184    0.61000001    2.91000009
   14.86305618   87.87989807    0.58999997    2.93000007
   14.86611176   89.50769806    0.61000001    2.91000009
   14.86944485   87.46900177    0.61000001    2.91000009
   14.87416649   87.46900177    0.61000001    2.91000009
   14.87833309   85.90540314    0.63000000    2.91000009
   14.88138866   82.55239868    0.61000001    2.91000009
   14.88472176   86.31759644    0.63000000    2.91000009
   14.88805580   88.05079651    0.61000001    2.91000009
   14.89111137   87.51309967    0.63000000    2.91000009
   14.89444447   87.54080200    0.63000000    2.91000009
   14.89777756   82.73919678    0.64999998    2.91000009
   14.90083313   81.81030273    0.67000002    2.91000009
   14.90361118   85.27439880    0.67000002    2.91000009
   14.90444374   85.64610291    0.64999998    2.93000007
   14.90777779   85.28659821    0.67000002    2.93000007
   14.91111088   87.81539917    0.64999998    2.91000009
   14.91416645   80.35700226    0.64999998    2.91000009
   14.91750050   88.57260132    0.64999998    2.91000009
   14.92083359   85.61489868    0.64999998    2.91000009
   14.92527771   85.61489868    0.64999998    2.91000009
   14.92944431   91.62010193    0.69000000    2.93000007
   14.93277836   92.98650360    0.70999998    2.91000009
   14.93583298   87.92169952    0.73000002    2.91000009
   14.93916702   87.16149902    0.75000000    2.91000009
   14.94250011   84.11769867    0.76999998    2.91000009
   14.94555569   89.04540253    0.76999998    2.91000009
   14.94888878   85.83070374    0.79000002    2.91000009
   14.95194435   81.41310120    0.79000002    2.91000009
   14.95388889   83.17340088    0.76999998    2.91000009
   14.95555496   94.75520325    0.76999998    2.91000009
   14.95888901   80.74179840    0.76999998    2.91000009
   14.96222210   91.54889679    0.76999998    2.91000009
   14.96527767   76.47619629    0.76999998    2.91000009
   14.96861076   86.82689667    0.75000000    2.93000007
   14.97166634   78.77179718    0.76999998    2.91000009
   14.97638798   78.77179718    0.75000000    2.91000009
   14.98055553   83.44049835    0.75000000    2.91000009
   14.98388958   82.65039825    0.76999998    2.91000009
   14.98722267   80.95770264    0.79000002    2.91000009
   14.99027824   88.94020081    0.76999998    2.91000009
   14.99361134   81.55159760    0.76999998    2.91000009
   14.99694443   87.81719971    0.79000002    2.91000009
   15.00000000   85.84339905    0.79000002    2.91000009
   15.00333309   91.21130371    0.76999998    2.91000009
   15.00388908   84.18779755    0.76999998    2.91000009
   15.00666714   85.12950134    0.79000002    2.91000009
   15.01000023   87.09559631    0.76999998    2.91000009
   15.01333332   87.09040070    0.75000000    2.91000009
   15.01638889   89.22350311    0.75000000    2.91000009
   15.01972198   85.00720215    0.75000000    2.93000007
   15.02305508   85.76820374    0.76999998    2.91000009
   15.02777767   85.76820374    0.76999998    2.89000010
   15.03194427   86.76809692    0.76999998    2.93000007
   15.03500080   83.61100006    0.76999998    2.91000009
   15.03833389   92.16120148    0.73000002    2.91000009
   15.04138947   83.25569916    0.75000000    2.91000009
   15.04472256   81.58100128    0.75000000    2.93000007
   15.04805565   89.64299774    0.75000000    2.91000009
   15.05111122   89.48449707    0.73000002    2.91000009
   15.05388927   90.63539886    0.73000002    2.91000009
   15.05472279   84.13680267    0.73000002    2.93000007
   15.05805588   81.51450348    0.70999998    2.91000009
   15.06138897   93.08670044    0.70999998    2.91000009
   15.06444454   91.59279633    0.70999998    2.91000009
   15.06777763   83.92569733    0.70999998    2.91000009
   15.07111073   84.40319824    0.70999998    2.91000009
   15.07416630   84.40119934    0.73000002    2.91000009
   15.07888889   84.40119934    0.70999998    2.91000009
   15.08305550   83.70639801    0.73000002    2.93000007
   15.08611107   86.94159698    0.73000002    2.91000009
   15.08944416   80.45330048    0.75000000    2.91000009
   15.09277725   84.81849670    0.75000000    2.91000009
   15.09583282   89.28099823    0.75000000    2.91000009
   15.09916592   82.28919983    0.75000000    2.91000009
   15.10249996   86.26280212    0.80000001    2.91000009
   15.10388947   90.26339722    0.81999999    2.91000009
   15.10611153   90.74530029    0.81999999    2.91000009
   15.10916710   87.44110107    0.80000001    2.91000009
   15.11250019   83.73880005    0.79000002    2.93000007
   15.11583328   86.51480103    0.76999998    2.93000007
   15.11888885   85.09860229    0.76999998    2.93000007
   15.12222195   89.49130249    0.75000000    2.91000009
   15.12527752   88.99900055    0.75000000    2.94000006
   15.13000011   88.99900055    0.70999998    2.93000007
   15.13416672   86.47470093    0.70999998    2.91000009
   15.13749981   86.46600342    0.69000000    2.91000009
   15.14055538   85.46070099    0.69000000    2.91000009
   15.14388847   85.05680084    0.69000000    2.91000009
   15.14722252   79.14800262    0.69000000    2.91000009
   15.15027714   88.49269867    0.61000001    2.93000007
   15.15361118   83.22859955    0.58999997    2.91000009
   15.15416622   83.90180206    0.58999997    2.91000009
   15.15749931   78.28050232    0.58999997    2.91000009
   15.16055489   86.37380219    0.58999997    2.91000009
   15.16388893   83.27519989    0.61000001    2.93000007
   15.16722298   90.89830017    0.61000001    2.91000009
   15.17027855   81.55699921    0.58999997    2.91000009
   15.17361164   82.65489960    0.58999997    2.93000007
   15.17666721   82.19429779    0.61000001    2.91000009
   15.18111134   82.19429779    0.63000000    2.91000009
   15.18527794   82.58110046    0.63000000    2.91000009
   15.18861103   88.30490112    0.63000000    2.93000007
   15.19166660   87.02510071    0.63000000    2.93000007
   15.19499969   93.24510193    0.58999997    2.91000009
   15.19833374   91.23739624    0.58999997    2.93000007
   15.20138836   92.07869720    0.58999997    2.91000009
   15.20416641   86.18049622    0.55000001    2.91000009
   15.20527744   91.89820099    0.55000001    2.91000009
   15.20833302   85.87760162    0.52999997    2.93000007
   15.21166611   83.29930115    0.55000001    2.93000007
   15.21500015   82.77539825    0.56999999    2.93000007
   15.21805477   81.43910217    0.55000001    2.93000007
   15.22138882   78.30130005    0.55000001    2.93000007
   15.22444439   81.91339874    0.56999999    2.93000007
   15.22777748   79.34690094    0.58999997    2.93000007
   15.23249912   79.34690094    0.61000001    2.93000007
   15.23666668   79.28140259    0.63000000    2.93000007
   15.24000072   84.73909760    0.67000002    2.93000007
   15.24305534   82.28340149    0.69000000    2.93000007
   15.24638939   79.94619751    0.73000002    2.93000007
   15.24972248   79.10900116    0.73000002    2.91000009
   15.25277805   85.95230103    0.76999998    2.93000007
   15.25416660   82.17389679    0.76999998    2.93000007
   15.25666714   74.08380127    0.76999998    2.93000007
   15.25972176   79.50509644    0.76999998    2.91000009
   15.26305580   80.37830353    0.81999999    2.93000007
   15.26638889   78.12650299    0.83999997    2.93000007
   15.26944447   84.70290375    0.81999999    2.91000009
   15.27277756   87.83080292    0.81999999    2.93000007
   15.27583313   87.20790100    0.83999997    2.91000009
   15.27916622   80.30419922    0.80000001    2.93000007
   15.28361130   80.30419922    0.83999997    2.93000007
   15.28777790   78.17109680    0.81999999    2.93000007
   15.29083347   83.69010162    0.81999999    2.91000009
   15.29416752   81.44550323    0.83999997    2.91000009
   15.29750061   82.59480286    0.81999999    2.93000007
   15.30055618   80.49939728    0.83999997    2.91000009
   15.30388927   80.65650177    0.83999997    2.91000009
   15.30444431   81.92189789    0.81999999    2.91000009
   15.30749989   83.25489807    0.80000001    2.93000007
   15.31083393   84.51419830    0.80000001    2.91000009
   15.31416702   85.89569855    0.80000001    2.91000009
   15.31722260   84.93569946    0.80000001    2.91000009
   15.32055569   76.67780304    0.80000001    2.93000007
   15.32388878   84.34230042    0.80000001    2.91000009
   15.32694435   82.50810242    0.80000001    2.91000009
   15.33027744   83.94080353    0.80000001    2.91000009
   15.33472157   83.94080353    0.80000001    2.93000007
   15.33888817   80.03759766    0.81999999    2.93000007
   15.34222221   80.75779724    0.81999999    2.93000007
   15.34527779   80.53890228    0.80000001    2.91000009
   15.34861088   76.78179932    0.80000001    2.93000007
   15.35194492   77.20690155    0.80000001    2.93000007
   15.35444450   84.67079926    0.80000001    2.93000007
   15.35527802   79.14790344    0.81999999    2.93000007
   15.35861111   83.16100311    0.81999999    2.93000007
   15.36194515   78.12660217    0.83999997    2.91000009
   15.36500072   79.76439667    0.81999999    2.91000009
   15.36833382   84.29409790    0.81999999    2.93000007
   15.37166691   81.45369720    0.81999999    2.91000009
   15.37472248   83.28679657    0.81999999    2.91000009
   15.37805557   77.61360168    0.83999997    2.93000007
   15.38111115   83.60739899    0.86000001    2.91000009
   15.38583279   83.60739899    0.86000001    2.93000007
   15.39000034   83.16280365    0.86000001    2.93000007
   15.39333344   77.05020142    0.86000001    2.91000009
   15.39666653   90.80729675    0.86000001    2.91000009
   15.39972210   73.29900360    0.86000001    2.93000007
   15.41944504   84.16549683    0.83999997    2.93000007
   15.42000008   82.77799988    0.83999997    2.93000007
   15.42333412   81.70269775    0.83999997    2.93000007
   15.42638874   81.21890259    0.83999997    2.93000007
   15.42972279   76.25340271    0.83999997    2.93000007
   15.43277836   82.96579742    0.81999999    2.93000007
   15.43722248   82.96579742    0.83999997    2.93000007
   15.44111156   81.67870331    0.83999997    2.93000007
   15.44444466   81.01249695    0.83999997    2.91000009
   15.44777775   82.44699860    0.86000001    2.93000007
   15.45083332   76.88939667    0.86000001    2.91000009
   15.45416641   78.17019653    0.83999997    2.91000009
   15.45749950   87.13600159    0.81999999    2.93000007
   15.46055508   82.89720154    0.80000001    2.93000007
   15.46388912   75.54119873    0.80000001    2.93000007
   15.46722221   76.17400360    0.80000001    2.93000007
   15.46999931   78.29810333    0.80000001    2.93000007
   15.47083282   79.21440125    0.80000001    2.93000007
   15.47388840   77.69159698    0.80000001    2.91000009
   15.47722149   85.17350006    0.79000002    2.93000007
   15.48055553   74.12789917    0.79000002    2.93000007
   15.48361111   79.12310028    0.79000002    2.93000007
   15.48833370   79.12310028    0.80000001    2.93000007
   15.49250031   73.13469696    0.81999999    2.93000007
   15.49555588   78.68360138    0.80000001    2.93000007
   15.49888897   74.52719879    0.80000001    2.93000007
   15.50222206   85.05329895    0.80000001    2.93000007
   15.50527763   82.90689850    0.81999999    2.91000009
   15.50861073   75.82489777    0.81999999    2.93000007
   15.51166630   79.51010132    0.81999999    2.93000007
   15.51500034   72.34349823    0.83999997    2.93000007
   15.51833344   76.83339691    0.81999999    2.93000007
   15.51999950   75.36299896    0.81999999    2.93000007
   15.52194405   85.09169769    0.80000001    2.94000006
   15.52499962   81.00769806    0.80000001    2.94000006
   15.52833271   86.49530029    0.79000002    2.93000007
   15.53166676   75.80629730    0.79000002    2.93000007
   15.53472233   81.01640320    0.76999998    2.93000007
   15.53944492   81.01640320    0.76999998    2.93000007
   15.54361153   81.00589752    0.80000001    2.93000007
   15.54694462   78.03450012    0.81999999    2.93000007
   15.55000019   73.59490204    0.81999999    2.91000009
   15.55333328   76.96669769    0.83999997    2.93000007
   15.55666733   74.87779999    0.86000001    2.91000009
   15.55972195   74.79789734    0.88000000    2.91000009
   15.56305599   74.39620209    0.83999997    2.93000007
   15.56638908   76.56849670    0.81999999    2.94000006
   15.56944466   77.08499908    0.81999999    2.93000007
   15.56999969   71.39260101    0.81999999    2.93000007
   15.57305527   77.55010223    0.81999999    2.93000007
   15.57611084   77.02580261    0.80000001    2.93000007
   15.57944393   76.71330261    0.80000001    2.91000009
   15.58277798   75.62889862    0.80000001    2.91000009
   15.58583260   74.05169678    0.80000001    2.93000007
   15.59055519   74.05169678    0.79000002    2.93000007
   15.59472179   76.01730347    0.76999998    2.93000007
   15.59805489   82.39710236    0.76999998    2.93000007
   15.60138893   82.18859863    0.76999998    2.93000007
   15.60444450   77.38269806    0.76999998    2.93000007
   15.60777855   80.71810150    0.79000002    2.93000007
   15.61111164   77.32800293    0.79000002    2.93000007
   15.61416721   76.15350342    0.79000002    2.93000007
   15.61750031   79.71219635    0.80000001    2.93000007
   15.61999989   81.63710022    0.79000002    2.91000009
   15.62111092   82.58380127    0.79000002    2.93000007
   15.62416649   80.17610168    0.79000002    2.93000007
   15.62750053   80.12969971    0.79000002    2.93000007
   15.63083363   75.55670166    0.79000002    2.94000006
   15.63388920   75.38829803    0.79000002    2.93000007
   15.63722229   76.61869812    0.79000002    2.94000006
   15.64194393   76.61869812    0.79000002    2.93000007
   15.64583302   77.96659851    0.79000002    2.93000007
   15.64916611   78.38990021    0.79000002    2.93000007
   15.65249920   73.85050201    0.79000002    2.93000007
   15.65555477   77.85289764    0.79000002    2.93000007
   15.65888882   74.20870209    0.79000002    2.93000007
   15.66222191   75.27809906    0.79000002    2.93000007
   15.66527748   78.62719727    0.79000002    2.93000007
   15.66861153   77.75540161    0.79000002    2.93000007
   15.67027855   80.50949860    0.79000002    2.93000007
   15.67250061   73.58550262    0.80000001    2.93000007
   15.67555618   76.87149811    0.79000002    2.93000007
   15.67888927   74.76709747    0.79000002    2.93000007
   15.68222237   75.19819641    0.76999998    2.93000007
   15.68527794   74.27420044    0.76999998    2.93000007
   15.68861103   76.30829620    0.76999998    2.93000007
   15.69305515   76.30829620    0.79000002    2.93000007
   15.69722271   77.59559631    0.79000002    2.93000007
   15.70027733   76.35160065    0.79000002    2.93000007
   15.70361137   81.00959778    0.79000002    2.93000007
   15.70694447   74.15029907    0.79000002    2.93000007
   15.71000004   82.04060364    0.80000001    2.93000007
   15.71333313   84.89540100    0.80000001    2.93000007
   15.71638870   79.70369720    0.79000002    2.93000007
   15.71972179   77.64489746    0.76999998    2.93000007
   15.72027779   75.95040131    0.76999998    2.93000007
   15.72333336   78.68119812    0.79000002    2.93000007
   15.72666645   80.87629700    0.76999998    2.93000007
   15.72972202   82.09549713    0.76999998    2.93000007
   15.73305511   84.50180054    0.76999998    2.93000007
   15.73611164   75.05770111    0.79000002    2.93000007
   15.73944473   80.48059845    0.76999998    2.93000007
   15.74416733   80.48059845    0.76999998    2.93000007
   15.74833393   74.93650055    0.79000002    2.94000006
   15.75166702   79.53970337    0.80000001    2.93000007
   15.75472260   75.37359619    0.81999999    2.91000009
   15.75805569   78.02420044    0.86000001    2.93000007
   15.76138878   73.75370026    0.86000001    2.93000007
   15.76444435   78.82029724    0.86000001    2.94000006
   15.76777744   79.06529999    0.86000001    2.94000006
   15.77027798   78.67530060    0.86000001    2.93000007
   15.77138901   78.42880249    0.86000001    2.93000007
   15.77444458   76.26399994    0.86000001    2.94000006
   15.77777767   78.38310242    0.88000000    2.93000007
   15.78111076   75.55889893    0.88000000    2.94000006
   15.78416729   76.51540375    0.89999998    2.93000007
   15.78750038   75.16269684    0.92000002    2.93000007
   15.79083347   80.01139832    0.89999998    2.93000007
   15.79527855   80.01139832    0.92000002    2.93000007
   15.79944515   80.47699738    0.92000002    2.93000007
   15.80277824   73.58180237    0.92000002    2.93000007
   15.80611134   75.46060181    0.92000002    2.93000007
   15.80916691   77.67130280    0.94000000    2.93000007
   15.81250000   76.45510101    0.94000000    2.93000007
   15.81583309   79.46119690    0.94000000    2.93000007
   15.81916618   79.19840240    0.95999998    2.93000007
   15.82027817   75.53040314    0.98000002    2.93000007
   15.82277775   78.17990112    0.98000002    2.93000007
   15.82583332   75.98000336    1.01999998    2.93000007
   15.82916641   75.73480225    1.01999998    2.93000007
   15.83249950   77.92929840    1.11000001    2.93000007
   15.83555508   72.03639984    1.13000000    2.93000007
   15.83888817   73.69809723    1.13000000    2.91000009
   15.84222221   76.52459717    1.13000000    2.91000009
   15.84638882   76.52459717    1.14999998    2.93000007
   15.85055637   75.60590363    1.14999998    2.93000007
   15.85388947   81.95410156    1.16999996    2.91000009
   15.85722256   79.98000336    1.16999996    2.93000007
   15.86027813   74.68979645    1.16999996    2.91000009
   15.86361122   74.35420227    1.14999998    2.91000009
   15.86694431   77.34380341    1.14999998    2.93000007
   15.86999989   80.88459778    1.14999998    2.93000007
   15.87055588   82.32240295    1.14999998    2.91000009
   15.87388897   74.18489838    1.13000000    2.93000007
   15.87722206   73.40989685    1.13000000    2.93000007
   15.88027763   75.19309998    1.13000000    2.93000007
   15.88361073   80.18659973    1.13000000    2.93000007
   15.88694477   74.07849884    1.13000000    2.93000007
   15.89000034   75.08000183    1.16999996    2.91000009
   16.00972176   -1.00000000   -1.00000000   -1.00000000
   16.12416649   -1.00000000   -1.00000000   -1.00000000
   16.22361183   -1.00000000   -1.00000000   -1.00000000
   16.25944519   69.80049896    1.25000000    2.91000009
   16.26250076   90.04160309    1.25000000    2.89000010
   16.26583290   92.25109863    1.21000004    2.94000006
   16.26916695   89.95839691    1.21000004    2.94000006
   16.27249908   90.54930115    1.21000004    2.91000009
   16.27555466   85.19640350    1.21000004    2.93000007
   16.27888870   91.04350281    1.23000002    2.91000009
   16.28194427   85.69229889    1.25000000    2.93000007
   16.28805542   85.69229889    1.25000000    2.91000009
   16.29222107   90.73069763    1.21000004    2.93000007
   16.29527664   82.30609894    1.21000004    2.91000009
   16.29861069   87.27059937    1.19000006    2.93000007
   16.30166626   78.42079926    1.19000006    2.91000009
   16.30499840   74.20529938    1.16999996    2.91000009
   16.30833244   79.16349792    1.19000006    2.89000010
   16.30944443   82.84149933    1.19000006    2.91000009
   16.31194305   82.11799622    1.16999996    2.91000009
   16.31527710   80.89559937    1.16999996    2.91000009
   16.31833458   83.45729828    1.16999996    2.91000009
   16.32166672   80.90049744    1.11000001    2.91000009
   16.32472229   80.16390228    1.09000003    2.91000009
   16.32805634   81.81900024    1.07000005    2.93000007
   16.33139038   78.09369659    1.07000005    2.93000007
   16.33444595   82.75399780    1.07000005    2.93000007
   16.33916664   82.75399780    1.07000005    2.93000007
   16.34333420   80.64350128    1.09000003    2.93000007
   16.34666824   88.33309937    1.11000001    2.93000007
   16.34972191   79.85479736    1.14999998    2.91000009
   16.35305595   82.49530029    1.14999998    2.91000009
   16.35639000   78.93450165    1.21000004    2.91000009
   16.35944557   82.23670197    1.25000000    2.91000009
   16.35972214   82.97579956    1.25000000    2.91000009
   16.36305618   84.60690308    1.28999996    2.93000007
   16.36638832   83.20269775    1.28999996    2.93000007
   16.36944389   79.18270111    1.28999996    2.93000007
   16.37277794   81.61519623    1.34000003    2.93000007
   16.37611198   80.42659760    1.34000003    2.91000009
   16.37916756   83.52729797    1.34000003    2.93000007
   16.38249969   86.80200195    1.34000003    2.91000009
   16.38555527   77.40319824    1.36000001    2.91000009
   16.39027786   77.40319824    1.36000001    2.91000009
   16.39444351   80.32399750    1.39999998    2.91000009
   16.39777756   85.17410278    1.39999998    2.91000009
   16.40083313   85.56829834    1.39999998    2.91000009
   16.40416718   82.27290344    1.41999996    2.91000009
   16.40749931   84.85369873    1.39999998    2.91000009
   16.40944481   78.92859650    1.38000000    2.91000009
   16.41083336   78.14769745    1.36000001    2.91000009
   16.41416550   79.15039825    1.36000001    2.91000009
   16.41749954   86.37100220    1.36000001    2.91000009
   16.42055511   80.31030273    1.34000003    2.91000009
   16.42388916   82.67890167    1.36000001    2.91000009
   16.42722130   82.37100220    1.34000003    2.91000009
   16.43027687   79.05829620    1.34000003    2.91000009
   16.43361092   82.98789978    1.33000004    2.91000009
   16.43694305   81.89710236    1.33000004    2.91000009
   16.44138718   81.89710236    1.28999996    2.91000009
   16.44555473   82.87039948    1.28999996    2.91000009
   16.44888878   81.90280151    1.34000003    2.93000007
   16.45222282   80.21620178    1.34000003    2.91000009
   16.45527840   85.69750214    1.33000004    2.93000007
   16.45861244   80.14070129    1.33000004    2.91000009
   16.45944595   76.17279816    1.33000004    2.93000007
   16.46194458   77.57270050    1.34000003    2.93000007
   16.46527863   80.30529785    1.36000001    2.91000009
   16.46861076   76.68789673    1.38000000    2.91000009
   16.47166634   79.82009888    1.38000000    2.91000009
   16.47500038   80.20939636    1.38000000    2.91000009
   16.47833443   73.13410187    1.36000001    2.91000009
   16.48139000   73.82550049    1.34000003    2.93000007
   16.48472214   78.32689667    1.34000003    2.91000009
   16.48777771   78.82469940    1.34000003    2.93000007
   16.49277878   78.82469940    1.34000003    2.93000007
   16.49694443   79.32520294    1.34000003    2.91000009
   16.50000000   77.36499786    1.34000003    2.91000009
   16.50333405   76.68009949    1.36000001    2.91000009
   16.50638962   78.26460266    1.38000000    2.91000009
   16.50944519   74.37590027    1.39999998    2.93000007
   16.51000023   77.71160126    1.39999998    2.93000007
   16.51333427   77.12660217    1.41999996    2.91000009
   16.51666641   81.49050140    1.44000006    2.91000009
   16.52000046   76.72650146    1.44000006    2.91000009
   16.52305603   78.47229767    1.44000006    2.91000009
   16.52638817   78.63179779    1.44000006    2.91000009
   16.52944374   75.35350037    1.41999996    2.91000009
   16.53277779   77.04489899    1.39999998    2.93000007
   16.53610992   73.63089752    1.36000001    2.91000009
   16.53916550   76.47010040    1.36000001    2.91000009
   16.54388809   76.47010040    1.33000004    2.93000007
   16.54805565   75.49030304    1.28999996    2.93000007
   16.55111122   75.78079987    1.26999998    2.91000009
   16.55444336   79.41139984    1.26999998    2.93000007
   16.55777740   79.38189697    1.26999998    2.93000007
   16.55944443   77.16729736    1.28999996    2.91000009
   16.56138802   79.24099731    1.26999998    2.93000007
   16.56444359   77.41470337    1.26999998    2.93000007
   16.56777954   73.04399872    1.28999996    2.93000007
   16.57111168   79.67729950    1.28999996    2.93000007
   16.57416725   78.29429626    1.33000004    2.91000009
   16.57750130   76.53220367    1.38000000    2.91000009
   16.58083344   82.86009979    1.38000000    2.91000009
   16.58388901   77.95269775    1.46000004    2.91000009
   16.58722305   77.67169952    1.48000002    2.91000009
   16.59055710   76.24770355    1.48000002    2.91000009
   16.59500122   76.24770355    1.58000004    2.91000009
   16.59916687   77.95770264    1.58000004    2.91000009
   16.60250092   75.98249817    1.50000000    2.91000009
   16.60555649   77.51020050    1.48000002    2.91000009
   16.60888863   77.44550323    1.44000006    2.91000009
   16.60944557   77.44999695    1.44000006    2.91000009
   16.61250114   74.55899811    1.44000006    2.91000009
   16.61555672   75.34470367    1.44000006    2.91000009
   16.61888885   74.27469635    1.44000006    2.91000009
   16.62222290   76.69589996    1.44000006    2.91000009
   16.62527847   78.88249969    1.44000006    2.91000009
   16.62861061   79.43769836    1.46000004    2.91000009
   16.63166618   78.44059753    1.41999996    2.89000010
   16.63500023   76.99690247    1.41999996    2.91000009
   16.63833237   78.42189789    1.41999996    2.93000007
   16.64138794   78.51709747    1.38000000    2.91000009
   16.64611053   78.51709747    1.39999998    2.91000009
   16.65027809   80.02860260    1.41999996    2.91000009
   16.65361023   80.37400055    1.41999996    2.91000009
   16.65694427   79.74140167    1.44000006    2.91000009
   16.65944481   74.66439819    1.48000002    2.91000009
   16.66055489   76.11969757    1.48000002    2.91000009
   16.66361046   76.59069824    1.48000002    2.91000009
   16.66694450   77.67359924    1.48000002    2.91000009
   16.67027664   79.31449890    1.48000002    2.91000009
   16.67333221   76.77349854    1.50000000    2.91000009
   16.67666626   77.32089996    1.48000002    2.91000009
   16.68000031   79.27140045    1.41999996    2.91000009
   16.68305397   79.79660034    1.41999996    2.91000009
   16.68638802   76.78939819    1.36000001    2.91000009
   16.68972206   75.98549652    1.34000003    2.93000007
   16.69277763   77.30599976    1.41999996    2.91000009
   16.69749832   77.30599976    1.41999996    2.89000010
   16.70138931   77.15470123    1.39999998    2.91000009
   16.70472336   76.50650024    1.41999996    2.91000009
   16.70805550   77.91539764    1.44000006    2.89000010
   16.70944595   76.33560181    1.44000006    2.89000010
   16.71166801   76.20110321    1.48000002    2.91000009
   16.71472359   81.45240021    1.44000006    2.91000009
   16.71805573   82.41490173    1.44000006    2.91000009
   16.72138977   78.98339844    1.50000000    2.91000009
   16.72444534   76.77570343    1.51999998    2.91000009
   16.72777748   78.51560211    1.53999996    2.89000010
   16.73111153   79.37129974    1.55999994    2.91000009
   16.73416710   81.41500092    1.55999994    2.89000010
   16.73750114   82.25640106    1.55999994    2.91000009
   16.74055672   80.27619934    1.58000004    2.91000009
   16.74388885   79.38849640    1.60000002    2.91000009
   16.74861145   79.38849640    1.63000000    2.91000009
   16.75277710   79.49579620    1.69000006    2.91000009
   16.75583267   80.79460144    1.76999998    2.89000010
   16.75916672   80.47380066    1.80999994    2.89000010
   16.75972176   79.24510193    1.80999994    2.89000010
   16.76277733   79.01159668    1.80999994    2.89000010
   16.76583290   79.39189911    1.80999994    2.89000010
   16.76916695   79.19860077    1.71000004    2.91000009
   16.77249908   78.02130127    1.60000002    2.89000010
   16.77555466   85.10569763    1.53999996    2.91000009
   16.77888870   76.14219666    1.48000002    2.91000009
   16.78194427   78.75689697    1.46000004    2.89000010
   16.78527641   78.66519928    1.48000002    2.91000009
   16.78861046   80.12799835    1.64999998    2.91000009
   16.79166603   79.08550262    1.86000001    2.91000009
   16.79500008   80.62419891    1.86000001    2.91000009
   16.79972076   80.62419891    2.21000004    2.89000010
   16.80388832   81.13169861    2.40000010    2.91000009
   16.80722237   78.26309967    2.48000002    2.89000010
   16.80972099   80.88449860    2.46000004    2.89000010
   16.81083298   79.11540222    2.50000000    2.89000010
   16.81388855   80.31590271    2.55999994    2.89000010
   16.81722260   77.79280090    2.94000006    2.89000010
   16.82055664   75.37329865    2.91000009    2.91000009
   16.82361221   76.15599823    2.96000004    2.89000010
   16.82694626   81.07219696    3.32999992    2.89000010
   16.83000183   79.40979767    2.89000010    2.89000010
   16.83333397   78.51879883    2.39000010    2.89000010
   16.83666801   83.47470093    2.25000000    2.89000010
   16.83972359   78.18029785    2.25000000    2.89000010
   16.84305573   80.53759766    2.19000006    2.89000010
   16.84638977   82.61139679    1.78999996    2.89000010
   16.85083389   82.61139679    1.66999996    2.91000009
   16.85499954   82.96589661    1.66999996    2.91000009
   16.85833359   80.10649872    1.66999996    2.91000009
   16.85972214   80.41539764    1.66999996    2.91000009
   16.86194420   84.15519714    1.64999998    2.91000009
   16.86499977   80.79810333    1.64999998    2.89000010
   16.86833382   80.65899658    1.63000000    2.91000009
   16.87166595   79.55439758    1.61000001    2.89000010
   16.87472153   80.23960114    1.61000001    2.91000009
   16.87805557   80.33229828    1.61000001    2.91000009
   16.88138962   79.16280365    1.53999996    2.89000010
   16.88444519   79.98809814    1.51999998    2.91000009
   16.88777733   79.89060211    1.51999998    2.89000010
   16.89083290   79.14240265    1.50000000    2.91000009
   16.89416695   80.34120178    1.50000000    2.91000009
   16.89749908   80.30370331    1.50000000    2.91000009
   16.90222168   80.30370331    1.50000000    2.91000009
   16.90611076   84.75129700    1.46000004    2.91000009
   16.90944481   82.21320343    1.44000006    2.91000009
   16.90999985   87.04930115    1.44000006    2.91000009
   16.91333389   81.63980103    1.36000001    2.91000009
   16.91638756   84.87460327    1.30999994    2.91000009
   16.91972160   83.81580353    1.30999994    2.91000009
   16.92305565   81.57440186    1.30999994    2.91000009
   16.92611122   75.98560333    1.28999996    2.91000009
   16.92944336   81.38490295    1.28999996    2.91000009
   16.93277740   82.20860291    1.38000000    2.91000009
   16.93583298   79.45899963    1.38000000    2.91000009
   16.93916512   81.28150177    1.39999998    2.91000009
   16.94222069   84.10369873    1.39999998    2.89000010
   16.94555473   77.81269836    1.39999998    2.91000009
   16.94888878   77.86080170    1.38000000    2.91000009
   16.95333481   77.86080170    1.41999996    2.91000009
   16.95750046   80.33650208    1.46000004    2.91000009
   16.96000099   83.61789703    1.50000000    2.91000009
   16.96111107   82.58039856    1.50000000    2.91000009
   16.96416664   81.39550018    1.51999998    2.91000009
   16.96750069   82.71299744    1.53999996    2.91000009
   16.97083473   78.05449677    1.55999994    2.91000009
   16.97389030   76.27279663    1.58000004    2.91000009
   16.97722244   82.94390106    1.55999994    2.91000009
   16.98027802   79.09629822    1.58000004    2.91000009
   16.98361206   81.99089813    1.61000001    2.89000010
   16.98694420   82.70200348    1.61000001    2.89000010
   16.98999977   82.35440063    1.60000002    2.89000010
   16.99333382   80.38939667    1.60000002    2.89000010
   16.99666786   82.46080017    1.60000002    2.89000010
   16.99972153   79.60590363    1.60000002    2.89000010
   17.00444412   79.60590363    1.60000002    2.89000010
   17.00861168   80.32440186    1.58000004    2.91000009
   17.01000023   77.08820343    1.55999994    2.89000010
   17.01222229   77.41380310    1.55999994    2.89000010
   17.01527786   79.19120026    1.53999996    2.91000009
   17.01861000   76.71800232    1.53999996    2.91000009
   17.02194405   79.32389832    1.51999998    2.91000009
   17.02499962   80.89810181    1.48000002    2.91000009
   17.02833366   79.80139923    1.48000002    2.91000009
   17.03166580   77.08380127    1.48000002    2.91000009
   17.03472137   79.34649658    1.48000002    2.91000009
   17.03805542   78.88279724    1.50000000    2.91000009
   17.04111099   84.41179657    1.50000000    2.91000009
   17.04444313   81.75479889    1.50000000    2.91000009
   17.04777718   77.98459625    1.48000002    2.91000009
   17.05083275   75.00730133    1.48000002    2.91000009
   17.05555534   75.00730133    1.48000002    2.89000010
   17.05972099   74.79769897    1.48000002    2.91000009
   17.06027794   78.00309753    1.46000004    2.91000009
   17.06361008   78.33419800    1.48000002    2.91000009
   17.06694603   75.43430328    1.48000002    2.91000009
   17.07000160   76.34169769    1.46000004    2.91000009
   17.07333374   75.17859650    1.46000004    2.91000009
   17.07638931   75.20999908    1.46000004    2.91000009
   17.07972336   76.91030121    1.48000002    2.91000009
   17.08305550   75.96440125    1.50000000    2.89000010
   17.08611107   76.32859802    1.50000000    2.91000009
   17.08944511   80.41649628    1.50000000    2.91000009
   17.09277916   79.63159943    1.51999998    2.91000009
   17.09583473   79.40270233    1.53999996    2.91000009
   17.09916687   77.81759644    1.55999994    2.91000009
   17.10250092   79.19580078    1.58000004    2.91000009
   17.10666656   79.19580078    1.60000002    2.91000009
   17.11083412   81.50749969    1.63000000    2.89000010
   17.11416626   79.87059784    1.66999996    2.91000009
   17.11750031   77.41970062    1.69000006    2.91000009
   17.12055588   81.41940308    1.69000006    2.91000009
   17.12388992   78.43560028    1.69000006    2.91000009
   17.12722206   74.32569885    1.71000004    2.89000010
   17.13027763   75.11799622    1.71000004    2.91000009
   17.13361168   78.17009735    1.83000004    2.89000010
   17.13694382   75.66880035    1.80999994    2.91000009
   17.13999939   74.93280029    1.83000004    2.89000010
   17.14333344   75.74240112    1.80999994    2.91000009
   17.14638901   78.48899841    1.80999994    2.89000010
   17.14972115   77.84269714    1.83000004    2.91000009
   17.15305519   75.74030304    1.83000004    2.91000009
   17.15805435   75.74030304    1.83000004    2.89000010
   17.16222191   79.37969971    1.78999996    2.89000010
   17.16527748   81.83670044    1.78999996    2.89000010
   17.16860962   79.51280212    1.78999996    2.89000010
   17.17194366   80.56999969    1.75000000    2.89000010
   17.17499924   78.68199921    1.69000006    2.89000010
   17.17833328   78.25820160    1.69000006    2.91000009
   17.18138885   79.07460022    1.69000006    2.91000009
   17.18472099   79.94319916    1.69000006    2.91000009
   17.18805504   79.44409943    1.69000006    2.91000009
   17.19111061   77.88439941    1.71000004    2.89000010
   17.19444275   80.42079926    1.73000002    2.91000009
   17.19777679   79.89060211    1.75000000    2.91000009
   17.20083427   79.31510162    1.71000004    2.91000009
   17.20416832   79.06150055    1.69000006    2.89000010
   17.20916748   79.06150055    1.66999996    2.91000009
   17.21333504   76.75420380    1.64999998    2.91000009
   17.21666718   80.44059753    1.64999998    2.91000009
   17.21972275   78.98870087    1.63000000    2.89000010
   17.22305679   76.12920380    1.66999996    2.89000010
   17.22638893   76.63179779    1.63000000    2.91000009
   17.22944450   83.78520203    1.61000001    2.91000009
   17.23277855   79.10679626    1.60000002    2.89000010
   17.23611069   79.95459747    1.60000002    2.89000010
   17.23916626   79.23609924    1.60000002    2.89000010
   17.24250031   79.40560150    1.55999994    2.91000009
   17.24555588   76.23320007    1.50000000    2.91000009
   17.24888992   81.89949799    1.50000000    2.91000009
   17.25222206   79.94069672    1.51999998    2.91000009
   17.25527763   80.29949951    1.46000004    2.91000009
   17.27666664   78.34329987    1.11000001    2.91000009
   17.27722168   79.45030212    1.09000003    2.93000007
   17.28055573   80.20449829    1.07000005    2.91000009
   17.28361130   81.66079712    1.05999994    2.93000007
   17.28694344   80.92009735    1.05999994    2.91000009
   17.28999901   82.31109619    0.98000002    2.91000009
   17.29333305   77.98020172    0.95999998    2.93000007
   17.29666710   84.29640198    0.89999998    2.93000007
   17.29972076   81.96540070    0.83999997    2.93000007
   17.30305481   78.91320038    0.80000001    2.93000007
   17.30638885   75.93029785    0.80000001    2.93000007
   17.31166649   75.93029785    0.86000001    2.93000007
   17.31583214   78.54889679    0.86000001    2.93000007
   17.31888962   78.82679749    0.83999997    2.93000007
   17.32222366   78.57039642    0.83999997    2.93000007
   17.32555580   76.49700165    0.83999997    2.91000009
   17.32666779   80.46949768    0.83999997    2.91000009
   17.32916832   81.31659698    0.83999997    2.91000009
   17.33222389   80.20970154    0.88000000    2.93000007
   17.33555603   79.27899933    0.94000000    2.93000007
   17.33889008   75.36440277    0.95999998    2.93000007
   17.34194565   83.21099854    0.95999998    2.93000007
   17.34527779   78.75450134    0.94000000    2.93000007
   17.34861183   78.00180054    0.98000002    2.93000007
   17.35166740   76.85009766    0.98000002    2.93000007
   17.35499954   75.65329742    0.98000002    2.91000009
   17.35805511   75.00240326    0.94000000    2.93000007
   17.36277771   75.00240326    0.94000000    2.91000009
   17.36694527   75.61640167    0.94000000    2.91000009
   17.37027740   75.48650360    0.98000002    2.91000009
   17.37333298   75.61180115    1.00000000    2.91000009
   17.37666702   76.56020355    1.00000000    2.93000007
   17.37722206   74.05280304    1.00000000    2.93000007
   17.38055611   76.19550323    1.00000000    2.91000009
   17.38361168   77.06849670    1.01999998    2.93000007
   17.38694382   81.49770355    1.05999994    2.93000007
   17.38999939   79.69979858    1.07000005    2.93000007
   17.39333344   78.13980103    1.09000003    2.93000007
   17.39666748   77.56569672    1.09000003    2.93000007
   17.39972115   77.26840210    1.11000001    2.91000009
   17.40305519   77.55370331    1.11000001    2.91000009
   17.40638924   77.09670258    1.11000001    2.91000009
   17.40944481   77.34609985    1.07000005    2.93000007
   17.41388893   77.34609985    1.11000001    2.91000009
   17.41805458   78.60800171    1.11000001    2.91000009
   17.42138863   75.78320313    1.09000003    2.93000007
   17.42472076   77.71990204    1.09000003    2.93000007
   17.42666626   79.24810028    1.07000005    2.91000009
   17.42833328   75.91750336    1.07000005    2.91000009
   17.43138885   77.58339691    1.09000003    2.91000009
   17.43472099   74.80419922    1.14999998    2.91000009
   17.43805504   75.33580017    1.16999996    2.93000007
   17.44111061   78.57869720    1.21000004    2.91000009
   17.44444275   75.19750214    1.23000002    2.91000009
   17.44777679   77.82099915    1.28999996    2.91000009
   17.45083427   75.72570038    1.26999998    2.91000009
   17.45416832   80.65260315    1.25000000    2.93000007
   17.45722389   78.00849915    1.25000000    2.93000007
   17.46055603   77.45570374    1.23000002    2.93000007
   17.46527863   77.45570374    1.25000000    2.91000009
   17.46944427   78.63030243    1.28999996    2.91000009
   17.47249985   74.92209625    1.34000003    2.93000007
   17.47583389   76.25610352    1.34000003    2.91000009
   17.47666740   72.97589874    1.34000003    2.91000009
   17.47944450   75.39430237    1.36000001    2.91000009
   17.48250008   78.79650116    1.34000003    2.91000009
   17.48583412   76.01650238    1.34000003    2.91000009
   17.48916626   76.48580170    1.33000004    2.91000009
   17.49222183   72.71369934    1.26999998    2.93000007
   17.49555588   78.70189667    1.25000000    2.91000009
   17.49888992   80.48970032    1.19000006    2.91000009
   17.50194359   80.68560028    1.16999996    2.93000007
   17.50527763   82.54519653    1.16999996    2.93000007
   17.50861168   80.10109711    1.19000006    2.93000007
   17.51166725   79.31439972    1.23000002    2.91000009
   17.51638794   79.31439972    1.11000001    2.91000009
   17.52055550   79.88680267    1.13000000    2.93000007
   17.52361107   78.45760345    1.13000000    2.93000007
   17.52694511   76.18540192    1.14999998    2.93000007
   17.52722168   79.62519836    1.14999998    2.91000009
   17.53055573   77.41200256    1.16999996    2.93000007
   17.53388786   76.68129730    1.16999996    2.93000007
   17.53694344   78.83540344    1.16999996    2.93000007
   17.54027748   80.15190125    1.19000006    2.93000007
   17.54361153   75.44809723    1.23000002    2.91000009
   17.54666710   79.35990143    1.26999998    2.91000009
   17.54999924   76.19609833    1.25000000    2.93000007
   17.55333328   75.74320221    1.25000000    2.93000007
   17.55638885   77.85030365    1.25000000    2.93000007
   17.55972099   77.48770142    1.28999996    2.91000009
   17.56277657   77.46109772    1.30999994    2.91000009
   17.56750107   77.46109772    1.34000003    2.93000007
   17.57166672   77.94529724    1.38000000    2.93000007
   17.57500076   75.77829742    1.38000000    2.91000009
   17.57694626   75.31680298    1.38000000    2.91000009
   17.57861137   74.39459991    1.38000000    2.91000009
   17.58166695   79.60379791    1.39999998    2.93000007
   17.58500099   74.90460205    1.39999998    2.93000007
   17.58805656   77.82879639    1.44000006    2.91000009
   17.59138870   80.30470276    1.44000006    2.91000009
   17.59472275   75.38500214    1.44000006    2.91000009
   17.59777832   72.77079773    1.44000006    2.91000009
   17.60111237   79.78520203    1.44000006    2.91000009
   17.60444450   75.50140381    1.46000004    2.91000009
   17.60750008   75.78530121    1.48000002    2.93000007
   17.61083412   78.98570251    1.50000000    2.93000007
   17.61388969   76.59709930    1.50000000    2.93000007
   17.61861038   76.59709930    1.51999998    2.91000009
   17.62277794   77.96230316    1.51999998    2.91000009
   17.62611198   78.26979828    1.50000000    2.91000009
   17.62694550   78.71980286    1.48000002    2.93000007
   17.62972260   76.86830139    1.41999996    2.89000010
   17.63277817   73.40979767    1.41999996    2.91000009
   17.63611031   74.21050262    1.41999996    2.93000007
   17.63916588   75.92500305    1.39999998    2.91000009
   17.64249992   76.02780151    1.46000004    2.91000009
   17.64583397   78.29740143    1.46000004    2.91000009
   17.64888954   73.48090363    1.48000002    2.91000009
   17.65222168   77.17919922    1.51999998    2.91000009
   17.65555573   74.58730316    1.51999998    2.91000009
   17.65861130   77.77989960    1.51999998    2.91000009
   17.66194344   75.28199768    1.55999994    2.91000009
   17.66527748   74.61820221    1.58000004    2.91000009
   17.67000008   74.61820221    1.55999994    2.91000009
   17.67388916   73.38420105    1.60000002    2.93000007
   17.67694473   75.82160187    1.64999998    2.91000009
   17.67777634   75.48930359    1.64999998    2.91000009
   17.68083191   76.41880035    1.64999998    2.93000007
   17.68416595   78.01180267    1.69000006    2.91000009
   17.68722153   79.48280334    1.66999996    2.91000009
   17.69055557   78.46679688    1.60000002    2.91000009
   17.69388771   77.46199799    1.53999996    2.91000009
   17.69694328   76.58010101    1.51999998    2.93000007
   17.70027924   77.06340027    1.53999996    2.91000009
   17.70361137   72.83959961    1.53999996    2.91000009
   17.70666695   77.38890076    1.53999996    2.93000007
   17.71000099   74.35620117    1.53999996    2.91000009
   17.71305656   74.45800018    1.51999998    2.91000009
   17.71638870   77.33730316    1.53999996    2.91000009
   17.72111130   77.33730316    1.53999996    2.91000009
   17.72527885   75.90290070    1.66999996    2.91000009
   17.72694588   76.02580261    1.60000002    2.91000009
   17.72888947   74.46569824    1.60000002    2.91000009
   17.73194504   74.95629883    1.58000004    2.91000009
   17.73527718   75.50000000    1.58000004    2.91000009
   17.73861122   75.21949768    1.51999998    2.89000010
   17.74166679   75.96540070    1.51999998    2.89000010
   17.74500084   76.19869995    1.53999996    2.91000009
   17.74805641   74.98040009    1.50000000    2.91000009
   17.75138855   76.61489868    1.53999996    2.91000009
   17.75472260   76.91850281    1.53999996    2.91000009
   17.75777817   77.66269684    1.61000001    2.91000009
   17.76111031   77.72090149    1.75000000    2.91000009
   17.76444435   74.27159882    1.75000000    2.91000009
   17.76749992   76.60720062    1.86000001    2.91000009
   17.77222252   76.60720062    1.94000006    2.91000009
   17.77638817   74.15119934    1.94000006    2.91000009
   17.77694511   78.40059662    1.91999996    2.91000009
   17.78000069   76.05650330    1.91999996    2.91000009
   17.78305435   77.41380310    1.88000000    2.91000009
   17.78638840   78.01190186    1.88000000    2.91000009
   17.78972244   76.10240173    1.88000000    2.91000009
   17.79277802   76.93520355    1.88000000    2.91000009
   17.79611015   73.94450378    1.86000001    2.91000009
   17.79944420   75.46240234    1.89999998    2.91000009
   17.80249977   76.64499664    2.00000000    2.91000009
   17.80583191   79.24279785    2.00000000    2.91000009
   17.80888748   75.44879913    1.98000002    2.91000009
   17.81222153   76.38569641    1.96000004    2.89000010
   17.81555557   76.40409851    1.96000004    2.91000009
   17.81861115   75.35420227    1.98000002    2.89000010
   17.82361221   75.35420227    2.00000000    2.91000009
   17.82777786   76.47280121    1.98000002    2.91000009
   17.83083344   78.87180328    1.98000002    2.89000010
   17.83416748   78.55480194    2.00000000    2.89000010
   17.83722305   75.29979706    2.11999989    2.91000009
   17.84055710   76.34459686    2.13000011    2.91000009
   17.84388924   78.10350037    2.13000011    2.89000010
   17.84694481   78.83989716    2.19000006    2.89000010
   17.85027885   79.40799713    2.19000006    2.91000009
   17.85333443   79.66639709    2.26999998    2.89000010
   17.85666656   76.95880127    2.25000000    2.86999989
   17.86000061   77.03530121    2.19000006    2.89000010
   17.86305618   76.66249847    2.26999998    2.89000010
   17.86638832   77.14710236    2.23000002    2.89000010
   17.86972237   77.11340332    2.21000004    2.89000010
   17.87472153   77.11340332    2.17000008    2.89000010
   17.87888908   78.12190247    2.15000010    2.89000010
   17.88194466   75.46710205    2.11999989    2.89000010
   17.88527679   75.71540070    2.11999989    2.89000010
   17.88861084   73.46800232    2.07999992    2.89000010
   17.89166641   78.47920227    2.07999992    2.89000010
   17.89500046   74.73410034    2.11999989    2.89000010
   17.89805603   79.27469635    2.13000011    2.89000010
   17.90138817   76.42179871    2.13000011    2.89000010
   17.90472221   81.09490204    2.13000011    2.89000010
   17.90777779   75.55100250    2.11999989    2.89000010
   17.91110992   73.93289948    2.11999989    2.86999989
   17.91444397   73.60690308    2.09999990    2.91000009
   17.91749954   75.92140198    2.15000010    2.89000010
   17.92083359   75.09079742    2.15000010    2.89000010
   17.92583275   75.09079742    2.07999992    2.89000010
   17.93000031   77.32430267    2.09999990    2.89000010
   17.93333244   73.97750092    2.09999990    2.89000010
   17.93638802   74.49440002    2.11999989    2.89000010
   17.93972206   75.73690033    2.07999992    2.89000010
   17.94305420   76.23650360    2.09999990    2.89000010
   17.94610977   77.31620026    2.09999990    2.89000010
   17.94944382   73.40529633    2.13000011    2.91000009
   17.95250130   74.54380035    2.28999996    2.89000010
   17.95583344   73.63390350    2.11999989    2.89000010
   17.95916748   74.12329865    2.23000002    2.89000010
   17.96222305   74.76879883    2.28999996    2.89000010
   17.96555710   71.34100342    2.36999989    2.89000010
   17.96888924   75.74909973    2.05999994    2.91000009
   17.97194481   75.07230377    2.00000000    2.91000009
   17.97694588   75.07230377    2.03999996    2.89000010
   17.98111153   76.69249725    2.03999996    2.89000010
   17.98444557   73.87249756    2.03999996    2.91000009
   17.98777771   75.92810059    2.05999994    2.89000010
   17.99083328   70.92520142    2.07999992    2.89000010
   17.99416733   77.77709961    2.13000011    2.89000010
   17.99722290   74.82109833    2.15000010    2.89000010
   18.00055504   74.18569946    2.19000006    2.86999989
   18.00388908   78.59829712    2.17000008    2.89000010
   18.00694466   76.09860229    2.17000008    2.89000010
   18.01027870   78.75119781    2.19000006    2.89000010
   18.01361084   76.85169983    2.21000004    2.91000009
   18.01666641   72.52649689    2.19000006    2.91000009
   18.02000046   75.94660187    2.15000010    2.89000010
   18.02305603   79.69550323    2.17000008    2.89000010
   18.02833366   79.69550323    2.17000008    2.89000010
   18.03249931   78.01550293    2.23000002    2.91000009
   18.03555489   80.13240051    2.26999998    2.89000010
   18.03888893   73.29080200    2.23000002    2.89000010
   18.04194450   77.06880188    2.23000002    2.89000010
   18.04527664   75.48010254    2.25000000    2.89000010
   18.04861069   79.33550262    2.28999996    2.89000010
   18.05166626   76.60939789    2.30999994    2.89000010
   18.05499840   76.91049957    2.26999998    2.89000010
   18.05805397   82.31510162    2.23000002    2.89000010
   18.06138802   79.15239716    2.26999998    2.89000010
   18.06472206   77.20390320    2.32999992    2.89000010
   18.06777954   78.02989960    2.39000010    2.89000010
   18.07111168   70.91269684    2.44000006    2.89000010
   18.07444572   74.04290009    2.44000006    2.89000010
   18.07944489   74.04290009    2.51999998    2.89000010
   18.08361244   76.36399841    2.42000008    2.89000010
   18.08666801   81.61799622    2.34999990    2.89000010
   18.09000015   74.90689850    2.30999994    2.89000010
   18.09333420   75.98310089    2.28999996    2.89000010
   18.09638977   77.24320221    2.30999994    2.89000010
   18.09972191   77.02839661    2.30999994    2.86999989
   18.10277748   77.43280029    2.25000000    2.89000010
   18.10611153   76.52179718    2.28999996    2.86999989
   18.10944557   76.92970276    2.30999994    2.89000010
   18.11250114   74.56220245    2.28999996    2.89000010
   18.11583328   74.40460205    2.32999992    2.89000010
   18.11916733   73.25170135    2.25000000    2.89000010
   18.12222290   75.81909943    2.23000002    2.89000010
   18.12555504   75.86879730    2.28999996    2.89000010
   18.13055611   75.86879730    2.25000000    2.89000010
   18.13472176   72.78489685    2.19000006    2.89000010
   18.13805580   72.64579773    2.19000006    2.89000010
   18.14111137   79.65920258    2.26999998    2.89000010
   18.14444351   72.79219818    2.26999998    2.89000010
   18.14749908   74.11090088    2.19000006    2.89000010
   18.15083313   77.30870056    2.17000008    2.89000010
   18.15416718   73.16699982    2.15000010    2.89000010
   18.15722275   77.08450317    2.19000006    2.89000010
   18.16055489   74.52179718    2.23000002    2.89000010
   18.16388893   75.33850098    2.23000002    2.89000010
   18.16694450   75.72669983    2.25000000    2.89000010
   18.17027664   74.26940155    2.30999994    2.89000010
   18.17333221   73.29109955    2.36999989    2.89000010
   18.17666626   74.55329895    2.36999989    2.89000010
   18.18166542   74.55329895    2.40000010    2.89000010
   18.18583298   77.81659698    2.42000008    2.86999989
   18.18916512   73.03890228    2.51999998    2.89000010
   18.19249916   72.56030273    2.66000009    2.89000010
   18.19555473   78.31169891    2.66000009    2.86999989
   18.19888878   78.50399780    2.59999990    2.89000010
   18.20194435   76.53309631    2.55999994    2.86999989
   18.20527840   75.66570282    2.51999998    2.86999989
   18.20861244   77.33119965    2.53999996    2.89000010
   18.21166801   76.81099701    2.55999994    2.86999989
   18.21500015   75.63310242    2.57999992    2.89000010
   18.21833420   74.73310089    2.51999998    2.89000010
   18.22138977   74.14240265    2.44000006    2.89000010
   18.22472191   79.50140381    2.42000008    2.89000010
   18.22805595   72.37599945    2.40000010    2.89000010
   18.23305511   72.37599945    2.50000000    2.89000010
   18.23694420   75.92310333    2.40000010    2.89000010
   18.24027824   79.42939758    2.34999990    2.89000010
   18.24361229   75.84629822    2.40000010    2.89000010
   18.24666786   75.63980103    2.53999996    2.89000010
   18.25000000   76.18000031    2.59999990    2.86999989
   18.25333405   71.98609924    2.67000008    2.86999989
   18.25638962   76.66549683    2.59999990    2.86999989
   18.25972176   76.94950104    2.66000009    2.86999989
   18.26277733   75.41220093    2.75000000    2.86999989
   18.26611137   82.00820160    2.82999992    2.89000010
   18.26944351   79.33489990    2.78999996    2.86999989
   18.27249908   76.56800079    2.71000004    2.89000010
   18.27583313   74.28309631    2.80999994    2.86999989
   18.29749870   74.28309631    3.11999989    2.86999989
   18.30138779   74.28929901    3.14000010    2.86999989
   18.30472183   72.60489655    3.16000009    2.86999989
   18.30805397   71.28520203    3.30999994    2.86999989
   18.31110954   74.12640381    3.39000010    2.86999989
   18.31444359   76.05970001    3.46000004    2.86999989
   18.31777954   76.93859863    3.48000002    2.84999990
   18.32083511   77.46289825    3.61999989    2.86999989
   18.32416725   79.46089935    3.76999998    2.84999990
   18.32722282   77.17539978    4.07999992    2.86999989
   18.33055687   77.64320374    4.26000023    2.84999990
   18.33388901   75.01339722    4.69999981    2.84999990
   18.33694458   75.15730286    4.90999985    2.84999990
   18.34027863   78.10070038    4.90999985    2.84999990
   18.34361267   76.12539673    4.90999985    2.86999989
   18.34472275   76.09970093    4.90999985    2.82999992
   18.34916687   76.09970093    4.90999985    2.78999996
   18.35305595   75.44110107    4.90999985    2.80999994
   18.35639000   78.02649689    4.90999985    2.80999994
   18.35972214   81.47579956    4.90999985    2.84999990
   18.36277771   80.96250153    4.59999990    2.86999989
   18.36611176   75.80879974    4.17999983    2.86999989
   18.36944389   75.96559906    4.05999994    2.84999990
   18.37249947   76.09529877    4.01999998    2.84999990
   18.37583351   76.32689667    4.09999990    2.84999990
   18.37916756   80.07510376    4.09999990    2.84999990
   18.38222313   74.90339661    4.13999987    2.84999990
   18.38555527   78.05879974    3.95000005    2.84999990
   18.38861084   73.94940186    4.03999996    2.84999990
   18.39194489   74.00969696    4.23999977    2.86999989
   18.39500046   78.41210175    4.53000021    2.84999990
   18.39555550   75.15519714    4.63999987    2.84999990
   18.40027809   75.15519714    4.23999977    2.86999989
   18.40444374   72.13880157    3.75000000    2.86999989
   18.40749931   75.60500336    4.90999985    2.82999992
   18.41083336   75.66970062    4.90999985    2.82999992
   18.41388893   74.19439697    4.90999985    2.89000010
   18.41722107   78.56739807    4.90999985    2.80999994
   18.42055511   75.58589935    4.90999985    2.78999996
   18.42361069   75.00039673    4.90999985    2.80999994
   18.42694473   75.43530273    4.90999985    2.53999996
   18.43027687   74.40799713    4.90999985    2.76999998
   18.43333244   77.08380127    4.90999985    2.76999998
   18.43666649   74.18150330    4.90999985    2.86999989
   18.43972206   81.66390228    4.90999985    2.86999989
   18.44305420   80.94570160    4.90999985    2.89000010
   18.44499969   76.08290100    4.90999985    2.82999992
   18.44666672   79.05419922    4.90999985    2.89000010
   18.45138931   79.05419922    4.90999985    2.66000009
   18.45555687   79.52619934    4.90999985    2.59999990
   18.45861244   80.78630066    4.90999985    2.40000010
   18.46194458   78.11360168    4.90999985    2.78999996
   18.46527863   79.49469757    4.90999985    2.78999996
   18.46833420   77.17420197    4.90999985    2.76999998
   18.47166634   76.18679810    4.90999985    2.75000000
   18.47500038   82.42109680    4.90999985    2.75000000
   18.47805595   81.27619934    4.90999985    2.48000002
   18.48139000   77.37799835    4.90999985    2.67000008
   18.48444557   84.68460083    4.90999985    2.76999998
   18.48777771   81.26760101    4.90999985    2.59999990
   18.49111176   76.77519989    4.90999985    2.61999989
   18.49416733   81.14900208    4.90999985    2.76999998
   18.49500084   81.67579651    4.90999985    2.76999998
   18.49777794   77.18080139    4.90999985    2.71000004
   18.50250053   77.18080139    4.90999985    2.82999992
   18.50666618   71.97139740    4.90999985    2.82999992
   18.51000023   72.28119659    4.90999985    2.86999989
   18.51305580   75.39600372    4.90999985    2.86999989
   18.51638794   71.02359772    4.90999985    2.89000010
   18.51972198   72.23509979    4.90999985    2.82999992
   18.52277756   71.09889984    4.90999985    2.82999992
   18.52611160   72.26039886    4.90999985    2.86999989
   18.52916718   76.42209625    4.90999985    2.89000010
   18.53249931   89.19999695    4.90999985    2.67000008
   18.53583336  184.36599731    4.90999985    2.46000004
   18.53888893   87.42669678    4.90999985    2.26999998
   18.54222107   97.82219696    4.90999985    2.15000010
   18.54500008   89.63500214    4.90999985    2.23000002
   18.54583359   88.33190155    4.90999985    2.23000002
   18.54916573   84.12069702    4.90999985    2.53999996
   18.55360985   84.12069702    4.90999985    2.07999992
   18.55777740  106.84799957    4.90999985    2.46000004
   18.56110954   85.91539764    4.90999985    2.48000002
   18.56444359   78.39330292    4.90999985    2.61999989
   18.56750107   88.06250000    4.90999985    2.64000010
   18.57083511   78.78279877    4.90999985    2.30999994
   18.57389069   81.02069855    4.90999985    2.66000009
   18.57722282   84.55519867    4.90999985    2.57999992
   18.58055687  118.00900269    4.90999985    2.42000008
   18.58361244   78.19629669    4.90999985    2.36999989
   18.58694458   87.52210236    4.90999985    2.39000010
   18.59027863   79.04889679    4.90999985    2.69000006
   18.59333420   81.37989807    4.90999985    2.78999996
   18.59500122   83.37290192    4.90999985    2.78999996
   18.59694481   79.36620331    4.90999985    2.76999998
   18.60027885   80.22350311    4.90999985    2.71000004
   18.60499954   80.22350311    4.90999985    2.86999989
   18.60916710   92.43160248    1.03999996    0.80000001
   18.61222267   73.35230255    0.19000000    0.17000000
   18.61555672   75.31800079    0.15000001    0.01000000
   18.61861038   71.62290192    0.15000001    0.01000000
   18.62194443   74.39669800    0.15000001    0.01000000
   18.62527847   77.68759918    0.15000001    0.01000000
   18.62833405   75.93589783    0.15000001    0.01000000
   18.63166618   77.83460236    0.15000001    0.01000000
   18.63500023   82.94509888    0.15000001    0.01000000
   18.63805580   78.37940216    0.15000001    0.01000000
   18.64138794   74.53900146    0.15000001    0.01000000
   18.64444351   75.68049622    0.15000001    0.01000000
   18.64500046   81.43060303    0.15000001    0.01000000
   18.64833260   74.92500305    0.15000001    0.01000000
   18.65166664   75.22550201    0.15000001    0.01000000
   18.65611076   75.22550201    0.15000001    0.01000000
   18.66027832   74.37930298    0.15000001    0.01000000
   18.66333389   77.51670074    0.15000001    0.01000000
   18.66666603   73.19730377    0.15000001    0.01000000
   18.67000008   79.41970062    0.15000001    0.01000000
   18.67305565   72.33390045    0.15000001    0.01000000
   18.67638779   81.53040314    0.15000001    0.01000000
   18.67972183   76.63320160    0.15000001    0.01000000
   18.68277740   77.29879761    0.15000001    0.01000000
   18.68610954   84.61540222    0.15000001    0.01000000
   18.68916512   85.32440186    0.15000001    0.01000000
   18.69249916   79.45749664    0.15000001    0.01000000
   18.69499969   79.25060272    0.15000001    0.01000000
   18.69610977   77.03089905    0.15000001    0.01000000
   18.69944382   85.17469788    0.15000001    0.01000000
   18.70250130   84.83110046    0.15000001    0.01000000
   18.70722389   84.83110046    0.15000001    0.01000000
   18.71138954   90.89459991    0.15000001    0.01000000
   18.71472359  103.68599701    0.15000001    0.01000000
   18.71777916  139.19200134    0.15000001    0.01000000
   18.72111130   -1.00000000    0.15000001    0.01000000
   18.72444534  181.75999451    0.15000001    0.01000000
   18.72750092   -1.00000000    0.15000001    0.01000000
   18.73083305   94.63510132    0.15000001    0.01000000
   18.73388863  134.53900146    0.15000001    0.01000000
   18.73722267   -1.00000000    0.15000001    0.01000000
   18.74055672   -1.00000000    0.15000001    0.01000000
   18.74361229   -1.00000000    0.15000001    0.01000000
   18.74722290   -1.00000000    0.15000001    0.01000000
   18.75027847   -1.00000000    0.15000001    0.01000000
   18.75361061   -1.00000000    0.15000001    0.01000000
   18.76250076   -1.00000000    0.15000001    0.01000000
   18.76583290   -1.00000000    0.15000001    0.01000000
   18.76888847   -1.00000000    0.15000001    0.01000000
   18.77222252   92.45549774    0.15000001    0.01000000
   18.77527809  119.09899902    0.15000001    0.01000000
   18.77861023   -1.00000000    0.15000001    0.01000000
   18.78194427   -1.00000000    0.15000001    0.01000000
   18.78499985   -1.00000000    0.15000001    0.01000000
   18.78833199   -1.00000000    0.15000001    0.01000000
   18.79166603   -1.00000000    0.15000001    0.01000000
   18.79472160   -1.00000000    0.15000001    0.01000000
   18.79861069  169.56199646    0.15000001    0.01000000
   18.80166626  143.38900757    0.15000001    0.01000000
   18.80499840  166.10299683    0.15000001    0.01000000
   18.80972099  166.10299683    0.15000001    0.01000000
   18.81388855  711.78698730    0.15000001    0.01000000
   18.81583214  186.40699768    0.15000001    0.01000000
   18.81583214   -1.00000000    0.15000001    0.01000000
   18.81611061  169.56199646    0.15000001    0.01000000
   18.81611061  143.38900757    0.15000001    0.01000000
   18.81611061  166.10299683    0.15000001    0.01000000
   18.81638718  711.78698730    0.15000001    0.01000000
   18.81638718   -1.00000000    0.15000001    0.01000000
   18.81638718   -1.00000000    0.15000001    0.01000000
   18.81666756   -1.00000000    0.15000001    0.01000000
   18.81666756   -1.00000000    0.15000001    0.01000000
   18.81833458   -1.00000000    0.15000001    0.01000000
   18.82166672   -1.00000000    0.15000001    0.01000000
   18.82472229   -1.00000000    0.15000001    0.01000000
   18.82805634   -1.00000000    0.15000001    0.01000000
   18.83139038   -1.00000000    0.15000001    0.01000000
   18.83444595   85.35919952    0.15000001    0.01000000
   18.83777809   85.87789917    0.15000001    0.01000000
   18.84111214  113.25299835    0.15000001    0.01000000
   18.84916687   -1.00000000    0.15000001    0.01000000
   18.85250092   -1.00000000    0.15000001    0.01000000
   18.85555649  624.11901855    0.15000001    0.01000000
   18.85777855  130.83000183    0.15000001    0.01000000
   18.85777855   -1.00000000    0.15000001    0.01000000
   18.85777855  624.11901855    0.15000001    0.01000000
   18.85805511   -1.00000000    0.15000001    0.01000000
   18.85805511   -1.00000000    0.15000001    0.01000000
   18.85833359   -1.00000000    0.15000001    0.01000000
   18.85833359   85.35919952    0.15000001    0.01000000
   18.85833359   85.87789917    0.15000001    0.01000000
   18.85861206  113.25299835    0.15000001    0.01000000
   18.85861206   -1.00000000    0.15000001    0.01000000
   18.86027908  121.58200073    0.15000001    0.01000000
   18.86361122  114.85700226    0.15000001    0.01000000
   18.86666679   99.01000214    0.15000001    0.01000000
   18.87000084   89.38480377    0.15000001    0.01000000
   18.87333298   96.83390045    0.15000001    0.01000000
   18.87638855  125.76699829    0.15000001    0.01000000
   18.87972260   95.34329987    0.15000001    0.01000000
   18.88277817  167.63000488    0.15000001    0.01000000
   18.88694382  167.63000488    0.15000001    0.01000000
   18.89111137   -1.00000000    0.15000001    0.01000000
   18.89444351   -1.00000000    0.15000001    0.01000000
   18.89777756   -1.00000000    0.15000001    0.01000000
   18.90083313   90.76609802    0.15000001    0.01000000
   18.90416718  226.26499939    0.15000001    0.01000000
   18.90722275   81.12809753    0.15000001    0.01000000
   18.90833282   82.70079803    0.15000001    0.01000000
   18.91083336  103.79799652    0.15000001    0.01000000
   18.91416550  110.30599976    0.15000001    0.01000000
   18.91749954   -1.00000000    0.15000001    0.01000000
   18.92055511   -1.00000000    0.15000001    0.01000000
   18.92388916   -1.00000000    0.15000001    0.01000000
   18.92722130   -1.00000000    0.15000001    0.01000000
   18.93027687   -1.00000000    0.15000001    0.01000000
   18.93361092   -1.00000000    0.15000001    0.01000000
   18.94222069  123.43599701    0.15000001    0.01000000
   18.94555473   94.00959778    0.15000001    0.01000000
   18.94861031  134.08099365    0.15000001    0.01000000
   18.95194435   -1.00000000    0.15000001    0.01000000
   18.95527840   -1.00000000    0.15000001    0.01000000
   18.95861244   -1.00000000    0.15000001    0.01000000
   18.96194458   -1.00000000    0.15000001    0.01000000
   18.96500015  109.81999969    0.15000001    0.01000000
   18.96833420   -1.00000000    0.15000001    0.01000000
   18.97166634   -1.00000000    0.15000001    0.01000000
   18.97472191   -1.00000000    0.15000001    0.01000000
   18.97805595   -1.00000000    0.15000001    0.01000000
   18.98111153  105.66899872    0.15000001    0.01000000
   18.98444557   87.13369751    0.15000001    0.01000000
   18.98944473   87.13369751    0.15000001    0.01000000
   18.99361229  121.72299957    0.15000001    0.01000000
   18.99666786  105.75499725    0.15000001    0.01000000
   19.00000000   94.18099976    0.15000001    0.01000000
   19.00333405  153.94099426    0.15000001    0.01000000
   19.00638962   77.72630310    0.15000001    0.01000000
   19.00833321   85.88619995    0.15000001    0.01000000
   19.01000023   81.97850037    0.15000001    0.01000000
   19.01333427   80.92220306    0.15000001    0.01000000
   19.01666641   -1.00000000    0.15000001    0.01000000
   19.01972198   94.01909637    0.15000001    0.01000000
   19.02305603   -1.00000000    0.15000001    0.01000000
   19.02638817   -1.00000000    0.15000001    0.01000000
   19.02944374   72.80670166    0.15000001    0.01000000
   19.03277779   88.01570129    0.15000001    0.01000000
   19.03583336   91.68589783    0.15000001    0.01000000
   19.04055595   91.68589783    0.15000001    0.01000000
   19.04472160  230.68299866    0.15000001    0.01000000
   19.04805565   99.88580322    0.15000001    0.01000000
   19.05111122   93.90550232    0.15000001    0.01000000
   19.05444336   91.06939697    0.15000001    0.01000000
   19.05777740   73.60659790    0.15000001    0.01000000
   19.05833244   87.54709625    0.15000001    0.01000000
   19.06110954   81.13430023    0.15000001    0.01000000
   19.06444359   79.88670349    0.15000001    0.01000000
   19.06777954   83.92600250    0.15000001    0.01000000
   19.07083511   75.68379974    0.15000001    0.01000000
   19.07416725   81.51049805    0.15000001    0.01000000
   19.07750130   85.45349884    0.15000001    0.01000000
   19.08055687   83.59359741    0.15000001    0.01000000
   19.08388901   84.68710327    0.15000001    0.01000000
   19.08694458   81.43170166    0.15000001    0.01000000
   19.09166718   81.43170166    0.15000001    0.01000000
   19.09583473   -1.00000000    0.15000001    0.01000000
   19.09916687   -1.00000000    0.15000001    0.01000000
   19.10250092   -1.00000000    0.15000001    0.01000000
   19.10555649   -1.00000000    0.15000001    0.01000000
   19.10916710  145.45399475    0.15000001    0.01000000
   19.11250114  137.42199707    0.15000001    0.01000000
   19.11555672   -1.00000000    0.15000001    0.01000000
   19.11888885   -1.00000000    0.15000001    0.01000000
   19.12222290  161.78300476    0.15000001    0.01000000
   19.12527847  120.81700134    0.15000001    0.01000000
   19.12861061   92.39720154    0.15000001    0.01000000
   19.13194466   -1.00000000    0.15000001    0.01000000
   19.13500023   -1.00000000    0.15000001    0.01000000
   19.13833237   -1.00000000    0.15000001    0.01000000
   19.14694405  196.72799683    0.15000001    0.01000000
   19.15027809  119.39299774    0.15000001    0.01000000
   19.15333366  115.58100128    0.15000001    0.01000000
   19.15666580   -1.00000000    0.15000001    0.01000000
   19.16027832   -1.00000000    0.15000001    0.01000000
   19.16361046   -1.00000000    0.15000001    0.01000000
   19.16666603   -1.00000000    0.15000001    0.01000000
   19.17000008   -1.00000000    0.15000001    0.01000000
   19.17333221   -1.00000000    0.15000001    0.01000000
   19.17638779   -1.00000000    0.15000001    0.01000000
   19.17972183   -1.00000000    0.15000001    0.01000000
   19.18305397   -1.00000000    0.15000001    0.01000000
   19.18610954   -1.00000000    0.15000001    0.01000000
   19.18944359   -1.00000000    0.15000001    0.01000000
   19.19805527   -1.00000000    0.15000001    0.01000000
   19.20138931   -1.00000000    0.15000001    0.01000000
   19.20472336   -1.00000000    0.15000001    0.01000000
   19.20777893   -1.00000000    0.15000001    0.01000000
   19.21138954   -1.00000000    0.15000001    0.01000000
   19.21444511   -1.00000000    0.15000001    0.01000000
   19.21777916   -1.00000000    0.15000001    0.01000000
   19.22111130   -1.00000000    0.15000001    0.01000000
   19.22416687   -1.00000000    0.15000001    0.01000000
   19.22750092   -1.00000000    0.15000001    0.01000000
   19.23083305   -1.00000000    0.15000001    0.01000000
   19.23388863   -1.00000000    0.15000001    0.01000000
   19.23722267   -1.00000000    0.15000001    0.01000000
   19.24027824   -1.00000000    0.15000001    0.01000000
   19.24944496   -1.00000000    0.15000001    0.01000000
   19.25250053   -1.00000000    0.15000001    0.01000000
   19.25583267   -1.00000000    0.15000001    0.01000000
   19.25944519   -1.00000000    0.15000001    0.01000000
   19.26250076   -1.00000000    0.15000001    0.01000000
   19.26583290   -1.00000000    0.15000001    0.01000000
   19.26916695   -1.00000000    0.15000001    0.01000000
   19.27222252   -1.00000000    0.15000001    0.01000000
   19.27555466   -1.00000000    0.15000001    0.01000000
   19.27888870   -1.00000000    0.15000001    0.01000000
   19.28194427   -1.00000000    0.15000001    0.01000000
   19.28527641   -1.00000000    0.15000001    0.01000000
   19.28833199   -1.00000000    0.15000001    0.01000000
   19.29166603   -1.00000000    0.15000001    0.01000000
   19.31250000   -1.00000000    0.15000001    0.01000000
   19.31555557   -1.00000000    0.15000001    0.01000000
   19.31888962   -1.00000000    0.15000001    0.01000000
   19.32222366   -1.00000000    0.15000001    0.01000000
   19.32527924   -1.00000000    0.15000001    0.01000000
   19.32861137   -1.00000000    0.15000001    0.01000000
   19.33194542   -1.00000000    0.15000001    0.01000000
   19.33500099   -1.00000000    0.15000001    0.01000000
   19.33833313   -1.00000000    0.15000001    0.01000000
   19.34138870   -1.00000000    0.15000001    0.01000000
   19.35166740   -1.00000000    0.15000001    0.01000000
   19.35499954   -1.00000000    0.15000001    0.01000000
   19.35805511   -1.00000000    0.15000001    0.01000000
   19.36166763   -1.00000000    0.15000001    0.01000000
   19.36499977   -1.00000000    0.15000001    0.01000000
   19.36805534   -1.00000000    0.15000001    0.01000000
   19.37138939   -1.00000000    0.15000001    0.01000000
   19.37444496   -1.00000000    0.15000001    0.01000000
   19.37777710   -1.00000000    0.15000001    0.01000000
   19.38111115   -1.00000000    0.15000001    0.01000000
   19.38416672   -1.00000000    0.15000001    0.01000000
   19.38750076   -1.00000000    0.15000001    0.01000000
   19.39083290   -1.00000000    0.15000001    0.01000000
   19.39388847   -1.00000000    0.15000001    0.01000000
   19.40277672   -1.00000000    0.15000001    0.01000000
   19.40611076   -1.00000000    0.15000001    0.01000000
   19.40944481   -1.00000000    0.15000001    0.01000000
   19.41277695   -1.00000000    0.15000001    0.01000000
   19.41611099   -1.00000000    0.15000001    0.01000000
   19.41916656   -1.00000000    0.15000001    0.01000000
   19.42249870   -1.00000000    0.15000001    0.01000000
   19.42583275   -1.00000000    0.15000001    0.01000000
   19.42888832   -1.00000000    0.15000001    0.01000000
   19.43222237   -1.00000000    0.15000001    0.01000000
   19.43527603   -1.00000000    0.15000001    0.01000000
   19.43861008   -1.00000000    0.15000001    0.01000000
   19.44194412   -1.00000000    0.15000001    0.01000000
   19.44499969   -1.00000000    0.15000001    0.01000000
   19.45416832   -1.00000000    0.15000001    0.01000000
   19.45722389   -1.00000000    0.15000001    0.01000000
   19.46083450   -1.00000000    0.15000001    0.01000000
   19.46416664   -1.00000000    0.15000001    0.01000000
   19.46750069   -1.00000000    0.15000001    0.01000000
   19.47055626   -1.00000000    0.15000001    0.01000000
   19.47389030   -1.00000000    0.15000001    0.01000000
   19.47722244   -1.00000000    0.15000001    0.01000000
   19.48027802   -1.00000000    0.15000001    0.01000000
   19.48361206   -1.00000000    0.15000001    0.01000000
   19.48666763   -1.00000000    0.15000001    0.01000000
   19.48999977   -1.00000000    0.15000001    0.01000000
   19.49333382   -1.00000000    0.15000001    0.01000000
   19.49638939   -1.00000000    0.15000001    0.01000000
   19.50527763   -1.00000000    0.15000001    0.01000000
   19.50861168   -1.00000000    0.15000001    0.01000000
   19.51194382   -1.00000000    0.15000001    0.01000000
   19.51527786   -1.00000000    0.15000001    0.01000000
   19.51861000   -1.00000000    0.15000001    0.01000000
   19.52166557   -1.00000000    0.15000001    0.01000000
   19.52499962   -1.00000000    0.15000001    0.01000000
   19.52833366   -1.00000000    0.15000001    0.01000000
   19.53138924   -1.00000000    0.15000001    0.01000000
   19.53472137   -1.00000000    0.15000001    0.01000000
   19.53777695   -1.00000000    0.15000001    0.01000000
   19.54111099   -1.00000000    0.15000001    0.01000000
   19.54444313   -1.00000000    0.15000001    0.01000000
   19.54749870   -1.00000000    0.15000001    0.01000000
   19.55638885   -1.00000000    0.15000001    0.01000000
   19.55972099   -1.00000000    0.15000001    0.01000000
   19.56333351   -1.00000000    0.15000001    0.01000000
   19.56638718   -1.00000000    0.15000001    0.01000000
   19.56972313   -1.00000000    0.15000001    0.01000000
   19.57277870   -1.00000000    0.15000001    0.01000000
   19.57611275   -1.00000000    0.15000001    0.01000000
   19.57944489   -1.00000000    0.15000001    0.01000000
   19.58250046   -1.00000000    0.15000001    0.01000000
   19.58583450   -1.00000000    0.15000001    0.01000000
   19.58916664   -1.00000000    0.15000001    0.01000000
   19.59222221   -1.00000000    0.15000001    0.01000000
   19.59555626   -1.00000000    0.15000001    0.01000000
   19.59861183   -1.00000000    0.15000001    0.01000000
   19.60750008   -1.00000000    0.15000001    0.01000000
   19.61138916   -1.00000000    0.15000001    0.01000000
   19.61444473   -1.00000000    0.15000001    0.01000000
   19.61777878   -1.00000000    0.15000001    0.01000000
   19.62083435   -1.00000000    0.15000001    0.01000000
   19.62416649   -1.00000000    0.15000001    0.01000000
   19.62750053   -1.00000000    0.15000001    0.01000000
   19.63055611   -1.00000000    0.15000001    0.01000000
   19.63388824   -1.00000000    0.15000001    0.01000000
   19.63722229   -1.00000000    0.15000001    0.01000000
   19.64027786   -1.00000000    0.15000001    0.01000000
   19.64361191   -1.00000000    0.15000001    0.01000000
   19.64666748   -1.00000000    0.15000001    0.01000000
   19.64999962   -1.00000000    0.15000001    0.01000000
   19.65888786   -1.00000000    0.15000001    0.01000000
   19.66250038   -1.00000000    0.15000001    0.01000000
   19.66555595   -1.00000000    0.15000001    0.01000000
   19.66888809   -1.00000000    0.15000001    0.01000000
   19.67194366   -1.00000000    0.15000001    0.01000000
   19.67527771   -1.00000000    0.15000001    0.01000000
   19.67860985   -1.00000000    0.15000001    0.01000000
   19.68166542   -1.00000000    0.15000001    0.01000000
   19.68499947   -1.00000000    0.15000001    0.01000000
   19.68833160   -1.00000000    0.15000001    0.01000000
   19.69138718   -1.00000000    0.15000001    0.01000000
   19.69472122   -1.00000000    0.15000001    0.01000000
   19.69777679   -1.00000000    0.15000001    0.01000000
   19.70111275   -1.00000000    0.15000001    0.01000000
   19.71000099   -1.00000000    0.15000001    0.01000000
   19.71361160   -1.00000000    0.15000001    0.01000000
   19.71666718   -1.00000000    0.15000001    0.01000000
   19.72000122   -1.00000000    0.15000001    0.01000000
   19.72305679   -1.00000000    0.15000001    0.01000000
   19.72638893   -1.00000000    0.15000001    0.01000000
   19.72972298   -1.00000000    0.15000001    0.01000000
   19.73277855   -1.00000000    0.15000001    0.01000000
   19.73611069   -1.00000000    0.15000001    0.01000000
   19.73944473   -1.00000000    0.15000001    0.01000000
   19.74250031   -1.00000000    0.15000001    0.01000000
   19.74583435   -1.00000000    0.15000001    0.01000000
   19.74888992   -1.00000000    0.15000001    0.01000000
   19.75222206   -1.00000000    0.15000001    0.01000000
   19.76111031   -1.00000000    0.15000001    0.01000000
   19.76444435   -1.00000000    0.15000001    0.01000000
   19.76777840   -1.00000000    0.15000001    0.01000000
   19.77083397   -1.00000000    0.15000001    0.01000000
   19.77416611   -1.00000000    0.15000001    0.01000000
   19.77722168   -1.00000000    0.15000001    0.01000000
   19.78055573   -1.00000000    0.15000001    0.01000000
   19.78388786   -1.00000000    0.15000001    0.01000000
   19.78694344   -1.00000000    0.15000001    0.01000000
   19.79027748   -1.00000000    0.15000001    0.01000000
   19.79361153   -1.00000000    0.15000001    0.01000000
   19.79666710   -1.00000000    0.15000001    0.01000000
   19.79999924   -1.00000000    0.15000001    0.01000000
   19.80305481   -1.00000000    0.15000001    0.01000000
   19.81222153   -1.00000000    0.15000001    0.01000000
   19.81555557   -1.00000000    0.15000001    0.01000000
   19.81888962   -1.00000000    0.15000001    0.01000000
   19.82194519   -1.00000000    0.15000001    0.01000000
   19.82527924   -1.00000000    0.15000001    0.01000000
   19.82861137   -1.00000000    0.15000001    0.01000000
   19.83166695   -1.00000000    0.15000001    0.01000000
   19.83500099   -1.00000000    0.15000001    0.01000000
   19.83805656   -1.00000000    0.15000001    0.01000000
   19.84138870   -1.00000000    0.15000001    0.01000000
   19.84472275   -1.00000000    0.15000001    0.01000000
   19.84777832   -1.00000000    0.15000001    0.01000000
   19.85111237   -1.00000000    0.15000001    0.01000000
   19.85444450   -1.00000000    0.15000001    0.01000000
   19.86361122   -1.00000000    0.15000001    0.01000000
   19.86666679   -1.00000000    0.15000001    0.01000000
   19.87000084   -1.00000000    0.15000001    0.01000000
   19.87333298   -1.00000000    0.15000001    0.01000000
   19.87638855   -1.00000000    0.15000001    0.01000000
   19.87972260   -1.00000000    0.15000001    0.01000000
   19.88277817   -1.00000000    0.15000001    0.01000000
   19.88611031   -1.00000000    0.15000001    0.01000000
   19.88944435   -1.00000000    0.15000001    0.01000000
   19.89249992   -1.00000000    0.15000001    0.01000000
   19.89583397   -1.00000000    0.15000001    0.01000000
   19.89916611   -1.00000000    0.15000001    0.01000000
   19.90222168   -1.00000000    0.15000001    0.01000000
   19.90555573   -1.00000000    0.15000001    0.01000000
   19.91472244   -1.00000000    0.15000001    0.01000000
   19.91805458   -1.00000000    0.15000001    0.01000000
   19.92111015   -1.00000000    0.15000001    0.01000000
   19.92444420   -1.00000000    0.15000001    0.01000000
   19.92749977   -1.00000000    0.15000001    0.01000000
   19.93083191   -1.00000000    0.15000001    0.01000000
   19.93416595   -1.00000000    0.15000001    0.01000000
   19.93722153   -1.00000000    0.15000001    0.01000000
   19.94055557   -1.00000000    0.15000001    0.01000000
   19.94388771   -1.00000000    0.15000001    0.01000000
   19.94694328   -1.00000000    0.15000001    0.01000000
