    HOUR (UT)   FLARE FACTOR    SKY TESTER    SUN TESTER
   11.26611137   -1.00000000   -1.00000000   -1.00000000
   11.28888893   93.70349884    4.90999985    2.51999998
   11.29416752   86.03420258    4.90999985    2.53999996
   11.29805565   -1.00000000    4.90999985    2.53999996
   11.30111122   -1.00000000    4.90999985    2.53999996
   11.30444431   -1.00000000    4.90999985    2.53999996
   11.30777836   -1.00000000    4.90999985    2.53999996
   11.31083393   -1.00000000    4.90999985    2.53999996
   11.31416702   -1.00000000    4.90999985    2.53999996
   11.31722260   -1.00000000    4.90999985    2.55999994
   11.32055569   -1.00000000    4.90999985    2.53999996
   11.36527824   93.44280243    4.90999985    2.55999994
   11.36944485   93.68840027    4.90999985    2.55999994
   11.37333393   91.81629944    4.90999985    2.55999994
   11.37666702   89.02629852    4.90999985    2.55999994
   11.38000011   84.54599762    4.90999985    2.55999994
   11.38305569   92.16580200    4.90999985    2.55999994
   11.38666630   93.70469666    4.90999985    2.55999994
   11.39000034   94.38449860    4.90999985    2.55999994
   11.39388847   94.38449860    4.90999985    2.55999994
   11.39805508   88.58489990    4.90999985    2.57999992
   11.40138817   88.94370270    4.90999985    2.55999994
   11.40472221   93.03060150    4.90999985    2.57999992
   11.40777779   93.38939667    4.90999985    2.55999994
   11.41111088   86.72740173    4.90999985    2.57999992
   11.41444397   89.97239685    4.90999985    2.57999992
   11.41527748   89.66269684    4.90999985    2.55999994
   11.41805553   99.85500336    4.90999985    2.57999992
   11.42111111   92.46009827    4.90999985    2.55999994
   11.42444515   89.06349945    4.90999985    2.57999992
   11.42777824   88.72450256    4.90999985    2.57999992
   11.43083382   93.76399994    4.90999985    2.57999992
   11.43416691   92.50710297    4.90999985    2.55999994
   11.43722248   89.66459656    4.90999985    2.59999990
   11.44055557   93.13600159    4.90999985    2.57999992
   11.44527817   93.13600159    4.90999985    2.57999992
   11.44944477   91.87920380    4.90999985    2.59999990
   11.45249939   93.54250336    4.90999985    2.57999992
   11.45583344   88.68849945    4.90999985    2.57999992
   11.45916653   79.02320099    4.90999985    2.57999992
   11.46249962   87.00589752    4.90999985    2.57999992
   11.46527767   83.65180206    4.90999985    2.59999990
   11.46611118   81.12599945    4.90999985    2.59999990
   11.46916580   85.11329651    4.90999985    2.59999990
   11.47249985   80.34069824    4.90999985    2.59999990
   11.47555542   80.28410339    4.90999985    2.57999992
   11.47888851   87.63050079    4.90999985    2.59999990
   11.48222160   84.41429901    4.90999985    2.59999990
   11.48527813   81.51740265    4.90999985    2.57999992
   11.48861122   90.61830139    4.90999985    2.59999990
   11.49166679   75.05210114    4.90999985    2.57999992
   11.49638939   75.05210114    4.90999985    2.59999990
   11.50055599   88.72290039    4.90999985    2.59999990
   11.50361156   79.04679871    4.90999985    2.59999990
   11.50694466   88.04560089    4.90999985    2.59999990
   11.51027775   77.39109802    4.90999985    2.59999990
   11.51333332   81.94190216    4.90999985    2.59999990
   11.51527786   89.27259827    4.90999985    2.59999990
   11.51722240   84.04940033    4.90999985    2.59999990
   11.52027798   80.16709900    4.90999985    2.59999990
   11.52361107   82.76419830    4.90999985    2.59999990
   11.52666664   84.25319672    4.90999985    2.59999990
   11.52999973   88.15529633    4.90999985    2.59999990
   11.53333378   85.96430206    4.90999985    2.59999990
   11.53638935   80.46530151    4.90999985    2.61999989
   11.53972244   91.54160309    4.90999985    2.61999989
   11.54277802   82.20490265    4.90999985    2.61999989
   11.54750061   82.20490265    4.90999985    2.61999989
   11.55166721   81.28839874    4.90999985    2.61999989
   11.55500031   78.88919830    4.90999985    2.61999989
   11.55805588   84.82540131    4.90999985    2.61999989
   11.56138897   82.97000122    4.90999985    2.59999990
   11.56444454   85.08969879    4.90999985    2.61999989
   11.56527805   93.63379669    4.90999985    2.61999989
   11.56833363   83.47789764    4.90999985    2.61999989
   11.57138920   84.42579651    4.90999985    2.61999989
   11.57472229   88.18560028    4.90999985    2.61999989
   11.57777786   88.03559875    4.90999985    2.61999989
   11.58111095   79.88069916    4.90999985    2.61999989
   11.58444405   96.44719696    4.90999985    2.59999990
   11.58749962   82.95529938    4.90999985    2.61999989
   11.59111118   79.18910217    4.90999985    2.59999990
   11.59444427   79.79470062    4.90999985    2.61999989
   11.59861088   79.79470062    4.90999985    2.61999989
   11.60277843   88.54190063    4.90999985    2.64000010
   11.60611153   80.41449738    4.90999985    2.64000010
   11.60916710   89.51270294    4.90999985    2.61999989
   11.61250019   80.80090332    4.90999985    2.61999989
   11.61527824   82.48719788    4.90999985    2.61999989
   11.61611176   79.42600250    4.90999985    2.64000010
   11.61916637   83.40889740    4.90999985    2.61999989
   11.62250042   81.14289856    4.90999985    2.64000010
   11.62555599   90.30639648    4.90999985    2.64000010
   11.62888908   80.46669769    4.90999985    2.64000010
   11.63222218   80.12660217    4.90999985    2.61999989
   11.63527775   87.61109924    4.90999985    2.64000010
   11.63861084   81.75839996    4.90999985    2.64000010
   11.64166641   82.78379822    4.90999985    2.64000010
   11.64499950   79.43609619    4.90999985    2.66000009
   11.64999962   79.43609619    4.90999985    2.64000010
   11.65416622   89.18129730    4.90999985    2.64000010
   11.65722179   85.44930267    4.90999985    2.64000010
   11.66055489   86.88760376    4.90999985    2.64000010
   11.66361046   83.71109772    4.90999985    2.66000009
   11.66527748   91.50270081    4.90999985    2.66000009
   11.66750050   87.42790222    4.90999985    2.64000010
   11.67055607   78.31340027    4.90999985    2.66000009
   11.67388916   85.65399933    4.90999985    2.66000009
   11.67694473   81.14080048    4.90999985    2.64000010
   11.68027782   75.96510315    4.90999985    2.64000010
   11.68361092   84.60269928    4.90999985    2.66000009
   11.68666649   89.76770020    4.90999985    2.64000010
   11.69000053   80.72000122    4.90999985    2.66000009
   11.69305515   77.11049652    4.90999985    2.66000009
   11.69638920   75.26959991    4.90999985    2.66000009
   11.70111084   75.26959991    4.90999985    2.64000010
   11.70527744   83.33660126    4.90999985    2.64000010
   11.70833302   84.85489655    4.90999985    2.64000010
   11.71166611   80.11609650    4.90999985    2.66000009
   11.71472168   81.71070099    4.90999985    2.64000010
   11.71555519   80.33170319    4.90999985    2.64000010
   11.71833324   81.43190002    4.90999985    2.66000009
   11.72166634   79.05840302    4.90999985    2.66000009
   11.72499943   77.13459778    4.90999985    2.66000009
   11.72805500   79.67230225    4.90999985    2.66000009
   11.73138809   81.16390228    4.90999985    2.66000009
   11.73444462   81.26540375    4.90999985    2.66000009
   11.73777771   75.69580078    4.90999985    2.66000009
   11.74083328   78.44529724    4.90999985    2.66000009
   11.74416733   78.22640228    4.90999985    2.67000008
   11.74750042   77.76660156    4.90999985    2.67000008
   11.75222206   77.76660156    4.90999985    2.67000008
   11.75638866   75.72250366    4.90999985    2.67000008
   11.75972176   79.53279877    4.90999985    2.67000008
   11.76277733   82.68759918    4.90999985    2.67000008
   11.76555538   74.78430176    4.90999985    2.66000009
   11.76638889   76.58219910    4.90999985    2.67000008
   11.76972198   78.12220001    4.90999985    2.67000008
   11.77305508   75.01789856    4.90999985    2.67000008
   11.77611065   77.94229889    4.90999985    2.67000008
   11.77944374   76.91269684    4.90999985    2.67000008
   11.78249931   76.00859833    4.90999985    2.69000006
   11.78583336   80.71749878    4.90999985    2.69000006
   11.78888893   74.84860229    4.90999985    2.69000006
   11.79222298   75.45210266    4.90999985    2.67000008
   11.79555607   74.99320221    4.90999985    2.66000009
   11.79861164   75.24430084    4.90999985    2.67000008
   11.80333328   75.24430084    4.90999985    2.67000008
   11.80749989   77.03540039    4.90999985    2.67000008
   11.81083393   77.75000000    4.90999985    2.69000006
   11.81388950   80.61470032    4.90999985    2.69000006
   11.81555557   80.17960358    4.90999985    2.69000006
   11.81750011   76.80090332    4.90999985    2.69000006
   11.82083321   75.48549652    4.90999985    2.69000006
   11.82416630   77.32620239    4.90999985    2.69000006
   11.82722187   77.81490326    4.90999985    2.69000006
   11.83055592   83.12899780    4.90999985    2.69000006
   11.83361053   76.31469727    4.90999985    2.69000006
   11.83694458   83.72709656    4.90999985    2.69000006
   11.84027767   84.14880371    4.90999985    2.67000008
   11.84333324   82.18099976    4.90999985    2.69000006
   11.84666634   78.27960205    4.90999985    2.69000006
   11.84972191   77.20659637    4.90999985    2.69000006
   11.85472298   77.20659637    4.90999985    2.69000006
   11.85861111   76.92220306    4.90999985    2.69000006
   11.86194515   76.52510071    4.90999985    2.67000008
   11.86527824   75.73110199    4.90999985    2.69000006
   11.86583328   75.25879669    4.90999985    2.69000006
   11.86861134   73.48699951    4.90999985    2.67000008
   11.87194443   74.71880341    4.90999985    2.69000006
   11.87527752   74.38619995    4.90999985    2.69000006
   11.87833309   77.71990204    4.90999985    2.69000006
   11.88166714   75.67050171    4.90999985    2.69000006
   11.88472176   76.67230225    4.90999985    2.69000006
   11.88805580   77.42530060    4.90999985    2.69000006
   11.89138889   80.16200256    4.90999985    2.69000006
   11.89444447   74.78150177    4.90999985    2.69000006
   11.89777756   77.65319824    4.90999985    2.69000006
   11.90111065   77.14099884    4.90999985    2.69000006
   11.90583324   77.14099884    4.90999985    2.69000006
   11.90999985   78.73609924    4.90999985    2.69000006
   11.91305542   79.62229919    4.90999985    2.71000004
   11.91583252   76.46900177    4.90999985    2.71000004
   11.91666698   76.46209717    4.90999985    2.71000004
   11.92000008   75.32579803    4.90999985    2.71000004
   11.92333412   78.86550140    4.90999985    2.71000004
   11.92638874   75.22920227    4.90999985    2.71000004
   11.92972279   74.95469666    4.90999985    2.71000004
   11.93305588   78.50530243    4.90999985    2.71000004
   11.93611145   82.31340027    4.90999985    2.71000004
   11.93944454   79.65399933    4.90999985    2.71000004
   11.94277763   78.05069733    4.90999985    2.69000006
   11.94583321   76.02690125    4.90999985    2.69000006
   11.94916630   81.67310333    4.90999985    2.71000004
   11.95222187   79.44069672    4.90999985    2.71000004
   11.95694447   79.44069672    4.90999985    2.71000004
   11.96111107   79.37719727    4.90999985    2.69000006
   11.96444416   76.97720337    4.90999985    2.71000004
   11.96583271   75.36859894    4.90999985    2.71000004
   11.96805477   81.09049988    4.90999985    2.71000004
   11.97111034   81.76300049    4.90999985    2.71000004
   11.97444439   80.11090088    4.90999985    2.71000004
   11.97749996   78.07189941    4.90999985    2.71000004
   11.98083305   76.94519806    4.90999985    2.71000004
   11.98416710   76.90699768    4.90999985    2.71000004
   11.98722267   75.36389923    4.90999985    2.71000004
   11.99055576   74.27230072    4.90999985    2.71000004
   11.99388885   75.44210052    4.90999985    2.71000004
   11.99694443   79.68350220    4.90999985    2.71000004
   12.00027752   83.56230164    4.90999985    2.69000006
   12.00361156   82.46140289    4.90999985    2.71000004
   12.00805569   82.46140289    4.90999985    2.69000006
   12.01222229   82.85679626    4.90999985    2.71000004
   12.01555538   75.85459900    4.90999985    2.73000002
   12.01611137   80.31649780    4.90999985    2.71000004
   12.01944447   74.47740173    4.90999985    2.71000004
   12.02250004   79.79319763    4.90999985    2.71000004
   12.02583313   74.83519745    4.90999985    2.71000004
   12.02916622   78.69670105    4.90999985    2.71000004
   12.03222179   82.52089691    4.90999985    2.71000004
   12.03555584   75.79530334    4.90999985    2.73000002
   12.03861141   74.93540192    4.90999985    2.73000002
   12.04194450   79.08219910    4.90999985    2.71000004
   12.04527855   82.46060181    4.90999985    2.71000004
   12.04833412   76.74839783    4.90999985    2.71000004
   12.05166721   86.20130157    4.90999985    2.73000002
   12.05500031   79.50869751    4.90999985    2.71000004
   12.05944443   79.50869751    4.90999985    2.73000002
   12.06361103   75.13240051    4.90999985    2.71000004
   12.06611156   74.67980194    4.90999985    2.73000002
   12.06694412   78.35540009    4.90999985    2.71000004
   12.07027817   76.67649841    4.90999985    2.71000004
   12.07361126   84.61509705    4.90999985    2.73000002
   12.07666683   84.40460205    4.90999985    2.71000004
   12.07999992   77.52680206    4.90999985    2.71000004
   12.08333302   74.00430298    4.90999985    2.71000004
   12.08638859   75.11710358    4.90999985    2.73000002
   12.08972168   75.27220154    4.90999985    2.71000004
   12.09277725   76.30889893    4.90999985    2.73000002
   12.09611034   81.45850372    4.90999985    2.73000002
   12.09944439   79.43119812    4.90999985    2.73000002
   12.10249996   76.28410339    4.90999985    2.73000002
   12.10583401   81.75890350    4.90999985    2.73000002
   12.11055565   81.75890350    4.90999985    2.73000002
   12.11472225   79.45140076    4.90999985    2.73000002
   12.11611176   74.09449768    4.90999985    2.75000000
   12.11833382   75.94059753    4.90999985    2.73000002
   12.12138939   77.85169983    4.90999985    2.73000002
   12.12472248   78.82119751    4.90999985    2.75000000
   12.12777805   78.04779816    4.90999985    2.75000000
   12.13111115   77.09860229    4.90999985    2.73000002
   12.13444424   82.20829773    4.90999985    2.73000002
   12.13749981   76.21389771    4.90999985    2.73000002
   12.14527798   79.20120239    4.90999985    2.73000002
   12.15027714   75.35440063    4.90999985    2.75000000
   12.15361118   79.19770050    4.90999985    2.73000002
   12.15666676   77.97200012    4.90999985    2.75000000
   12.16166592   77.97200012    4.90999985    2.75000000
   12.16583252   78.52590179    4.90999985    2.75000000
   12.16638851   76.59999847    4.90999985    2.75000000
   12.16972256   78.80169678    4.90999985    2.75000000
   12.17277813   76.71800232    4.90999985    2.75000000
   12.17611122   76.54309845    4.90999985    2.75000000
   12.17944431   76.59570313    4.90999985    2.75000000
   12.18249989   73.32569885    4.90999985    2.75000000
   12.18583298   77.77919769    4.90999985    2.73000002
   12.18888855   75.98680115    4.90999985    2.76999998
   12.19222260   73.28990173    4.90999985    2.73000002
   12.19555569   77.21520233    4.90999985    2.75000000
   12.19861126   79.66560364    4.90999985    2.73000002
   12.20194435   75.14009857    4.90999985    2.73000002
   12.20527744   81.90350342    4.90999985    2.73000002
   12.20833302   78.41950226    4.90999985    2.73000002
   12.21277714   78.41950226    4.90999985    2.73000002
   12.21694374   81.08010101    4.90999985    2.75000000
   12.22027779   76.73719788    4.90999985    2.73000002
   12.22361088   76.64779663    4.90999985    2.73000002
   12.22666645   77.95089722    4.90999985    2.75000000
   12.22999954   77.47180176    4.90999985    2.75000000
   12.23305511   77.71350098    4.90999985    2.75000000
   12.23638916   79.42800140    4.90999985    2.75000000
   12.23972225   78.38929749    4.90999985    2.76999998
   12.24277782   73.63089752    4.90999985    2.75000000
   12.24611092   74.88710022    4.90999985    2.75000000
   12.24944496   81.05030060    4.90999985    2.75000000
   12.25277805   76.53140259    4.90999985    2.76999998
   12.25583363   75.70809937    4.90999985    2.76999998
   12.25916672   74.19609833    4.90999985    2.76999998
   12.26416683   74.19609833    4.90999985    2.78999996
   12.26805496   76.24379730    4.90999985    2.76999998
   12.27138901   77.84590149    4.90999985    2.75000000
   12.27472210   73.38189697    4.90999985    2.75000000
   12.27777767   72.71990204    4.90999985    2.75000000
   12.28111076   77.04540253    4.90999985    2.75000000
   12.28444481   77.66280365    4.90999985    2.75000000
   12.28750038   80.40319824    4.90999985    2.76999998
   12.29083347   77.18650055    4.90999985    2.75000000
   12.29416752   80.67019653    4.90999985    2.75000000
   12.29722309   72.38320160    4.90999985    2.76999998
   12.30055618   80.13439941    4.90999985    2.76999998
   12.30361176   75.62770081    4.90999985    2.76999998
   12.30694485   75.33660126    4.90999985    2.76999998
   12.31027794   77.93789673    4.90999985    2.76999998
   12.31527805   77.93789673    4.90999985    2.76999998
   12.31944466   77.36789703    4.90999985    2.76999998
   12.32250023   76.59110260    4.90999985    2.76999998
   12.32583332   76.26010132    4.90999985    2.78999996
   12.32916641   77.98629761    4.90999985    2.78999996
   12.33222198   74.09729767    4.90999985    2.78999996
   12.33555508   77.86910248    4.90999985    2.78999996
   12.33888817   75.91049957    4.90999985    2.78999996
   12.34222221   75.74729919    4.90999985    2.76999998
   12.34527779   72.47260284    4.90999985    2.76999998
   12.34861088   78.11609650    4.90999985    2.76999998
   12.35166740   77.81210327    4.90999985    2.76999998
   12.35500050   77.05529785    4.90999985    2.76999998
   12.35833359   78.79730225    4.90999985    2.75000000
   12.36138916   73.07029724    4.90999985    2.76999998
   12.38222218   64.51989746    4.90999985    2.78999996
   12.38277817   66.54139709    4.90999985    2.78999996
   12.38583279   77.40000153    4.90999985    2.76999998
   12.38916683   76.67130280    4.90999985    2.76999998
   12.39249992   76.56890106    4.90999985    2.76999998
   12.39555550   72.12220001    4.90999985    2.78999996
   12.39888859   75.77459717    4.90999985    2.78999996
   12.40222168   76.05249786    4.90999985    2.78999996
   12.40527725   72.78109741    4.90999985    2.78999996
   12.40861034   76.00859833    4.90999985    2.80999994
   12.41194439   75.06539917    4.90999985    2.78999996
   12.41750050   75.06539917    4.90999985    2.76999998
   12.42166710   75.80760193    4.90999985    2.78999996
   12.42500019   75.53720093    4.90999985    2.78999996
   12.42805576   75.39369965    4.90999985    2.76999998
   12.43138885   77.02940369    4.90999985    2.78999996
   12.43222237   74.10749817    4.90999985    2.78999996
   12.43500042   76.50160217    4.90999985    2.78999996
   12.43833351   73.82489777    4.90999985    2.80999994
   12.44138908   75.38539886    4.90999985    2.78999996
   12.44472218   75.23079681    4.90999985    2.80999994
   12.44777775   75.31839752    4.90999985    2.80999994
   12.45111084   71.52690125    4.90999985    2.80999994
   12.45444393   74.26409912    4.90999985    2.80999994
   12.45749950   71.18199921    4.90999985    2.78999996
   12.46083355   73.17359924    4.90999985    2.80999994
   12.46416664   75.09999847    4.90999985    2.82999992
   12.46888828   75.09999847    4.90999985    2.78999996
   12.47277737   76.04689789    4.90999985    2.80999994
   12.47611046   74.41329956    4.90999985    2.80999994
   12.47944355   74.72630310    4.90999985    2.80999994
   12.48222160   76.39779663    4.90999985    2.80999994
   12.48305511   75.40869904    4.90999985    2.82999992
   12.48638916   75.45829773    4.90999985    2.80999994
   12.48944473   76.83779907    4.90999985    2.80999994
   12.49277782   74.78350067    4.90999985    2.78999996
   12.49583340   74.57820129    4.90999985    2.78999996
   12.49916649   74.97949982    4.90999985    2.80999994
   12.50249958   74.76470184    4.90999985    2.80999994
   12.50555515   75.47550201    4.90999985    2.82999992
   12.50888920   73.19889832    4.90999985    2.80999994
   12.51222229   78.13069916    4.90999985    2.80999994
   12.51527786   75.22019958    4.90999985    2.80999994
   12.51999950   75.22019958    4.90999985    2.80999994
   12.52416611   75.20320129    4.90999985    2.78999996
   12.52722168   77.44640350    4.90999985    2.80999994
   12.53055573   75.86460114    4.90999985    2.80999994
   12.53222179   75.70469666    4.90999985    2.80999994
   12.53416729   76.42389679    4.90999985    2.80999994
   12.53750038   76.51679993    4.90999985    2.80999994
   12.54055595   78.38369751    4.90999985    2.78999996
   12.54388905   76.10079956    4.90999985    2.80999994
   12.54694462   75.91539764    4.90999985    2.80999994
   12.55027771   75.47879791    4.90999985    2.80999994
   12.55361176   74.68939972    4.90999985    2.80999994
   12.55666733   74.87699890    4.90999985    2.80999994
   12.56000042   74.12370300    4.90999985    2.80999994
   12.56305599   76.30979919    4.90999985    2.80999994
   12.56638908   75.50460052    4.90999985    2.80999994
   12.57111073   75.50460052    4.90999985    2.82999992
   12.57527733   78.27120209    4.90999985    2.80999994
   12.57861137   71.80200195    4.90999985    2.80999994
   12.58166695   78.09249878    4.90999985    2.80999994
   12.58222198   75.34649658    4.90999985    2.80999994
   12.58527756   78.30249786    4.90999985    2.80999994
   12.58861065   77.70210266    4.90999985    2.80999994
   12.59166622   75.84100342    4.90999985    2.80999994
   12.59499931   75.51090240    4.90999985    2.80999994
   12.59833336   74.82170105    4.90999985    2.80999994
   12.60138893   77.75550079    4.90999985    2.80999994
   12.60472298   77.68370056    4.90999985    2.78999996
   12.60777855   74.31089783    4.90999985    2.80999994
   12.61111164   80.21790314    4.90999985    2.82999992
   12.61444473   75.34190369    4.90999985    2.80999994
   12.61750031   76.10720062    4.90999985    2.80999994
   12.62222195   76.10720062    4.90999985    2.80999994
   12.62638855   74.43769836    4.90999985    2.80999994
   12.62972260   74.55960083    4.90999985    2.82999992
   12.63222218   74.45529938    4.90999985    2.80999994
   12.63333321   72.56079865    4.90999985    2.80999994
   12.63666630   73.60870361    4.90999985    2.80999994
   12.63972187   74.27020264    4.90999985    2.80999994
   12.64305496   72.77169800    4.90999985    2.82999992
   12.64611053   78.41220093    4.90999985    2.82999992
   12.64944458   75.62020111    4.90999985    2.82999992
   12.65277767   76.65840149    4.90999985    2.82999992
   12.65583324   74.57160187    4.90999985    2.80999994
   12.65916634   78.24600220    4.90999985    2.82999992
   12.66249943   74.97750092    4.90999985    2.82999992
   12.66555500   79.12719727    4.90999985    2.82999992
   12.66888905   77.16359711    4.90999985    2.82999992
   12.67361164   77.16359711    4.90999985    2.82999992
   12.67777824   77.00800323    4.90999985    2.82999992
   12.68083382   75.76029968    4.90999985    2.82999992
   12.68222237   72.60839844    4.90999985    2.80999994
   12.68444443   82.16960144    4.90999985    2.80999994
   12.68777752   77.39530182    4.90999985    2.80999994
   12.69083309   77.50170135    4.90999985    2.82999992
   12.69416714   74.47940063    4.90999985    2.82999992
   12.69750023   75.28890228    4.90999985    2.78999996
   12.70055580   77.47720337    4.90999985    2.82999992
   12.70388889   79.40570068    4.90999985    2.80999994
   12.70694447   77.24530029    4.90999985    2.82999992
   12.71027756   75.77149963    4.90999985    2.82999992
   12.71361065   74.30509949    4.90999985    2.82999992
   12.71666622   77.37000275    4.90999985    2.82999992
   12.71999931   74.29270172    4.90999985    2.82999992
   12.72472191   74.29270172    4.90999985    2.82999992
   12.72888851   76.62310028    4.90999985    2.82999992
   12.73194408   77.67910004    4.90999985    2.82999992
   12.73249912   78.99410248    4.90999985    2.82999992
   12.73583317   76.97969818    4.90999985    2.82999992
   12.73916721   73.85510254    4.90999985    2.82999992
   12.74222279   74.17919922    4.90999985    2.82999992
   12.74555588   79.44979858    4.90999985    2.82999992
   12.74888897   77.26139832    4.90999985    2.82999992
   12.75194454   81.96669769    4.90999985    2.82999992
   12.75527763   75.93350220    4.90999985    2.82999992
   12.75833321   76.59839630    4.90999985    2.82999992
   12.76166630   75.18309784    4.90999985    2.82999992
   12.76500034   78.48349762    4.90999985    2.82999992
   12.76805496   75.28869629    4.90999985    2.82999992
   12.77138901   76.38569641    4.90999985    2.84999990
   12.77583313   76.38569641    4.90999985    2.84999990
   12.77999973   74.61550140    4.90999985    2.82999992
   12.78249931   77.01609802    4.90999985    2.84999990
   12.78361130   74.25270081    4.90999985    2.84999990
   12.78694534   73.00890350    4.90999985    2.84999990
   12.79000092   76.32800293    4.90999985    2.84999990
   12.79333401   73.47100067    4.90999985    2.84999990
   12.79666710   78.02760315    4.90999985    2.84999990
   12.79972267   75.60839844    4.90999985    2.84999990
   12.80305576   71.96630096    4.90999985    2.84999990
   12.80611134   74.17839813    4.90999985    2.84999990
   12.80944443   75.51370239    4.90999985    2.84999990
   12.81277752   80.21170044    4.90999985    2.86999989
   12.81583309   71.81459808    4.90999985    2.86999989
   12.81916618   75.14679718    4.90999985    2.86999989
   12.82250023   77.62629700    4.90999985    2.86999989
   12.82694435   77.62629700    4.90999985    2.84999990
   12.83111095   73.93109894    4.90999985    2.84999990
   12.83249950   77.97160339    4.90999985    2.84999990
   12.83472157   74.10340118    4.90999985    2.84999990
   12.83805561   73.26490021    4.90999985    2.84999990
   12.84111118   74.12180328    4.90999985    2.84999990
   12.84444427   74.30590057    4.90999985    2.84999990
   12.84777737   75.20629883    4.90999985    2.84999990
   12.85083389   81.36699677    4.90999985    2.84999990
   12.85416698   75.95929718    4.90999985    2.82999992
   12.85722256   75.47019958    4.90999985    2.84999990
   12.86055565   74.83049774    4.90999985    2.84999990
   12.86388969   73.89399719    4.90999985    2.84999990
   12.86694431   73.76210022    4.90999985    2.82999992
   12.87027836   76.73770142    4.90999985    2.82999992
   12.87361145   75.40059662    4.90999985    2.84999990
   12.87833309   75.40059662    4.90999985    2.82999992
   12.88222218   80.51779938    4.90999985    2.84999990
   12.88277817   76.15519714    4.90999985    2.84999990
   12.88611126   75.45140076    4.90999985    2.82999992
   12.88944435   75.68379974    4.90999985    2.82999992
   12.89249992   76.83640289    4.90999985    2.84999990
   12.89583302   75.67780304    4.90999985    2.82999992
   12.89916611   73.76920319    4.90999985    2.86999989
   12.90222168   76.35150146    4.90999985    2.84999990
   12.90555477   76.06289673    4.90999985    2.84999990
   12.90861034   74.28869629    4.90999985    2.84999990
   12.91194439   72.80590057    4.90999985    2.84999990
   12.91527748   76.91580200    4.90999985    2.86999989
   12.91833401   70.77089691    4.90999985    2.84999990
   12.92166710   77.19539642    4.90999985    2.84999990
   12.92500019   73.71230316    4.90999985    2.84999990
   12.92944431   73.71230316    4.90999985    2.84999990
   12.93361092   77.05819702    4.90999985    2.84999990
   12.93666649   72.16960144    4.90999985    2.84999990
   12.94000053   74.15550232    4.90999985    2.84999990
   12.94333363   71.95860291    4.90999985    2.84999990
   12.94638920   75.76460266    4.90999985    2.84999990
   12.94972229   77.18000031    4.90999985    2.86999989
   12.95305538   76.57219696    4.90999985    2.84999990
   12.95611095   73.78839874    4.90999985    2.86999989
   12.95944405   73.24120331    4.90999985    2.84999990
   12.96249962   73.31950378    4.90999985    2.84999990
   12.96583271   79.02999878    4.90999985    2.86999989
   12.96916580   72.69930267    4.90999985    2.89000010
   12.97222137   80.28389740    4.90999985    2.86999989
   12.97555542   75.69750214    4.90999985    2.86999989
   12.98055553   75.69750214    4.90999985    2.84999990
   12.98472214   74.66380310    4.90999985    2.86999989
   12.98805618   73.51300049    4.90999985    2.84999990
   12.99138927   77.39330292    4.90999985    2.86999989
   12.99444485   78.11920166    4.90999985    2.84999990
   12.99777794   77.01190186    4.90999985    2.84999990
   13.00083351   74.65399933    4.90999985    2.86999989
   13.00416660   78.34040070    4.90999985    2.86999989
   13.00749969   79.59069824    4.90999985    2.86999989
   13.01055527   76.61460114    4.90999985    2.84999990
   13.01388931   75.00610352    4.90999985    2.84999990
   13.01722240   73.98819733    4.90999985    2.84999990
   13.02027798   74.74510193    4.90999985    2.84999990
   13.02361107   76.22720337    4.90999985    2.86999989
   13.02666664   77.03730011    4.90999985    2.84999990
   13.03166676   77.03730011    4.90999985    2.84999990
   13.03583336   76.57230377    4.90999985    2.84999990
   13.03916740   74.99079895    4.90999985    2.86999989
   13.04250050   79.21009827    4.90999985    2.84999990
   13.04555607   76.24739838    4.90999985    2.84999990
   13.04888916   74.03379822    4.90999985    2.84999990
   13.05194473   72.89459991    4.90999985    2.84999990
   13.05527782   73.62030029    4.90999985    2.86999989
   13.05861092   75.04239655    4.90999985    2.84999990
   13.06166649   74.13600159    4.90999985    2.86999989
   13.06500053   74.18530273    4.90999985    2.86999989
   13.06833363   75.60299683    4.90999985    2.84999990
   13.07138920   73.24620056    4.90999985    2.86999989
   13.07472229   71.35649872    4.90999985    2.86999989
   13.07805538   74.82219696    4.90999985    2.86999989
   13.08305550   74.82219696    4.90999985    2.86999989
   13.08694458   73.91649628    4.90999985    2.89000010
   13.09027767   72.22229767    4.90999985    2.89000010
   13.09361076   74.73829651    4.90999985    2.86999989
   13.09666634   75.12909698    4.90999985    2.86999989
   13.10000038   73.10990143    4.90999985    2.86999989
   13.10333347   72.70839691    4.90999985    2.86999989
   13.10638905   76.29460144    4.90999985    2.86999989
   13.10972214   77.12680054    4.90999985    2.89000010
   13.11277771   76.75420380    4.90999985    2.86999989
   13.11611176   74.89479828    4.90999985    2.86999989
   13.11944485   74.02050018    4.90999985    2.86999989
   13.12250042   75.36309814    4.90999985    2.89000010
   13.12583351   73.94390106    4.90999985    2.86999989
   13.12916660   73.37180328    4.90999985    2.86999989
   13.13416672   73.37180328    4.90999985    2.86999989
   13.13833332   78.04060364    4.90999985    2.86999989
   13.14138889   75.58429718    4.90999985    2.86999989
   13.14472198   74.23680115    4.90999985    2.86999989
   13.14805508   73.36810303    4.90999985    2.89000010
   13.15111065   72.42510223    4.90999985    2.86999989
   13.15444374   73.68049622    4.90999985    2.86999989
   13.15777779   78.22029877    4.90999985    2.86999989
   13.16083336   84.14530182    4.90999985    2.86999989
   13.16416645   74.12740326    4.90999985    2.86999989
   13.16722298   74.05680084    4.90999985    2.86999989
   13.17055607   77.77339935    4.90999985    2.86999989
   13.17388916   80.13890076    4.90999985    2.86999989
   13.17694473   72.87300110    4.90999985    2.89000010
   13.18027782   75.30180359    4.90999985    2.89000010
   13.18527794   75.30180359    4.90999985    2.89000010
   13.18944454   76.21910095    4.90999985    2.89000010
   13.19277763   73.45729828    4.90999985    2.86999989
   13.19583321   72.35900116    4.90999985    2.86999989
   13.19916630   80.65509796    4.90999985    2.89000010
   13.20222187   71.62449646    4.90999985    2.86999989
   13.20555496   73.57830048    4.90999985    2.86999989
   13.20888901   75.02069855    4.90999985    2.86999989
   13.21194458   72.20790100    4.90999985    2.86999989
   13.21527767   73.69439697    4.90999985    2.86999989
   13.21861076   76.53890228    4.90999985    2.86999989
   13.22166634   75.80829620    4.90999985    2.86999989
   13.22499943   71.15049744    4.90999985    2.89000010
   13.22805500   72.39420319    4.90999985    2.89000010
   13.23138809   76.91760254    4.90999985    2.89000010
   13.23638916   76.91760254    4.90999985    2.89000010
   13.24055576   76.81099701    4.90999985    2.86999989
   13.24388885   72.66390228    4.90999985    2.89000010
   13.24694443   72.67500305    4.90999985    2.86999989
   13.25027752   73.95040131    4.90999985    2.86999989
   13.25361156   74.46589661    4.90999985    2.86999989
   13.25666714   74.29540253    4.90999985    2.86999989
   13.26000023   77.52239990    4.90999985    2.86999989
   13.26333332   73.14379883    4.90999985    2.89000010
   13.26638889   74.16249847    4.90999985    2.86999989
   13.26972198   77.10489655    4.90999985    2.86999989
   13.27305508   80.22010040    4.90999985    2.86999989
   13.27611065   75.81330109    4.90999985    2.84999990
   13.27944374   81.98329926    4.90999985    2.86999989
   13.28249931   78.84239960    4.90999985    2.86999989
   13.28777790   78.84239960    4.90999985    2.86999989
   13.29166698   74.89910126    4.90999985    2.86999989
   13.29555607   77.45420074    4.90999985    2.86999989
   13.29916668   84.26080322    4.90999985    2.86999989
   13.30222225   76.81670380    4.90999985    2.89000010
   13.30555534   79.10240173    4.90999985    2.89000010
   13.30861092   75.78019714    4.90999985    2.89000010
   13.31194496   78.91059875    4.90999985    2.89000010
   13.31527805   76.61990356    4.90999985    2.89000010
   13.31833363   75.57839966    4.90999985    2.89000010
   13.32166672   77.86260223    4.90999985    2.89000010
   13.32499981   79.09940338    4.90999985    2.89000010
   13.32805538   81.28160095    4.90999985    2.89000010
   13.33138847   77.57350159    4.90999985    2.89000010
   13.33472157   74.31250000    4.90999985    2.91000009
   13.33888817   74.31250000    4.90999985    2.89000010
   13.34333324   72.45349884    4.90999985    2.91000009
   13.34666634   72.26809692    4.90999985    2.89000010
   13.34972191   77.60790253    4.90999985    2.89000010
   13.35305595   72.62509918    4.90999985    2.89000010
   13.35638905   74.82070160    4.90999985    2.89000010
   13.35944462   71.93049622    4.90999985    2.89000010
   13.36277771   73.35910034    4.90999985    2.89000010
   13.36583328   73.54419708    4.90999985    2.89000010
   13.36916637   72.15499878    4.90999985    2.91000009
   13.37250042   78.05329895    4.90999985    2.89000010
   13.37555599   73.36769867    4.90999985    2.89000010
   13.37888908   77.03810120    4.90999985    2.91000009
   13.38194466   73.22280121    4.90999985    2.89000010
   13.40277767   73.22280121    4.90999985    2.89000010
   13.40694427   75.52780151    4.90999985    2.89000010
   13.40999985   71.83029938    4.90999985    2.89000010
   13.41333294   72.60269928    4.90999985    2.86999989
   13.41666698   74.97319794    4.90999985    2.86999989
   13.41972256   72.99859619    4.90999985    2.86999989
   13.42305565   72.48639679    4.90999985    2.86999989
   13.42611122   76.46340179    4.90999985    2.86999989
   13.42944431   74.84190369    4.90999985    2.89000010
   13.43277836   72.11910248    4.90999985    2.86999989
   13.43583298   73.72219849    4.90999985    2.89000010
   13.43916702   75.55110168    4.90999985    2.89000010
   13.44250011   76.02480316    4.90999985    2.91000009
   13.44555569   79.85079956    4.90999985    2.91000009
   13.44888878   72.55979919    4.90999985    2.91000009
   13.45027733   73.13400269    4.90999985    2.91000009
   13.45444393   73.13400269    4.90999985    2.89000010
   13.45861053   71.46759796    4.90999985    2.91000009
   13.46166611   76.51200104    4.90999985    2.91000009
   13.46500015   77.81690216    4.90999985    2.91000009
   13.46805477   71.84420013    4.90999985    2.91000009
   13.47138882   79.33570099    4.90999985    2.91000009
   13.47472191   74.44000244    4.90999985    2.91000009
   13.47777748   70.99160004    4.90999985    2.91000009
   13.48111057   74.27600098    4.90999985    2.91000009
   13.48444462   73.61730194    4.90999985    2.91000009
   13.48750019   73.34629822    4.90999985    2.91000009
   13.49083328   74.81179810    4.90999985    2.91000009
   13.49388885   72.35890198    4.90999985    2.91000009
   13.49722290   72.38619995    4.90999985    2.91000009
   13.50055599   75.11260223    4.90999985    2.91000009
   13.50111103   72.30590057    4.90999985    2.91000009
   13.50583363   72.30590057    4.90999985    2.91000009
   13.51000023   74.08570099    4.90999985    2.91000009
   13.51305580   72.19770050    4.90999985    2.91000009
   13.51638889   78.52279663    4.90999985    2.89000010
   13.51972198   71.03199768    4.90999985    2.89000010
   13.52277756   73.34410095    4.90999985    2.89000010
   13.52611065   73.06340027    4.90999985    2.89000010
   13.52944374   75.66220093    4.90999985    2.86999989
   13.53249931   74.76709747    4.90999985    2.89000010
   13.53583336   80.26399994    4.90999985    2.89000010
   13.53888893   79.07589722    4.90999985    2.89000010
   13.54222298   73.00830078    4.90999985    2.89000010
   13.54555607   75.14790344    4.90999985    2.91000009
   13.54861164   73.78089905    4.90999985    2.89000010
   13.55027771   79.72100067    4.90999985    2.91000009
   13.55222225   73.19580078    4.90999985    2.86999989
   13.55694485   73.19580078    4.90999985    2.89000010
   13.56083393   73.95770264    4.90999985    2.89000010
   13.56416702   72.83499908    4.90999985    2.89000010
   13.56750011   72.65840149    4.90999985    2.89000010
   13.57055569   73.04959869    4.90999985    2.89000010
   13.57388878   72.93340302    4.90999985    2.89000010
   13.57694435   75.25569916    4.90999985    2.91000009
   13.58027744   73.37319946    4.90999985    2.86999989
   13.58361053   74.48380280    4.90999985    2.89000010
   13.58666611   73.72609711    4.90999985    2.89000010
   13.59000015   71.85829926    4.90999985    2.86999989
   13.59333324   79.95819855    4.90999985    2.86999989
   13.59638882   72.23870087    4.90999985    2.86999989
   13.59972191   74.92870331    4.90999985    2.86999989
   13.60027790   74.79270172    4.90999985    2.89000010
   13.60305595   73.60880280    4.90999985    2.86999989
   13.60805607   73.60880280    4.90999985    2.89000010
   13.61222267   75.93219757    4.90999985    2.86999989
   13.61527824   73.55590057    4.90999985    2.89000010
   13.61861134   73.69020081    4.90999985    2.86999989
   13.62166691   75.94550323    4.90999985    2.89000010
   13.62500000   75.25579834    4.90999985    2.86999989
   13.62833309   81.58149719    4.90999985    2.86999989
   13.63138866   74.56230164    4.90999985    2.89000010
   13.63472176   75.00939941    4.90999985    2.89000010
   13.63805580   80.12429810    4.90999985    2.89000010
   13.64111137   73.27700043    4.90999985    2.89000010
   13.64444447   76.06559753    4.90999985    2.91000009
   13.64750004   83.18650055    4.90999985    2.91000009
   13.65027714   79.88690186    4.90999985    2.91000009
   13.65138817   73.23300171    4.90999985    2.91000009
   13.65444374   75.99600220    4.90999985    2.89000010
   13.65916634   75.99600220    4.90999985    2.89000010
   13.66333294   80.46369934    4.90999985    2.89000010
   13.66638851   77.89769745    4.90999985    2.89000010
   13.66972256   74.61170197    4.90999985    2.89000010
   13.67305565   74.67630005    4.90999985    2.89000010
   13.67638874   76.01740265    4.90999985    2.89000010
   13.67944431   79.22509766    4.90999985    2.89000010
   13.68277836   78.02799988    4.90999985    2.89000010
   13.68583298   78.92169952    4.90999985    2.91000009
   13.68916702   72.76580048    4.90999985    2.91000009
   13.80194473   -1.00000000   -1.00000000   -1.00000000
   13.90749931   -1.00000000   -1.00000000   -1.00000000
   14.00888920   -1.00000000   -1.00000000   -1.00000000
   14.05666733   67.84909821    4.90999985    2.86999989
   14.06000042   76.29869843    4.90999985    2.89000010
   14.06333351   77.74939728    4.90999985    2.89000010
   14.06638908   74.42569733    4.90999985    2.89000010
   14.06972218   74.93979645    4.90999985    2.86999989
   14.07277775   76.53389740    4.90999985    2.86999989
   14.07611084   75.36650085    4.90999985    2.86999989
   14.07944393   75.55439758    4.90999985    2.86999989
   14.08527756   75.55439758    4.90999985    2.86999989
   14.08944416   80.30290222    4.90999985    2.86999989
   14.09277725   75.13809967    4.90999985    2.86999989
   14.09583282   75.74259949    4.90999985    2.89000010
   14.09916592   77.65560150    4.90999985    2.86999989
   14.10249996   77.72119904    4.90999985    2.86999989
   14.10555553   77.04830170    4.90999985    2.86999989
   14.10666752   78.99569702    4.90999985    2.89000010
   14.10916710   74.15679932    4.90999985    2.89000010
   14.11250019   74.99379730    4.90999985    2.89000010
   14.11555576   72.67040253    4.90999985    2.89000010
   14.11888885   71.92440033    4.90999985    2.89000010
   14.12194443   73.50610352    4.90999985    2.91000009
   14.12527752   77.44609833    4.90999985    2.89000010
   14.12861156   75.33950043    4.90999985    2.91000009
   14.13166714   73.13899994    4.90999985    2.91000009
   14.13638878   73.13899994    4.90999985    2.91000009
   14.14055538   71.32669830    4.90999985    2.91000009
   14.14388847   74.32910156    4.90999985    2.91000009
   14.14722252   72.57929993    4.90999985    2.91000009
   14.15027714   71.43360138    4.90999985    2.91000009
   14.15361118   75.10040283    4.90999985    2.91000009
   14.15666676   71.28459930    4.90999985    2.91000009
   14.15722179   73.74079895    4.90999985    2.91000009
   14.16055489   77.64129639    4.90999985    2.93000007
   14.16361046   74.55339813    4.90999985    2.93000007
   14.16694450   73.96800232    4.90999985    2.93000007
   14.17000008   73.89270020    4.90999985    2.93000007
   14.17333412   74.95819855    4.90999985    2.93000007
   14.17666721   75.53450012    4.90999985    2.93000007
   14.17972279   76.98909760    4.90999985    2.93000007
   14.18305588   77.80349731    4.90999985    2.91000009
   14.18777752   77.80349731    4.90999985    2.93000007
   14.19194412   76.56620026    4.90999985    2.93000007
   14.19499969   77.14420319    4.90999985    2.94000006
   14.19833374   76.23220062    4.90999985    2.94000006
   14.20138836   77.00939941    4.90999985    2.94000006
   14.20472240   78.71430206    4.90999985    2.94000006
   14.20666695   83.94100189    4.90999985    2.93000007
   14.20833302   75.60610199    4.90999985    2.93000007
   14.21166611   80.40070343    4.90999985    2.93000007
   14.21472168   77.87069702    4.90999985    2.93000007
   14.21805477   75.77169800    4.90999985    2.93000007
   14.22111034   75.54669952    4.90999985    2.93000007
   14.22444439   74.51300049    4.90999985    2.93000007
   14.22777748   73.77490234    4.90999985    2.94000006
   14.23083305   80.10250092    4.90999985    2.93000007
   14.23416710   74.43800354    4.90999985    2.93000007
   14.23888874   74.43800354    4.90999985    2.94000006
   14.24305534   71.66970062    4.90999985    2.94000006
   14.24611092   72.68750000    4.90999985    2.93000007
   14.24944496   76.71640015    4.90999985    2.94000006
   14.25277805   75.70230103    4.90999985    2.93000007
   14.25611115   79.21839905    4.90999985    2.93000007
   14.25666714   76.79709625    4.90999985    2.93000007
   14.25972176   78.29170227    4.90999985    2.93000007
   14.26305580   75.04409790    4.90999985    2.93000007
   14.26611137   75.83889771    4.90999985    2.93000007
   14.26944447   72.70449829    4.90999985    2.93000007
   14.27277756   74.65989685    4.90999985    2.93000007
   14.27583313   75.13040161    4.90999985    2.93000007
   14.27916622   77.19029999    4.90999985    2.93000007
   14.28222179   74.77510071    4.90999985    2.93000007
   14.28555584   75.01529694    4.90999985    2.93000007
   14.29000092   75.01529694    4.90999985    2.91000009
   14.29416752   76.00969696    4.90999985    2.94000006
   14.29750061   74.27380371    4.90999985    2.93000007
   14.30055618   75.07420349    4.90999985    2.91000009
   14.30388927   72.98159790    4.90999985    2.93000007
   14.30666733   74.33599854    4.90999985    2.91000009
   14.30749989   74.91030121    4.90999985    2.91000009
   14.31083393   76.63079834    4.90999985    2.91000009
   14.31388950   79.82170105    4.90999985    2.93000007
   14.31722260   71.73909760    4.90999985    2.93000007
   14.32055569   72.84809875    4.90999985    2.91000009
   14.32361126   78.11270142    4.90999985    2.91000009
   14.32694435   75.16690063    4.90999985    2.93000007
   14.32999992   73.17060089    4.90999985    2.91000009
   14.33333302   80.36550140    4.90999985    2.93000007
   14.33666611   72.73100281    4.90999985    2.91000009
   14.34111118   72.73100281    4.90999985    2.93000007
   14.34527779   76.04380035    4.90999985    2.91000009
   14.34861088   74.59269714    4.90999985    2.89000010
   14.35194492   72.73909760    4.90999985    2.91000009
   14.35500050   77.33409882    4.90999985    2.91000009
   14.35666752   77.44609833    4.90999985    2.91000009
   14.35861111   77.19589996    4.90999985    2.89000010
   14.36194515   73.78730011    4.90999985    2.91000009
   14.36500072   75.32089996    4.90999985    2.89000010
   14.36833382   75.54299927    4.90999985    2.91000009
   14.37166691   75.13670349    4.90999985    2.91000009
   14.37472248   74.55159760    4.90999985    2.91000009
   14.37805557   76.99569702    4.90999985    2.91000009
   14.38138866   79.66179657    4.90999985    2.91000009
   14.38444424   72.43890381    4.90999985    2.91000009
   14.38777733   76.99909973    4.90999985    2.91000009
   14.39249992   76.99909973    4.90999985    2.91000009
   14.39666653   76.53330231    4.90999985    2.93000007
   14.39972210   81.68879700    4.90999985    2.93000007
   14.40305519   75.09020233    4.90999985    2.93000007
   14.40611076   75.73179626    4.90999985    2.93000007
   14.40694427   73.68099976    4.90999985    2.93000007
   14.40972137   76.49520111    4.90999985    2.93000007
   14.41305542   79.82630157    4.90999985    2.94000006
   14.41611099   76.59819794    4.90999985    2.93000007
   14.41944504   75.88130188    4.90999985    2.93000007
   14.42277813   75.63230133    4.90999985    2.94000006
   14.42583370   75.77770233    4.90999985    2.94000006
   14.42916679   73.82920074    4.90999985    2.93000007
   14.43249989   74.67530060    4.90999985    2.94000006
   14.43555546   75.67800140    4.90999985    2.94000006
   14.43888855   74.02020264    4.90999985    2.94000006
   14.44361115   74.02020264    4.90999985    2.94000006
   14.44777775   77.38729858    4.90999985    2.94000006
   14.45083332   72.81659698    4.90999985    2.94000006
   14.45416641   74.68350220    4.90999985    2.94000006
   14.45694447   73.62239838    4.90999985    2.94000006
   14.45777798   74.55229950    4.90999985    2.93000007
   14.46111107   75.65429688    4.90999985    2.93000007
   14.46416664   73.12570190    4.90999985    2.94000006
   14.46749973   75.31359863    4.90999985    2.93000007
   14.47083282   75.60179901    4.90999985    2.93000007
   14.47388840   74.96810150    4.90999985    2.93000007
   14.47722149   75.37850189    4.90999985    2.93000007
   14.48055553   78.84400177    4.90999985    2.93000007
   14.48361111   74.34999847    4.90999985    2.93000007
   14.48694515   72.56520081    4.90999985    2.94000006
   14.49000072   76.64040375    4.90999985    2.94000006
   14.49472237   76.64040375    4.90999985    2.93000007
   14.49888897   75.10600281    4.90999985    2.94000006
   14.50222206   78.26309967    4.90999985    2.93000007
   14.50527763   74.73889923    4.90999985    2.93000007
   14.50694466   76.28369904    4.90999985    2.93000007
   14.50888920   78.23120117    4.90999985    2.93000007
   14.51222229   81.16059875    4.90999985    2.94000006
   14.51555538   77.22879791    4.90999985    2.94000006
   14.51861095   79.16419983    4.90999985    2.96000004
   14.52194405   78.76249695    4.90999985    2.94000006
   14.52499962   83.14160156    4.90999985    2.94000006
   14.52833271   78.26349640    4.90999985    2.94000006
   14.53166676   76.44329834    4.90999985    2.94000006
   14.53472233   71.69640350    4.90999985    2.93000007
   14.53805637   81.91660309    4.90999985    2.94000006
   14.54138947   77.01640320    4.90999985    2.94000006
   14.54611111   77.01640320    4.90999985    2.93000007
   14.55027771   77.94840240    4.90999985    2.94000006
   14.55333328   76.83239746    4.90999985    2.93000007
   14.55666733   81.50710297    4.90999985    2.94000006
   14.55722237   76.99160004    4.90999985    2.94000006
   14.56027794   77.46119690    4.90999985    2.94000006
   14.56361103   76.43910217    4.90999985    2.93000007
   14.56694412   77.33280182    4.90999985    2.93000007
   14.56999969   72.77420044    4.90999985    2.94000006
   14.57333374   78.70570374    4.90999985    2.93000007
   14.57666683   76.48010254    4.90999985    2.93000007
   14.57972240   75.78769684    4.90999985    2.93000007
   14.58305550   74.47129822    4.90999985    2.93000007
   14.58611107   76.45240021    4.90999985    2.93000007
   14.58944416   73.96299744    4.90999985    2.93000007
   14.59277725   76.64299774    4.90999985    2.93000007
   14.59722233   76.64299774    4.90999985    2.93000007
   14.60138893   77.88349915    4.90999985    2.93000007
   14.60444450   77.59259796    4.90999985    2.93000007
   14.60722256   74.91059875    4.90999985    2.93000007
   14.60805607   76.68879700    4.90999985    2.93000007
   14.61138916   75.09899902    4.90999985    2.93000007
   14.61472225   75.14019775    4.90999985    2.93000007
   14.61777782   73.90470123    4.90999985    2.93000007
   14.62111092   74.80259705    4.90999985    2.94000006
   14.62444496   72.25330353    4.90999985    2.93000007
   14.62750053   77.59089661    4.90999985    2.93000007
   14.63083363   75.41320038    4.90999985    2.91000009
   14.63388920   77.43360138    4.90999985    2.93000007
   14.63722229   73.54199982    4.90999985    2.91000009
   14.64055538   75.72070313    4.90999985    2.93000007
   14.64361095   82.03119659    4.90999985    2.93000007
   14.64833355   82.03119659    2.09999990    3.01999998
   14.65249920   74.72039795    0.25000000    0.19000000
   14.65583324   68.65160370    0.19000000    0.01000000
   14.65722179   76.04250336    0.19000000    0.01000000
   14.65916634   77.49520111    0.19000000    0.01000000
   14.66249943   79.41339874    0.19000000    0.01000000
   14.66583252   77.14569855    0.19000000    0.01000000
   14.66888905   75.40660095    0.19000000    0.01000000
   14.67222214   75.37480164    0.19000000    0.01000000
   14.67555618   81.31459808    0.19000000    0.01000000
   14.67861176   79.89379883    0.19000000    0.01000000
   14.68194485   76.43869781    0.19000000    0.01000000
   14.68500042   78.33339691    0.19000000    0.01000000
   14.68833351   76.36209869    0.19000000    0.01000000
   14.69166660   77.10420227    0.19000000    0.01000000
   14.69472218   74.00710297    0.19000000    0.01000000
   14.69944477   74.00710297    0.19000000    0.01000000
   14.70361137   74.27950287    0.19000000    0.01000000
   14.70694447   74.31449890    0.19000000    0.01000000
   14.70749950   73.27899933    0.19000000    0.01000000
   14.71055508   78.50409698    0.19000000    0.01000000
   14.71388912   79.13829803    0.19000000    0.01000000
   14.71722221   75.82070160    0.19000000    0.01000000
   14.72027779   74.05190277    0.19000000    0.01000000
   14.72361088   72.57540131    0.19000000    0.01000000
   14.72694397   73.19889832    0.19000000    0.01000000
   14.72999954   77.26390076    0.19000000    0.01000000
   14.73333359   77.15519714    0.19000000    0.01000000
   14.73638916   76.32319641    0.19000000    0.01000000
   14.73972225   79.75150299    0.19000000    0.01000000
   14.74305534   76.92829895    0.19000000    0.01000000
   14.74611092   75.14350128    0.19000000    0.01000000
   14.75083351   75.14350128    0.19000000    0.01000000
   14.75472260   75.67900085    0.19000000    0.01000000
   14.75749969   75.40049744    0.19000000    0.01000000
   14.75833321   77.00920105    0.19000000    0.01000000
   14.76166630   71.55909729    0.19000000    0.01000000
   14.76500034   77.86270142    0.19000000    0.01000000
   14.76805496   73.95469666    0.19000000    0.01000000
   14.77138901   77.22599792    0.19000000    0.01000000
   14.77472210   75.69039917    0.19000000    0.01000000
   14.77777767   77.16570282    0.19000000    0.01000000
   14.78111076   80.39820099    0.19000000    0.01000000
   14.78416729   74.44640350    0.19000000    0.01000000
   14.78750038   73.85209656    0.19000000    0.01000000
   14.79083347   75.76540375    0.19000000    0.01000000
   14.79388905   74.74890137    0.19000000    0.01000000
   14.79722309   73.71730042    0.19000000    0.01000000
   14.80194473   73.71730042    0.19000000    0.01000000
   14.80611134   76.46910095    0.19000000    0.01000000
   14.80749989   75.98429871    0.19000000    0.01000000
   14.80944443   74.83070374    0.19000000    0.01000000
   14.81277752   75.95130157    0.19000000    0.01000000
   14.81611156   76.26770020    0.19000000    0.01000000
   14.81916618   74.18080139    0.19000000    0.01000000
   14.82250023   76.46189880    0.19000000    0.01000000
   14.82583332   75.71040344    0.19000000    0.01000000
   14.82888889   76.78869629    0.19000000    0.01000000
   14.83222198   75.04229736    0.19000000    0.01000000
   14.83527756   75.93460083    0.19000000    0.01000000
   14.83861065   74.64399719    0.19000000    0.01000000
   14.84194374   79.58899689    0.19000000    0.01000000
   14.84499931   84.32929993    0.19000000    0.01000000
   14.84833336   75.54900360    0.19000000    0.01000000
   14.85305595   75.54900360    0.19000000    0.01000000
   14.85722256   75.53569794    0.19000000    0.01000000
   14.85777855   71.01190186    0.19000000    0.01000000
   14.86111164   71.03679657    0.19000000    0.01000000
   14.86416721   70.58159637    0.19000000    0.01000000
   14.86750031   73.84850311    0.19000000    0.01000000
   14.87055588   73.69619751    0.19000000    0.01000000
   14.87388897   74.22389984    0.19000000    0.01000000
   14.87722206   73.45249939    0.19000000    0.01000000
   14.88027763   75.59010315    0.19000000    0.01000000
   14.88361073   78.40879822    0.19000000    0.01000000
   14.88694477   78.63919830    0.19000000    0.01000000
   14.89000034   80.60900116    0.19000000    0.01000000
   14.89333344   76.14779663    0.19000000    0.01000000
   14.89638901   78.02600098    0.19000000    0.01000000
   14.89972210   78.70719910    0.19000000    0.01000000
   14.90416622   78.70719910    0.19000000    0.01000000
   14.90833282   80.59539795    0.19000000    0.01000000
   14.91166592   77.11569977    0.19000000    0.01000000
   14.91472149   76.12039948    0.19000000    0.01000000
   14.91805553   77.94999695    0.19000000    0.01000000
   14.92138958   71.53549957    0.19000000    0.01000000
   14.92444515   72.70490265    0.19000000    0.01000000
   14.92777824   81.22519684    0.19000000    0.01000000
   14.93111134   73.39589691    0.19000000    0.01000000
   14.93416691   73.21269989    0.19000000    0.01000000
   14.93750000   72.79660034    0.19000000    0.01000000
   14.94055557   77.07599640    0.19000000    0.01000000
   14.94388866   74.68190002    0.19000000    0.01000000
   14.94722271   73.39769745    0.19000000    0.01000000
   14.95027733   78.96269989    0.19000000    0.01000000
   14.95555496   78.96269989    0.19000000    0.01000000
   14.95944405   74.50890350    0.19000000    0.01000000
   14.96277714   76.10350037    0.19000000    0.01000000
   14.96611118   77.86319733    0.19000000    0.01000000
   14.96916580   75.45960236    0.19000000    0.01000000
   14.97249985   76.06439972    0.19000000    0.01000000
   14.97583294   73.26090240    0.19000000    0.01000000
   14.97888851   73.15119934    0.19000000    0.01000000
   14.98222160   79.53880310    0.19000000    0.01000000
   14.98527813   74.44020081    0.19000000    0.01000000
   14.98861122   75.28679657    0.19000000    0.01000000
   14.99194431   77.86250305    0.19000000    0.01000000
   14.99499989   78.37419891    0.19000000    0.01000000
   14.99833393   73.51550293    0.19000000    0.01000000
   15.00166702   73.17919922    0.19000000    0.01000000
   15.00666714   73.17919922    0.19000000    0.01000000
   15.01083374   73.57620239    0.19000000    0.01000000
   15.01388931   74.43180084    0.19000000    0.01000000
   15.01722240   74.27909851    0.19000000    0.01000000
   15.02055550   76.17829895    0.19000000    0.01000000
   15.02361107   73.27120209    0.19000000    0.01000000
   15.02694416   73.93209839    0.19000000    0.01000000
   15.02999973   74.63200378    0.19000000    0.01000000
   15.03333378   71.84839630    0.19000000    0.01000000
   15.03666687   74.32980347    0.19000000    0.01000000
   15.03972244   74.60289764    0.19000000    0.01000000
   15.04305553   73.76989746    0.19000000    0.01000000
   15.04638958   75.97299957    0.19000000    0.01000000
   15.04944515   74.22509766    0.19000000    0.01000000
   15.05277824   77.80560303    0.19000000    0.01000000
   15.07416630   75.68309784    0.19000000    0.01000000
   15.07472229   71.94329834    0.19000000    0.01000000
   15.07777786   72.34729767    0.19000000    0.01000000
   15.08111095   73.07669830    0.19000000    0.01000000
   15.08444405   72.39800262    0.19000000    0.01000000
   15.08749962   73.22160339    0.19000000    0.01000000
   15.09083271   70.21179962    0.19000000    0.01000000
   15.09388828   75.27929688    0.19000000    0.01000000
   15.09722233   72.88559723    0.19000000    0.01000000
   15.10055637   72.60479736    0.19000000    0.01000000
   15.10361195   72.32289886    0.19000000    0.01000000
   15.10916710   72.32289886    0.19000000    0.01000000
   15.11333370   73.53630066    0.19000000    0.01000000
   15.11638927   70.78459930    0.19000000    0.01000000
   15.11972237   75.51260376    0.19000000    0.01000000
   15.12277794   75.07409668    0.19000000    0.01000000
   15.12416649   71.96009827    0.19000000    0.01000000
   15.12638855   73.82939911    0.19000000    0.01000000
   15.12972260   74.38510132    0.19000000    0.01000000
   15.13305569   74.76139832    0.19000000    0.01000000
   15.13611126   70.63150024    0.19000000    0.01000000
   15.13944435   71.59190369    0.19000000    0.01000000
   15.14277744   71.27680206    0.19000000    0.01000000
   15.14583302   71.28669739    0.19000000    0.01000000
   15.14916611   72.27480316    0.19000000    0.01000000
   15.15222168   72.82050323    0.19000000    0.01000000
   15.15555477   73.04910278    0.19000000    0.01000000
   15.16027737   73.04910278    0.19000000    0.01000000
   15.16444397   72.56680298    0.19000000    0.01000000
   15.16750050   70.92350006    0.19000000    0.01000000
   15.17083359   71.85729980    0.19000000    0.01000000
   15.17416668   69.40290070    0.19000000    0.01000000
   15.17444515   72.36979675    0.19000000    0.01000000
   15.17777824   72.70690155    0.19000000    0.01000000
   15.18111134   73.95790100    0.19000000    0.01000000
   15.18416691   73.19229889    0.19000000    0.01000000
   15.18750000   72.49530029    0.19000000    0.01000000
   15.19083309   72.02400208    0.19000000    0.01000000
   15.19388866   71.15589905    0.19000000    0.01000000
   15.19722271   72.78589630    0.19000000    0.01000000
   15.20027733   72.71779633    0.19000000    0.01000000
   15.20361137   72.84960175    0.19000000    0.01000000
   15.20694447   70.36109924    0.19000000    0.01000000
   15.21138859   70.36109924    0.19000000    0.01000000
   15.21555519   71.68930054    0.19000000    0.01000000
   15.21888828   70.86730194    0.19000000    0.01000000
   15.22194386   72.65390015    0.19000000    0.01000000
   15.22416592   71.80069733    0.19000000    0.01000000
   15.22583294   72.17769623    0.19000000    0.01000000
   15.22888851   73.26959991    0.19000000    0.01000000
   15.23222160   72.71150208    0.19000000    0.01000000
   15.23527813   74.49369812    0.19000000    0.01000000
   15.23861122   74.92140198    0.19000000    0.01000000
   15.24194431   73.93479919    0.19000000    0.01000000
   15.24499989   72.16709900    0.19000000    0.01000000
   15.24833393   75.47699738    0.19000000    0.01000000
   15.25166702   74.56369781    0.19000000    0.01000000
   15.25472260   75.94439697    0.19000000    0.01000000
   15.25805569   73.43769836    0.19000000    0.01000000
   15.26249981   73.43769836    0.19000000    0.01000000
   15.26666641   74.85530090    0.19000000    0.01000000
   15.26999950   75.74539948    0.19000000    0.01000000
   15.27333355   76.86430359    0.19000000    0.01000000
   15.27416611   78.00730133    0.19000000    0.01000000
   15.27694416   73.88919830    0.19000000    0.01000000
   15.27999973   72.99179840    0.19000000    0.01000000
   15.28333378   73.55899811    0.19000000    0.01000000
   15.28638935   75.83809662    0.19000000    0.01000000
   15.28972244   74.09729767    0.19000000    0.01000000
   15.29305553   73.87850189    0.19000000    0.01000000
   15.29611111   71.54450226    0.19000000    0.01000000
   15.29944515   75.73120117    0.19000000    0.01000000
   15.30277824   74.01349640    0.19000000    0.01000000
   15.30583382   73.59359741    0.19000000    0.01000000
   15.30916691   73.17299652    0.19000000    0.01000000
   15.31388950   73.17299652    0.19000000    0.01000000
   15.31805515   74.82119751    0.19000000    0.01000000
   15.32111073   76.29940033    0.19000000    0.01000000
   15.32444477   76.66500092    0.19000000    0.01000000
   15.32472229   79.24909973    0.19000000    0.01000000
   15.32805538   73.81680298    0.19000000    0.01000000
   15.33138847   74.32099915    0.19000000    0.01000000
   15.33444405   73.32550049    0.19000000    0.01000000
   15.33777714   74.38040161    0.19000000    0.01000000
   15.34111118   72.75830078    0.19000000    0.01000000
   15.34416676   70.33450317    0.19000000    0.01000000
   15.34749985   76.02529907    0.19000000    0.01000000
   15.35055637   71.85209656    0.19000000    0.01000000
   15.35388947   70.91390228    0.19000000    0.01000000
   15.35722256   72.74359894    0.19000000    0.01000000
   15.36027813   72.11190033    0.19000000    0.01000000
   15.36500072   72.11190033    0.19000000    0.01000000
   15.36916637   72.97460175    0.19000000    0.01000000
   15.37250042   74.77850342    0.19000000    0.01000000
   15.37444496   77.50370026    0.19000000    0.01000000
   15.37611103   73.02610016    0.19000000    0.01000000
   15.37916660   72.76640320    0.19000000    0.01000000
   15.38249969   71.25990295    0.19000000    0.01000000
   15.38555527   78.99230194    0.19000000    0.01000000
   15.38888836   74.74939728    0.19000000    0.01000000
   15.39222240   73.79850006    0.19000000    0.01000000
   15.39527798   71.91320038    0.19000000    0.01000000
   15.39861107   74.97280121    0.19000000    0.01000000
   15.40194416   72.56040192    0.19000000    0.01000000
   15.40499973   74.05490112    0.19000000    0.01000000
   15.40833282   75.10739899    0.19000000    0.01000000
   15.41138840   72.11910248    0.19000000    0.01000000
   15.41611099   72.11910248    0.19000000    0.01000000
   15.42027855   72.81759644    0.19000000    0.01000000
   15.42361164   77.32969666    0.19000000    0.01000000
   15.42444515   74.17099762    0.19000000    0.01000000
   15.42722225   72.87110138    0.19000000    0.01000000
   15.43027782   72.10109711    0.19000000    0.01000000
   15.43361092   74.26390076    0.19000000    0.01000000
   15.43666649   72.93329620    0.19000000    0.01000000
   15.44000053   74.60759735    0.19000000    0.01000000
   15.44333363   75.61399841    0.19000000    0.01000000
   15.44638920   78.48139954    0.19000000    0.01000000
   15.44972229   70.64579773    0.19000000    0.01000000
   15.45305538   71.55239868    0.19000000    0.01000000
   15.45611095   72.98840332    0.19000000    0.01000000
   15.45944405   71.47879791    0.19000000    0.01000000
   15.46249962   73.13420105    0.19000000    0.01000000
   15.46749973   73.13420105    0.19000000    0.01000000
   15.47166634   72.67340088    0.19000000    0.01000000
   15.47444439   72.53019714    0.19000000    0.01000000
   15.47527695   71.70909882    0.19000000    0.01000000
   15.47833252   73.30259705    0.19000000    0.01000000
   15.48166656   74.44200134    0.19000000    0.01000000
   15.48472214   73.94960022    0.19000000    0.01000000
   15.48805618   72.44100189    0.19000000    0.01000000
   15.49138927   73.84290314    0.19000000    0.01000000
   15.49444485   77.11319733    0.19000000    0.01000000
   15.49777794   71.31289673    0.19000000    0.01000000
   15.50111103   73.34279633    0.19000000    0.01000000
   15.50416660   73.31020355    0.19000000    0.01000000
   15.50749969   76.73329926    0.19000000    0.01000000
   15.51055527   72.27870178    0.19000000    0.01000000
   15.51388931   71.94090271    0.19000000    0.01000000
   15.51861095   71.94090271    0.19000000    0.01000000
   15.52277756   71.89019775    0.19000000    0.01000000
   15.52444458   73.09149933    0.19000000    0.01000000
   15.52638817   71.04910278    0.19000000    0.01000000
   15.52944374   72.98359680    0.19000000    0.01000000
   15.53277779   76.23149872    0.19000000    0.01000000
   15.53611183   73.04820251    0.19000000    0.01000000
   15.53916740   71.34089661    0.19000000    0.01000000
   15.54250050   72.89810181    0.19000000    0.01000000
   15.54555607   78.14569855    0.19000000    0.01000000
   15.54888916   73.47509766    0.19000000    0.01000000
   15.55222225   69.85420227    0.19000000    0.01000000
   15.55527782   73.35900116    0.19000000    0.01000000
   15.55861092   72.81780243    0.19000000    0.01000000
   15.56194496   73.16639709    0.19000000    0.01000000
   15.56500053   70.63369751    0.19000000    0.01000000
   15.56972218   70.63369751    0.19000000    0.01000000
   15.57388878   71.17530060    0.19000000    0.01000000
   15.57444477   71.45439911    0.19000000    0.01000000
   15.57750034   72.28700256    0.19000000    0.01000000
   15.58055592   73.97650146    0.19000000    0.01000000
   15.58388901   71.66929626    0.19000000    0.01000000
   15.58722210   71.38790131    0.19000000    0.01000000
   15.59027767   74.39250183    0.19000000    0.01000000
   15.59361076   70.88220215    0.19000000    0.01000000
   15.59666634   72.19419861    0.19000000    0.01000000
   15.60000038   72.71060181    0.19000000    0.01000000
   15.60333347   74.18299866    0.19000000    0.01000000
   15.60638905   74.45310211    0.19000000    0.01000000
   15.60972214   73.77459717    0.19000000    0.01000000
   15.61305618   75.67379761    0.19000000    0.01000000
   15.61611176   73.46810150    0.19000000    0.01000000
   15.62083340   73.46810150    0.19000000    0.01000000
   15.62500000   70.55709839    0.19000000    0.01000000
   15.62833309   72.84670258    0.19000000    0.01000000
   15.63166714   74.50279999    0.19000000    0.01000000
   15.63472176   72.99440002    0.19000000    0.01000000
   15.63805580   73.63339996    0.19000000    0.01000000
   15.64111137   72.75789642    0.19000000    0.01000000
   15.64444447   75.12390137    0.19000000    0.01000000
   15.64777756   70.76750183    0.19000000    0.01000000
   15.65083313   73.84310150    0.19000000    0.01000000
   15.65416622   75.84870148    0.19000000    0.01000000
   15.65749931   71.24710083    0.19000000    0.01000000
   15.66055489   72.29039764    0.19000000    0.01000000
   15.66388893   70.72290039    0.19000000    0.01000000
   15.66694450   71.17739868    0.19000000    0.01000000
   15.67222214   71.17739868    0.19000000    0.01000000
   15.67638874   76.58149719    0.19000000    0.01000000
   15.67944431   72.05400085    0.19000000    0.01000000
   15.68277836   73.45420074    0.19000000    0.01000000
   15.68583298   73.09799957    0.19000000    0.01000000
   15.68916702   72.22899628    0.19000000    0.01000000
   15.69250011   72.13520050    0.19000000    0.01000000
   15.69555569   71.86239624    0.19000000    0.01000000
   15.69888878   71.98380280    0.19000000    0.01000000
   15.70222187   71.44650269    0.19000000    0.01000000
   15.70527744   71.70520020    0.19000000    0.01000000
   15.70861053   72.45159912    0.19000000    0.01000000
   15.71166611   74.28079987    0.19000000    0.01000000
   15.71500015   71.90160370    0.19000000    0.01000000
   15.71833324   78.12580109    0.19000000    0.01000000
   15.72333336   78.12580109    0.19000000    0.01000000
   15.72749996   74.26719666    0.19000000    0.01000000
   15.73083305   71.02439880    0.19000000    0.01000000
   15.73388958   72.50520325    0.19000000    0.01000000
   15.73722267   72.61789703    0.19000000    0.01000000
   15.74055576   71.73400116    0.19000000    0.01000000
   15.74361134   74.99859619    0.19000000    0.01000000
   15.74694443   71.86509705    0.19000000    0.01000000
   15.75027752   72.63610077    0.19000000    0.01000000
   15.75333309   74.82240295    0.19000000    0.01000000
   15.75666714   73.58869934    0.19000000    0.01000000
   15.75972176   71.92960358    0.19000000    0.01000000
   15.76305580   74.33869934    0.19000000    0.01000000
   15.76638889   74.90270233    0.19000000    0.01000000
   15.76944447   73.28289795    0.19000000    0.01000000
   15.77444458   73.28289795    0.19000000    0.01000000
   15.77861118   72.76689911    0.19000000    0.01000000
   15.78194427   70.37239838    0.19000000    0.01000000
   15.78500080   72.90740204    0.19000000    0.01000000
   15.78833389   71.10579681    0.19000000    0.01000000
   15.79166698   75.29940033    0.19000000    0.01000000
   15.79472256   74.87640381    0.19000000    0.01000000
   15.79805565   72.46839905    0.19000000    0.01000000
   15.80111122   73.28579712    0.19000000    0.01000000
   15.80444431   72.73190308    0.19000000    0.01000000
   15.80777836   72.84480286    0.19000000    0.01000000
   15.81083393   73.24749756    0.19000000    0.01000000
   15.81416702   72.77989960    0.19000000    0.01000000
   15.81750011   71.37270355    0.19000000    0.01000000
   15.82055569   72.49389648    0.19000000    0.01000000
   15.82555580   72.49389648    0.19000000    0.01000000
   15.82972240   74.48000336    0.19000000    0.01000000
   15.83305550   75.55069733    0.19000000    0.01000000
   15.83638859   73.99469757    0.19000000    0.01000000
   15.83944416   79.74880219    0.19000000    0.01000000
   15.84277725   72.78420258    0.19000000    0.01000000
   15.84583282   73.26090240    0.19000000    0.01000000
   15.84916592   74.51999664    0.19000000    0.01000000
   15.85249996   71.90499878    0.19000000    0.01000000
   15.85555553   75.16020203    0.19000000    0.01000000
   15.85888958   73.03079987    0.19000000    0.01000000
   15.86222267   71.96730042    0.19000000    0.01000000
   15.86527824   72.21410370    0.19000000    0.01000000
   15.86861134   74.41249847    0.19000000    0.01000000
   15.87166691   73.91310120    0.19000000    0.01000000
   15.87694454   73.91310120    0.19000000    0.01000000
   15.88111115   73.92639923    0.19000000    0.01000000
   15.88416672   74.02700043    0.19000000    0.01000000
   15.88749981   76.76309967    0.19000000    0.01000000
   15.89055538   76.42610168    0.19000000    0.01000000
   15.89388847   72.21099854    0.19000000    0.01000000
   15.89722252   72.81510162    0.19000000    0.01000000
   15.90027714   74.27200317    0.19000000    0.01000000
   15.90361118   75.92310333    0.19000000    0.01000000
   15.90694427   72.63110352    0.19000000    0.01000000
   15.90999985   73.15959930    0.19000000    0.01000000
   15.91333294   73.03260040    0.19000000    0.01000000
   15.91666698   74.47329712    0.19000000    0.01000000
   15.91972256   74.87889862    0.19000000    0.01000000
   15.92305565   73.30190277    0.19000000    0.01000000
   15.92805576   73.30190277    0.19000000    0.01000000
   15.93222237   74.22940063    0.19000000    0.01000000
   15.93527794   76.98860168    0.19000000    0.01000000
   15.93861103   74.06220245    0.19000000    0.01000000
   15.94194412   73.68000031    0.19000000    0.01000000
   15.94499969   72.62590027    0.19000000    0.01000000
   15.94833374   71.27719879    0.19000000    0.01000000
   15.95166683   71.91660309    0.19000000    0.01000000
   15.95472240   74.34850311    0.19000000    0.01000000
   15.95805550   73.05979919    0.19000000    0.01000000
   15.96111107   72.63739777    0.19000000    0.01000000
   15.96444416   74.77259827    0.19000000    0.01000000
   15.96777725   75.85060120    0.19000000    0.01000000
   15.97083282   73.69550323    0.19000000    0.01000000
   15.97416592   72.71320343    0.19000000    0.01000000
   15.97916603   72.71320343    0.19000000    0.01000000
   15.98333359   72.64179993    0.19000000    0.01000000
   15.98666668   71.57140350    0.19000000    0.01000000
   15.98972225   74.08010101    0.19000000    0.01000000
   15.99305534   74.06819916    0.19000000    0.01000000
   15.99638939   72.67099762    0.19000000    0.01000000
   15.99944496   72.04129791    0.19000000    0.01000000
   16.00277710   71.52799988    0.19000000    0.01000000
   16.00583267   71.63890076    0.19000000    0.01000000
   16.00916672   73.70870209    0.19000000    0.01000000
   16.01250076   71.91670227    0.19000000    0.01000000
   16.01555634   72.40290070    0.19000000    0.01000000
   16.01888847   72.52739716    0.19000000    0.01000000
   16.02222252   71.63919830    0.19000000    0.01000000
   16.02527809   71.78289795    0.19000000    0.01000000
   16.03027725   71.78289795    0.19000000    0.01000000
   16.03444481   71.18139648    0.19000000    0.01000000
   16.03777695   71.19139862    0.19000000    0.01000000
   16.04111099   72.40889740    0.19000000    0.01000000
   16.04416656   72.06179810    0.19000000    0.01000000
   16.04749870   71.71520233    0.19000000    0.01000000
   16.05055428   72.45449829    0.19000000    0.01000000
   16.05388832   72.73329926    0.19000000    0.01000000
   16.05722237   73.75160217    0.19000000    0.01000000
   16.06027794   71.44909668    0.19000000    0.01000000
   16.06361008   74.19319916    0.19000000    0.01000000
   16.06694603   71.53669739    0.19000000    0.01000000
   16.07000160   74.56719971    0.19000000    0.01000000
   16.07333374   71.95050049    0.19000000    0.01000000
   16.09444427   71.95050049    0.19000000    0.01000000
   16.09861183   72.89559937    0.19000000    0.01000000
   16.10166740   72.09539795    0.19000000    0.01000000
   16.10499954   72.30290222    0.19000000    0.01000000
   16.10805511   71.33769989    0.19000000    0.01000000
   16.11138916   73.75129700    0.19000000    0.01000000
   16.11472321   71.91000366    0.19000000    0.01000000
   16.11777878   75.46810150    0.19000000    0.01000000
   16.12111092   71.82550049    0.19000000    0.01000000
   16.12444496   70.22129822    0.19000000    0.01000000
   16.12750053   72.66639709    0.19000000    0.01000000
   16.13083267   72.19180298    0.19000000    0.01000000
   16.13416672   72.70079803    0.19000000    0.01000000
   16.13722229   74.11389923    0.19000000    0.01000000
   16.14055634   75.06729889    0.19000000    0.01000000
   16.14194489   75.35649872    0.19000000    0.01000000
   16.14611053   75.35649872    0.19000000    0.01000000
   16.15027809   73.96260071    0.19000000    0.01000000
   16.15333366   71.16989899    0.19000000    0.01000000
   16.15666580   71.73930359    0.19000000    0.01000000
   16.15999985   71.05799866    0.19000000    0.01000000
   16.16305542   72.63510132    0.19000000    0.01000000
   16.16638756   71.49610138    0.19000000    0.01000000
   16.16972160   74.58180237    0.19000000    0.01000000
   16.17277718   72.45339966    0.19000000    0.01000000
   16.17611122   71.89540100    0.19000000    0.01000000
   16.17944336   71.89550018    0.19000000    0.01000000
   16.18277740   72.74340057    0.19000000    0.01000000
   16.18583298   71.91660309    0.19000000    0.01000000
   16.18916512   73.51820374    0.19000000    0.01000000
   16.19194412   73.52269745    0.19000000    0.01000000
   16.19277763   71.74720001    0.19000000    0.01000000
   16.19722176   71.74720001    0.19000000    0.01000000
   16.20138931   73.66320038    0.19000000    0.01000000
   16.20444489   73.21559906    0.19000000    0.01000000
   16.20777893   71.55660248    0.19000000    0.01000000
   16.21111107   74.11789703    0.19000000    0.01000000
   16.21416664   73.24179840    0.19000000    0.01000000
   16.21750069   70.86139679    0.19000000    0.01000000
   16.22083473   72.73529816    0.19000000    0.01000000
   16.22389030   75.24770355    0.19000000    0.01000000
   16.22722244   72.73190308    0.19000000    0.01000000
   16.23027802   72.20369720    0.19000000    0.01000000
   16.23361206   74.04309845    0.19000000    0.01000000
   16.23694420   74.49040222    0.19000000    0.01000000
   16.23999977   72.75099945    0.19000000    0.01000000
   16.24194527   74.48090363    0.19000000    0.01000000
   16.24361229   73.52469635    0.19000000    0.01000000
   16.24833298   73.52469635    0.19000000    0.01000000
   16.25250053   73.95719910    0.19000000    0.01000000
   16.25583267   72.49359894    0.19000000    0.01000000
   16.25888824   72.97470093    0.19000000    0.01000000
   16.26222229   72.05709839    0.19000000    0.01000000
   16.26555634   72.54989624    0.19000000    0.01000000
   16.26861000   72.71499634    0.19000000    0.01000000
   16.27194405   72.05599976    0.19000000    0.01000000
   16.27499962   72.19860077    0.19000000    0.01000000
   16.27833366   74.31950378    0.19000000    0.01000000
   16.28166580   73.86920166    0.19000000    0.01000000
   16.28472137   73.67960358    0.19000000    0.01000000
   16.28805542   72.77880096    0.19000000    0.01000000
   16.29111099   76.62229919    0.19000000    0.01000000
   16.29194450   74.97260284    0.19000000    0.01000000
   16.29472160   75.52179718    0.19000000    0.01000000
   16.29944420   75.52179718    0.19000000    0.01000000
   16.30360985   73.33940125    0.19000000    0.01000000
   16.30694389   76.99459839    0.19000000    0.01000000
   16.30999947   74.04039764    0.19000000    0.01000000
   16.31333351   73.76809692    0.19000000    0.01000000
   16.31666756   74.61100006    0.19000000    0.01000000
   16.31972313   73.19979858    0.19000000    0.01000000
   16.32305717   75.08910370    0.19000000    0.01000000
   16.32638931   71.43229675    0.19000000    0.01000000
   16.32944489   73.70040131    0.19000000    0.01000000
   16.33277893   73.06610107    0.19000000    0.01000000
   16.33583450   70.93620300    0.19000000    0.01000000
   16.33916664   71.77210236    0.19000000    0.01000000
   16.34194565   72.80269623    0.19000000    0.01000000
   16.34277916   72.26969910    0.19000000    0.01000000
   16.34611130   71.85489655    0.19000000    0.01000000
   16.35083389   71.85489655    0.19000000    0.01000000
   16.35472298   71.56449890    0.19000000    0.01000000
   16.35805511   71.60769653    0.19000000    0.01000000
   16.36138916   71.42539978    0.19000000    0.01000000
   16.36444473   70.56410217    0.19000000    0.01000000
   16.36777878   72.93569946    0.19000000    0.01000000
   16.37111092   71.17900085    0.19000000    0.01000000
   16.37416649   76.84899902    0.19000000    0.01000000
   16.37750053   73.03079987    0.19000000    0.01000000
   16.38055611   71.52050018    0.19000000    0.01000000
   16.38388824   71.09500122    0.19000000    0.01000000
   16.38722229   74.75990295    0.19000000    0.01000000
   16.39027786   72.10359955    0.19000000    0.01000000
   16.39194489   74.07929993    0.19000000    0.01000000
   16.39388847   72.96099854    0.19000000    0.01000000
   16.39722252   75.77359772    0.19000000    0.01000000
   16.40194321   75.77359772    0.19000000    0.01000000
   16.40611076   73.50119781    0.19000000    0.01000000
   16.40916634   72.95809937    0.19000000    0.01000000
   16.41250038   71.80989838    0.19000000    0.01000000
   16.41583252   73.15319824    0.19000000    0.01000000
   16.41888809   74.71009827    0.19000000    0.01000000
   16.42222214   72.73380280    0.19000000    0.01000000
   16.42527771   71.63809967    0.19000000    0.01000000
   16.42860985   70.99909973    0.19000000    0.01000000
   16.43194389   73.03959656    0.19000000    0.01000000
   16.43499947   70.87079620    0.19000000    0.01000000
   16.43833160   73.20490265    0.19000000    0.01000000
   16.44166565   69.93750000    0.19000000    0.01000000
   16.44222069   72.37049866    0.19000000    0.01000000
   16.44527626   72.98110199    0.19000000    0.01000000
   16.44888878   70.70169830    0.19000000    0.01000000
   16.45305634   70.70169830    0.19000000    0.01000000
   16.45750046   75.28679657    0.19000000    0.01000000
   16.46083450   70.70670319    0.19000000    0.01000000
   16.46389008   70.41459656    0.19000000    0.01000000
   16.46722221   70.37159729    0.19000000    0.01000000
   16.47055626   72.02690125    0.19000000    0.01000000
   16.47361183   70.52140045    0.19000000    0.01000000
   16.47694588   71.67489624    0.19000000    0.01000000
   16.48000145   70.24479675    0.19000000    0.01000000
   16.48333359   71.92359924    0.19000000    0.01000000
   16.48666763   70.16760254    0.19000000    0.01000000
   16.48972321   73.11959839    0.19000000    0.01000000
   16.49222183   70.93650055    0.19000000    0.01000000
   16.49333382   71.45659637    0.19000000    0.01000000
   16.49666786   70.93609619    0.19000000    0.01000000
   16.49972153   69.51039886    0.19000000    0.01000000
   16.50416756   69.51039886    0.19000000    0.01000000
   16.50833321   72.41359711    0.19000000    0.01000000
   16.51166725   72.38999939    0.19000000    0.01000000
   16.51472282   70.56349945    0.19000000    0.01000000
   16.51805496   72.24990082    0.19000000    0.01000000
   16.52138901   70.02300262    0.19000000    0.01000000
   16.52444458   70.32679749    0.19000000    0.01000000
   16.52777672   71.14679718    0.19000000    0.01000000
   16.53111076   72.14550018    0.19000000    0.01000000
   16.53416634   71.26699829    0.19000000    0.01000000
   16.53750038   70.30889893    0.19000000    0.01000000
   16.54083252   72.10540009    0.19000000    0.01000000
   16.54222107   70.62809753    0.19000000    0.01000000
   16.54416656   70.79730225    0.19000000    0.01000000
   16.54749870   70.14859772    0.19000000    0.01000000
   16.55055428   69.83239746    0.19000000    0.01000000
   16.55555534   69.83239746    0.19000000    0.01000000
   16.55944443   70.88569641    0.19000000    0.01000000
   16.56277657   70.09919739    0.19000000    0.01000000
   16.56611061   71.09429932    0.19000000    0.01000000
   16.56916809   71.81449890    0.19000000    0.01000000
   16.57250023   69.95999908    0.19000000    0.01000000
   16.57583427   71.93299866    0.19000000    0.01000000
   16.57888985   70.43769836    0.19000000    0.01000000
   16.58222389   71.01509857    0.19000000    0.01000000
   16.58555603   71.01149750    0.19000000    0.01000000
   16.58861160   72.89080048    0.19000000    0.01000000
   16.59194565   71.65219879    0.19000000    0.01000000
   16.59250069   70.19930267    0.19000000    0.01000000
   16.59555626   70.78489685    0.19000000    0.01000000
   16.59889030   71.16560364    0.19000000    0.01000000
   16.60222244   73.16660309    0.19000000    0.01000000
   16.60666656   73.16660309    0.19000000    0.01000000
   16.61083412   71.40570068    0.19000000    0.01000000
   16.61388969   70.18569946    0.19000000    0.01000000
   16.61722183   73.46720123    0.19000000    0.01000000
   16.62055588   71.20619965    0.19000000    0.01000000
   16.62361145   73.12049866    0.19000000    0.01000000
   16.62694550   72.91249847    0.19000000    0.01000000
   16.63000107   70.40959930    0.19000000    0.01000000
   16.63333321   70.93789673    0.19000000    0.01000000
   16.63666725   71.07379913    0.19000000    0.01000000
   16.63972282   75.37190247    0.19000000    0.01000000
   16.64249992   71.20700073    0.19000000    0.01000000
   16.64333344   70.81150055    0.19000000    0.01000000
   16.64666748   72.48339844    0.19000000    0.01000000
   16.64999962   72.59480286    0.19000000    0.01000000
   16.65305519   73.99430084    0.19000000    0.01000000
   16.65777779   73.99430084    0.19000000    0.01000000
   16.66194344   71.93720245    0.19000000    0.01000000
   16.66527748   71.12190247    0.19000000    0.01000000
   16.66833305   76.31310272    0.19000000    0.01000000
   16.67166519   71.90760040    0.19000000    0.01000000
   16.67472076   72.21690369    0.19000000    0.01000000
   16.67805481   74.18319702    0.19000000    0.01000000
   16.68138885   71.25209808    0.19000000    0.01000000
   16.68444443   71.04029846    0.19000000    0.01000000
   16.68777657   72.87010193    0.19000000    0.01000000
   16.69111061   69.16709900    0.19000000    0.01000000
   16.69249916   69.51470184    0.19000000    0.01000000
   16.69444275   70.95200348    0.19000000    0.01000000
   16.69777679   72.18560028    0.19000000    0.01000000
   16.70111275   71.86699677    0.19000000    0.01000000
   16.70416832   71.81120300    0.19000000    0.01000000
   16.70888901   71.81120300    0.19000000    0.01000000
   16.71305656   71.55110168    0.19000000    0.01000000
   16.71638870   71.02739716    0.19000000    0.01000000
   16.71944427   71.16580200    0.19000000    0.01000000
   16.72277832   70.82299805    0.19000000    0.01000000
   16.72611237   71.77559662    0.19000000    0.01000000
   16.72916794   71.28179932    0.19000000    0.01000000
   16.73250008   70.68620300    0.19000000    0.01000000
   16.73583412   70.86260223    0.19000000    0.01000000
   16.73888969   70.13390350    0.19000000    0.01000000
   16.74222183   71.11740112    0.19000000    0.01000000
   16.74277878   69.40139771    0.19000000    0.01000000
   16.74583435   71.36650085    0.19000000    0.01000000
   16.74916649   71.39869690    0.19000000    0.01000000
   16.75250053   70.24890137    0.19000000    0.01000000
   16.75555611   74.51210022    0.19000000    0.01000000
   16.76027870   74.51210022    0.19000000    0.01000000
   16.76416588   69.28669739    0.19000000    0.01000000
   16.76749992   70.50399780    0.19000000    0.01000000
   16.77083397   74.15529633    0.19000000    0.01000000
   16.77388954   70.40979767    0.19000000    0.01000000
   16.77722168   71.77140045    0.19000000    0.01000000
   16.78027725   68.96230316    0.19000000    0.01000000
   16.78361130   69.83830261    0.19000000    0.01000000
   16.78694344   72.53130341    0.19000000    0.01000000
   16.78999901   70.25990295    0.19000000    0.01000000
   16.79277802   70.66909790    0.19000000    0.01000000
   16.79388809   71.28800201    0.19000000    0.01000000
   16.79694366   71.84719849    0.19000000    0.01000000
   16.80027771   73.38020325    0.19000000    0.01000000
   16.80333328   73.16680145    0.19000000    0.01000000
   16.80666542   70.41159821    0.19000000    0.01000000
   16.81138802   70.41159821    0.19000000    0.01000000
   16.81555557   71.41049957    0.19000000    0.01000000
   16.81861115   70.18920135    0.19000000    0.01000000
   16.82194519   70.90470123    0.19000000    0.01000000
   16.82527924   71.93299866    0.19000000    0.01000000
   16.82833481   71.51470184    0.19000000    0.01000000
   16.83166695   71.28269958    0.19000000    0.01000000
   16.83500099   70.44400024    0.19000000    0.01000000
   16.83805656   68.90390015    0.19000000    0.01000000
   16.84138870   69.96089935    0.19000000    0.01000000
   16.84277916   71.24169922    0.19000000    0.01000000
   16.84500122   70.50530243    0.19000000    0.01000000
   16.84805679   72.58670044    0.19000000    0.01000000
   16.85138893   71.63230133    0.19000000    0.01000000
   16.85444450   72.18920135    0.19000000    0.01000000
   16.85777855   71.12429810    0.19000000    0.01000000
   16.86250114   71.12429810    0.19000000    0.01000000
   16.86666679   71.09609985    0.19000000    0.01000000
   16.86972237   71.87010193    0.19000000    0.01000000
   16.87305641   74.06900024    0.19000000    0.01000000
   16.87638855   70.22540283    0.19000000    0.01000000
   16.87944412   71.98280334    0.19000000    0.01000000
   16.88277817   69.82510376    0.19000000    0.01000000
   16.88611031   72.38089752    0.19000000    0.01000000
   16.88916588   72.10420227    0.19000000    0.01000000
   16.89249992   70.77519989    0.19000000    0.01000000
   16.89305496   72.44290161    0.19000000    0.01000000
   16.89611053   70.73010254    0.19000000    0.01000000
   16.89944458   71.09529877    0.19000000    0.01000000
   16.90277672   71.90249634    0.19000000    0.01000000
   16.90583229   69.86940002    0.19000000    0.01000000
   16.90916634   72.01940155    0.19000000    0.01000000
   16.91361046   72.01940155    0.19000000    0.01000000
   16.91777802   71.34590149    0.19000000    0.01000000
   16.92111015   71.19439697    0.19000000    0.01000000
   16.92416573   73.75959778    0.19000000    0.01000000
   16.92749977   68.84110260    0.19000000    0.01000000
   16.93083191   71.71720123    0.19000000    0.01000000
   16.93388748   71.29560089    0.19000000    0.01000000
   16.93722153   72.43209839    0.19000000    0.01000000
   16.94027710   71.45690155    0.19000000    0.01000000
   16.94305420   71.80269623    0.19000000    0.01000000
   16.94416618   71.74040222    0.19000000    0.01000000
   16.94722176   70.85569763    0.19000000    0.01000000
   16.95055580   73.40309906    0.19000000    0.01000000
   16.95361137   70.85220337    0.19000000    0.01000000
   16.95694542   72.28450012    0.19000000    0.01000000
   16.96027946   70.18240356    0.19000000    0.01000000
   16.96500015   70.18240356    0.19000000    0.01000000
   16.96888924   70.17649841    0.19000000    0.01000000
   16.97222328   72.23159790    0.19000000    0.01000000
   16.97555542   70.00229645    0.19000000    0.01000000
   16.97861099   71.38379669    0.19000000    0.01000000
   16.98194504   69.90599823    0.19000000    0.01000000
   16.98500061   71.43879700    0.19000000    0.01000000
   16.98833275   72.45850372    0.19000000    0.01000000
   16.99166679   73.49040222    0.19000000    0.01000000
   16.99305534   71.46769714    0.19000000    0.01000000
   16.99527740   73.10500336    0.19000000    0.01000000
   16.99833298   71.96970367    0.19000000    0.01000000
   17.00166702   72.12339783    0.19000000    0.01000000
   17.00499916   71.70580292    0.19000000    0.01000000
   17.00805473   72.16280365    0.19000000    0.01000000
   17.01138878   70.23470306    0.19000000    0.01000000
   17.01611137   70.23470306    0.19000000    0.01000000
   17.02027702   74.41850281    0.19000000    0.01000000
   17.02333260   72.79399872    0.19000000    0.01000000
   17.02666664   70.95839691    0.19000000    0.01000000
   17.02972221   70.24829865    0.19000000    0.01000000
   17.03305435   73.35880280    0.19000000    0.01000000
   17.03638840   71.25499725    0.19000000    0.01000000
   17.03944397   71.82289886    0.19000000    0.01000000
   17.04277802   71.57890320    0.19000000    0.01000000
   17.04333305   72.01830292    0.19000000    0.01000000
   17.04666710   70.55390167    0.19000000    0.01000000
   17.04972076   71.95249939    0.19000000    0.01000000
   17.05305481   70.95079803    0.19000000    0.01000000
   17.05611038   71.39669800    0.19000000    0.01000000
   17.05944443   70.41750336    0.19000000    0.01000000
   17.06277657   71.42729950    0.19000000    0.01000000
   17.06722260   71.42729950    0.19000000    0.01000000
   17.07139015   70.80750275    0.19000000    0.01000000
   17.07444572   73.49790192    0.19000000    0.01000000
   17.07777786   71.53199768    0.19000000    0.01000000
   17.08111191   70.76069641    0.19000000    0.01000000
   17.08416748   69.77140045    0.19000000    0.01000000
   17.08750153   70.84770203    0.19000000    0.01000000
   17.09083366   70.49849701    0.19000000    0.01000000
   17.10805511   77.79039764    0.19000000    0.01000000
   17.11055565   70.84300232    0.19000000    0.01000000
   17.11388969   74.46700287    0.19000000    0.01000000
   17.11861038   74.46700287    0.19000000    0.01000000
   17.12277794   70.94920349    0.19000000    0.01000000
   17.12583351   71.33999634    0.19000000    0.01000000
   17.12916756   72.26589966    0.19000000    0.01000000
   17.13222313   71.30629730    0.19000000    0.01000000
   17.13555527   72.81960297    0.19000000    0.01000000
   17.13888931   72.89299774    0.19000000    0.01000000
   17.14194489   71.18509674    0.19000000    0.01000000
   17.14527702   72.92970276    0.19000000    0.01000000
   17.14861107   70.34680176    0.19000000    0.01000000
   17.15166664   70.70259857    0.19000000    0.01000000
   17.15499878   73.66989899    0.19000000    0.01000000
   17.15777779   74.22270203    0.19000000    0.01000000
   17.15861130   74.41310120    0.19000000    0.01000000
   17.16194344   71.00689697    0.19000000    0.01000000
   17.16499901   71.43440247    0.19000000    0.01000000
   17.16972160   71.43440247    0.19000000    0.01000000
   17.17388916   73.66570282    0.19000000    0.01000000
   17.17694473   73.21089935    0.19000000    0.01000000
   17.18027687   72.65789795    0.19000000    0.01000000
   17.18361092   70.09719849    0.19000000    0.01000000
   17.18666649   72.17929840    0.19000000    0.01000000
   17.18999863   75.19400024    0.19000000    0.01000000
   17.19333267   69.74490356    0.19000000    0.01000000
   17.19638824   71.22160339    0.19000000    0.01000000
   17.19972038   71.58799744    0.19000000    0.01000000
   17.20277786   75.73320007    0.19000000    0.01000000
   17.20611191   70.75150299    0.19000000    0.01000000
   17.20777893   69.86090088    0.19000000    0.01000000
   17.20972252   73.18489838    0.19000000    0.01000000
   17.21305656   70.10520172    0.19000000    0.01000000
   17.21611214   71.09570313    0.19000000    0.01000000
   17.22083473   71.09570313    0.19000000    0.01000000
   17.22500038   72.02770233    0.19000000    0.01000000
   17.22833443   71.77030182    0.19000000    0.01000000
   17.23139000   71.12830353    0.19000000    0.01000000
   17.23472214   71.33940125    0.19000000    0.01000000
   17.23805618   71.26540375    0.19000000    0.01000000
   17.24111176   72.66089630    0.19000000    0.01000000
   17.24444389   72.96019745    0.19000000    0.01000000
   17.24749947   69.92279816    0.19000000    0.01000000
   17.25083351   75.44509888    0.19000000    0.01000000
   17.25416756   74.56159973    0.19000000    0.01000000
   17.25722313   73.07389832    0.19000000    0.01000000
   17.25777817   71.76679993    0.19000000    0.01000000
   17.26083374   70.69100189    0.19000000    0.01000000
   17.26416588   72.14700317    0.19000000    0.01000000
   17.26749992   72.74790192    0.19000000    0.01000000
   17.27194405   72.74790192    0.19000000    0.01000000
   17.27611160   72.91100311    0.19000000    0.01000000
   17.27944374   74.89350128    0.19000000    0.01000000
   17.28277779   71.48509979    0.19000000    0.01000000
   17.28583336   72.26599884    0.19000000    0.01000000
   17.28916550   69.91729736    0.19000000    0.01000000
   17.29222107   72.92910004    0.19000000    0.01000000
   17.29555511   71.21669769    0.19000000    0.01000000
   17.29888916   72.92040253    0.19000000    0.01000000
   17.30194283   70.89389801    0.19000000    0.01000000
   17.30527687   71.26309967    0.19000000    0.01000000
   17.30777740   70.25409698    0.19000000    0.01000000
   17.30888748   71.63950348    0.19000000    0.01000000
   17.31222153   72.06770325    0.19000000    0.01000000
   17.31527710   73.92500305    0.19000000    0.01000000
   17.31861115   71.43910217    0.19000000    0.01000000
   17.32333374   71.43910217    0.19000000    0.01000000
   17.32750130   72.14070129    0.19000000    0.01000000
   17.33055687   71.96399689    0.19000000    0.01000000
   17.33388901   71.28109741    0.19000000    0.01000000
   17.33694458   70.37500000    0.19000000    0.01000000
   17.34027863   73.12020111    0.19000000    0.01000000
   17.34361267   72.02069855    0.19000000    0.01000000
   17.34666824   71.67449951    0.19000000    0.01000000
   17.35000038   71.20059967    0.19000000    0.01000000
   17.35333443   71.55229950    0.19000000    0.01000000
   17.35639000   71.28649902    0.19000000    0.01000000
   17.35777855   71.43260193    0.19000000    0.01000000
   17.36000061   71.33360291    0.19000000    0.01000000
   17.36333466   72.60720062    0.19000000    0.01000000
   17.36638832   75.07740021    0.19000000    0.01000000
   17.36972237   78.43129730    0.19000000    0.01000000
   17.37444496   78.43129730    0.19000000    0.01000000
   17.37861061   73.53730011    0.19000000    0.01000000
   17.38166618   71.67099762    0.19000000    0.01000000
   17.38500023   73.12580109    0.19000000    0.01000000
   17.38833237   70.92510223    0.19000000    0.01000000
   17.39138794   70.11460114    0.19000000    0.01000000
   17.39472198   72.31439972    0.19000000    0.01000000
   17.39805603   70.72059631    0.19000000    0.01000000
   17.40111160   70.98490143    0.19000000    0.01000000
   17.40444374   70.00170135    0.19000000    0.01000000
   17.40749931   75.31680298    0.19000000    0.01000000
   17.40805435   72.16979980    0.19000000    0.01000000
   17.41138840   70.93800354    0.19000000    0.01000000
   17.41472244   71.05970001    0.19000000    0.01000000
   17.41777802   71.57649994    0.19000000    0.01000000
   17.42111015   70.79250336    0.19000000    0.01000000
   17.42555428   70.79250336    0.19000000    0.01000000
   17.42972183   72.98979950    0.19000000    0.01000000
   17.43305397   70.23870087    0.19000000    0.01000000
   17.43610954   70.24900055    0.19000000    0.01000000
   17.43944359   69.26589966    0.19000000    0.01000000
   17.44277763   73.49259949    0.19000000    0.01000000
   17.44583321   72.98690033    0.19000000    0.01000000
   17.44916534   70.27559662    0.19000000    0.01000000
   17.45222282   73.84960175    0.19000000    0.01000000
   17.45555687   69.54869843    0.19000000    0.01000000
   17.45833397   72.63569641    0.19000000    0.01000000
   17.45916748   72.37930298    0.19000000    0.01000000
   17.46250153   72.43009949    0.19000000    0.01000000
   17.46555710   70.99909973    0.19000000    0.01000000
   17.46888924   73.39640045    0.19000000    0.01000000
   17.47222328   72.85340118    0.19000000    0.01000000
   17.47666740   72.85340118    0.19000000    0.01000000
   17.48083305   71.64749908    0.19000000    0.01000000
   17.48416710   71.22869873    0.19000000    0.01000000
   17.48750114   71.93000031    0.19000000    0.01000000
   17.49055672   74.08080292    0.19000000    0.01000000
   17.49388885   75.04560089    0.19000000    0.01000000
   17.49694443   69.11370087    0.19000000    0.01000000
   17.50027847   75.09719849    0.19000000    0.01000000
   17.50361061   69.71589661    0.19000000    0.01000000
   17.50666618   75.74210358    0.19000000    0.01000000
   17.50833321   72.63220215    0.19000000    0.01000000
   17.51027870   72.17729950    0.19000000    0.01000000
   17.51361084   74.67230225    0.19000000    0.01000000
   17.51694489   68.94809723    0.19000000    0.01000000
   17.52000046   70.22339630    0.19000000    0.01000000
   17.55722237   -1.00000000   -1.00000000   -1.00000000
