    HOUR (UT)   FLARE FACTOR    SKY TESTER    SUN TESTER
   11.75305557   -1.00000000   -1.00000000   -1.00000000
   11.77999973  115.91000366    0.76999998    2.64000010
   11.78333378  120.60099792    0.76999998    2.61999989
   11.78666687  116.34500122    0.76999998    2.64000010
   11.78972244  110.18199921    0.76999998    2.64000010
   11.79305553  118.44499969    0.76999998    2.64000010
   11.79611111  116.27100372    0.75000000    2.64000010
   11.79944515  111.12500000    0.76999998    2.64000010
   11.80277824  110.09200287    0.75000000    2.64000010
   11.80805588  110.09200287    0.75000000    2.64000010
   11.81222248  123.12100220    0.75000000    2.61999989
   11.81555557  116.65599823    0.76999998    2.64000010
   11.81888866  119.95400238    0.76999998    2.64000010
   11.82194424  118.22399902    0.76999998    2.64000010
   11.82527733  111.52700043    0.76999998    2.64000010
   11.82833290  114.22799683    0.79000002    2.64000010
   11.82972240  125.14700317    0.79000002    2.64000010
   11.83194447  122.13800049    0.79000002    2.64000010
   11.83555508  113.55899811    0.79000002    2.64000010
   11.83888817  114.67199707    0.79000002    2.64000010
   11.84194374  115.75700378    0.79000002    2.64000010
   11.84527779  117.05200195    0.80000001    2.66000009
   11.84833336  109.59400177    0.80000001    2.64000010
   11.85166740  111.58200073    0.80000001    2.66000009
   11.85500050  118.76100159    0.79000002    2.66000009
   11.85944462  118.76100159    0.76999998    2.66000009
   11.86361122  109.23500061    0.75000000    2.66000009
   11.86666679  108.85600281    0.75000000    2.66000009
   11.86999989  111.65699768    0.75000000    2.66000009
   11.87305546  111.18800354    0.75000000    2.64000010
   11.87638855  112.74500275    0.75000000    2.66000009
   11.87972260  109.52799988    0.75000000    2.66000009
   11.88000011  114.93299866    0.75000000    2.66000009
   11.88333321  107.77999878    0.75000000    2.64000010
   11.88666630  109.34400177    0.76999998    2.66000009
   11.88972187  105.81999969    0.76999998    2.64000010
   11.89305496  106.66500092    0.76999998    2.66000009
   11.89611053  110.49400330    0.76999998    2.66000009
   11.89944458  112.88300323    0.75000000    2.66000009
   11.90277767  115.74500275    0.75000000    2.66000009
   11.90583324  111.38400269    0.75000000    2.66000009
   11.91055489  111.38400269    0.75000000    2.66000009
   11.91472149  109.30000305    0.76999998    2.66000009
   11.91777802  108.53399658    0.75000000    2.67000008
   11.92111111  111.52200317    0.75000000    2.66000009
   11.92444515  107.30300140    0.75000000    2.66000009
   11.92750072  109.30699921    0.75000000    2.67000008
   11.92972279  114.09300232    0.76999998    2.66000009
   11.93111134  105.26100159    0.76999998    2.67000008
   11.93444443  106.70400238    0.76999998    2.66000009
   11.93777752  113.47299957    0.76999998    2.66000009
   11.94083309  108.16899872    0.75000000    2.66000009
   11.94416714  106.60500336    0.75000000    2.66000009
   11.94722271  107.64399719    0.73000002    2.67000008
   11.95055580  107.72200012    0.73000002    2.66000009
   11.95388889  106.39399719    0.73000002    2.67000008
   11.95694447  106.39099884    0.70999998    2.67000008
   11.96166611  106.39099884    0.70999998    2.67000008
   11.96583271  106.60700226    0.70999998    2.67000008
   11.96916580  105.63400269    0.69000000    2.67000008
   11.97222137  102.95899963    0.70999998    2.67000008
   11.97555542  106.06500244    0.67000002    2.67000008
   11.97888851  105.55000305    0.69000000    2.67000008
   11.97972202  101.98899841    0.67000002    2.67000008
   11.98249912  103.10299683    0.67000002    2.67000008
   11.98583317  103.50800323    0.69000000    2.67000008
   11.98916721  102.52500153    0.67000002    2.67000008
   11.99222279  103.41400146    0.69000000    2.69000006
   11.99555588  109.92099762    0.69000000    2.67000008
   11.99861145  105.70899963    0.69000000    2.67000008
   12.00194454  106.46800232    0.70999998    2.67000008
   12.00527763  105.45200348    0.69000000    2.67000008
   12.00833321  105.76000214    0.69000000    2.67000008
   12.01277733  105.76000214    0.70999998    2.69000006
   12.01694393  106.01699829    0.70999998    2.69000006
   12.02027798  104.74600220    0.70999998    2.69000006
   12.02388859  114.04399872    0.70999998    2.67000008
   12.02777767  107.06600189    0.70999998    2.69000006
   12.03083324  107.28500366    0.70999998    2.69000006
   12.03277779  104.56700134    0.69000000    2.69000006
   12.03611183  102.30000305    0.69000000    2.69000006
   12.04055595  103.54499817    0.67000002    2.67000008
   12.04444504  103.19499969    0.69000000    2.69000006
   12.04805565   97.15360260    0.69000000    2.69000006
   12.05138874  100.71299744    0.73000002    2.69000006
   12.05638885  100.61900330    0.73000002    2.69000006
   12.06083393  102.38600159    0.75000000    2.69000006
   12.06583309  102.38600159    0.75000000    2.69000006
   12.07055569  102.44699860    0.76999998    2.69000006
   12.07416630  107.87899780    0.76999998    2.69000006
   12.07750034  106.28299713    0.79000002    2.69000006
   12.07999992   99.78309631    0.79000002    2.69000006
   12.08138847  106.48200226    0.79000002    2.69000006
   12.08472157  101.12599945    0.79000002    2.69000006
   12.08805561  103.61000061    0.76999998    2.69000006
   12.09138870  102.21399689    0.76999998    2.69000006
   12.09444427  104.19100189    0.79000002    2.69000006
   12.09777737   97.62560272    0.79000002    2.69000006
   12.10111141  102.38300323    0.79000002    2.69000006
   12.10444450  104.71800232    0.80000001    2.69000006
   12.10777855   99.17269897    0.80000001    2.69000006
   12.11111164  109.08699799    0.80000001    2.69000006
   12.11611176  109.08699799    0.81999999    2.69000006
   12.12027836   96.46309662    0.81999999    2.69000006
   12.12361145   93.59089661    0.80000001    2.69000006
   12.12722206   97.01360321    0.79000002    2.71000004
   12.13000011   92.99849701    0.79000002    2.71000004
   12.13083363   95.13990021    0.79000002    2.71000004
   12.13416672   98.90370178    0.76999998    2.71000004
   12.13722229   98.88590240    0.76999998    2.69000006
   12.14055538  100.02700043    0.75000000    2.71000004
   12.14388847   94.31340027    0.75000000    2.71000004
   12.14722252   97.16609955    0.75000000    2.69000006
   12.15055561   95.72540283    0.70999998    2.71000004
   12.15388870   93.54810333    0.73000002    2.71000004
   12.15833282   91.21679688    0.70999998    2.71000004
   12.16194439   94.18589783    0.70999998    2.71000004
   12.16777802   94.18589783    0.70999998    2.71000004
   12.17250061   94.01319885    0.70999998    2.71000004
   12.17583370   99.40689850    0.70999998    2.71000004
   12.17916679  101.70400238    0.70999998    2.71000004
   12.18027782   95.55970001    0.70999998    2.71000004
   12.18333340   92.25710297    0.69000000    2.71000004
   12.18666649   95.25930023    0.69000000    2.71000004
   12.19000053  101.05300140    0.70999998    2.71000004
   12.19305515   94.35700226    0.69000000    2.71000004
   12.19666672   89.46279907    0.69000000    2.71000004
   12.19999981   88.60119629    0.69000000    2.71000004
   12.20333290   87.41580200    0.69000000    2.71000004
   12.20666695   85.84049988    0.69000000    2.71000004
   12.21000004   91.38549805    0.70999998    2.71000004
   12.21333313   89.21189880    0.70999998    2.73000002
   12.21861076   89.21189880    0.70999998    2.73000002
   12.22277737   91.55519867    0.70999998    2.73000002
   12.22611046   92.94750214    0.70999998    2.73000002
   12.22944355   90.56569672    0.70999998    2.73000002
   12.23027706   87.10109711    0.70999998    2.73000002
   12.23333359   88.28749847    0.70999998    2.73000002
   12.23666668   89.92440033    0.70999998    2.75000000
   12.24027824   96.50409698    0.70999998    2.71000004
   12.24361134   92.89179993    0.70999998    2.73000002
   12.24694443   88.08200073    0.73000002    2.73000002
   12.25027752   85.55329895    0.73000002    2.71000004
   12.25361156   91.57379913    0.73000002    2.73000002
   12.25722218   90.83670044    0.73000002    2.73000002
   12.26055527   85.42700195    0.73000002    2.71000004
   12.26388931   92.79090118    0.73000002    2.71000004
   12.26972198   92.79090118    0.73000002    2.73000002
   12.27388859   96.59069824    0.73000002    2.73000002
   12.27722168  100.64199829    0.70999998    2.73000002
   12.28055573   91.48210144    0.70999998    2.73000002
   12.28138828   91.05030060    0.70999998    2.73000002
   12.28472233   95.80780029    0.70999998    2.73000002
   12.28777790   89.88659668    0.70999998    2.75000000
   12.29111195   96.31980133    0.69000000    2.73000002
   12.29444504   94.11409760    0.69000000    2.73000002
   12.29750061  100.33799744    0.69000000    2.73000002
   12.30083370   96.60679626    0.69000000    2.75000000
   12.30416679   98.83219910    0.69000000    2.75000000
   12.30722237   97.27390289    0.69000000    2.73000002
   12.31055546   95.11219788    0.67000002    2.75000000
   12.31388950   97.72769928    0.69000000    2.73000002
   12.31694412   94.65779877    0.69000000    2.73000002
   12.32138920   94.65779877    0.69000000    2.73000002
   12.32555580   98.72730255    0.69000000    2.73000002
   12.32888889   99.55090332    0.67000002    2.75000000
   12.33027744  100.41400146    0.67000002    2.75000000
   12.33277798   93.43419647    0.67000002    2.75000000
   12.33666611   93.12249756    0.67000002    2.73000002
   12.34000015   96.43219757    0.67000002    2.75000000
   12.34333324   99.53410339    0.67000002    2.73000002
   12.34666634   92.84680176    0.67000002    2.75000000
   12.34972191  111.21499634    0.67000002    2.75000000
   12.35305595  100.53399658    0.69000000    2.75000000
   12.35638905  107.93399811    0.67000002    2.75000000
   12.35972214   94.96549988    0.69000000    2.73000002
   12.36277771   94.22850037    0.69000000    2.75000000
   12.36611176   94.91359711    0.67000002    2.75000000
   12.37305546   94.91359711    0.69000000    2.73000002
   12.37722206   96.94809723    0.67000002    2.75000000
   12.38027763  105.37300110    0.67000002    2.73000002
   12.38083363   94.36900330    0.67000002    2.73000002
   12.38444424   93.13430023    0.69000000    2.75000000
   12.38777733  102.12300110    0.73000002    2.73000002
   12.39111137   98.58100128    0.70999998    2.73000002
   12.39444447   99.58850098    0.70999998    2.75000000
   12.39750004  103.68099976    0.70999998    2.75000000
   12.40083313   94.31990051    0.70999998    2.75000000
   12.40416622   89.79280090    0.70999998    2.75000000
   12.40749931  103.46199799    0.70999998    2.75000000
   12.41083336   96.24019623    0.70999998    2.75000000
   12.41416645  100.67099762    0.69000000    2.75000000
   12.41750050  104.84600067    0.69000000    2.73000002
   12.42416668  104.84600067    0.69000000    2.75000000
   12.42833328  102.99600220    0.67000002    2.75000000
   12.43027782   99.45770264    0.67000002    2.75000000
   12.43194485  107.61199951    0.67000002    2.75000000
   12.43527794  110.83899689    0.67000002    2.75000000
   12.43861103   99.91840363    0.69000000    2.75000000
   12.44194412  106.59999847    0.67000002    2.76999998
   12.44527817  100.20400238    0.69000000    2.76999998
   12.44833374  104.43599701    0.69000000    2.75000000
   12.45166683  101.15399933    0.69000000    2.75000000
   12.45499992   97.77279663    0.69000000    2.76999998
   12.45833302  101.20800018    0.69000000    2.75000000
   12.46166611  100.70400238    0.69000000    2.75000000
   12.46472168  104.48699951    0.67000002    2.76999998
   12.46805477  102.60199738    0.67000002    2.75000000
   12.47194386  105.59400177    0.67000002    2.75000000
   12.47638798  105.59400177    0.69000000    2.75000000
   12.48055553  106.97799683    0.69000000    2.75000000
   12.48361111   97.66819763    0.69000000    2.76999998
   12.48694515  107.18399811    0.69000000    2.75000000
   12.49027824  104.64199829    0.67000002    2.76999998
   12.49361134   98.89279938    0.67000002    2.75000000
   12.49694443  101.50199890    0.67000002    2.75000000
   12.50000000  106.81500244    0.69000000    2.75000000
   12.50333309  113.73300171    0.69000000    2.75000000
   12.50666714   99.31759644    0.67000002    2.76999998
   12.50972176   97.96060181    0.64999998    2.76999998
   12.51305580   99.74430084    0.67000002    2.76999998
   12.51611137   98.82219696    0.67000002    2.76999998
   12.51944447  105.00399780    0.67000002    2.75000000
   12.52277756  106.28800201    0.67000002    2.76999998
   12.52750015  106.28800201    0.67000002    2.76999998
   12.53166676  103.26899719    0.67000002    2.76999998
   12.53472233  103.13400269    0.67000002    2.76999998
   12.53805637  104.18000031    0.67000002    2.76999998
   12.54138947  105.78299713    0.69000000    2.76999998
   12.54472256  104.76200104    0.67000002    2.76999998
   12.54777813  104.29399872    0.67000002    2.76999998
   12.55111122  100.63500214    0.67000002    2.76999998
   12.55444431  113.52400208    0.67000002    2.76999998
   12.55749989  104.08699799    0.67000002    2.76999998
   12.56083393  104.76599884    0.67000002    2.76999998
   12.56416702  106.60500336    0.67000002    2.76999998
   12.56722260  110.26799774    0.69000000    2.78999996
   12.57055569  109.64800262    0.69000000    2.76999998
   12.57361126  120.15699768    0.69000000    2.75000000
   12.57861137  120.15699768    0.69000000    2.78999996
   12.58277798  119.70200348    0.69000000    2.76999998
   12.58611107  116.86699677    0.70999998    2.76999998
   12.58916664  117.16400146    0.69000000    2.76999998
   12.59249973  106.37300110    0.69000000    2.76999998
   12.59583282  114.22699738    0.64999998    2.76999998
   12.59888840  122.50900269    0.67000002    2.76999998
   12.60222244  116.96800232    0.67000002    2.76999998
   12.60555553  112.72000122    0.67000002    2.76999998
   12.60861111  123.32800293    0.64999998    2.78999996
   12.61194515  110.93800354    0.67000002    2.76999998
   12.61527824  105.93000031    0.67000002    2.78999996
   12.61833382  114.31900024    0.67000002    2.76999998
   12.62166691  109.99500275    0.69000000    2.76999998
   12.62500000  112.09600067    0.67000002    2.76999998
   12.62972260  112.09600067    0.67000002    2.76999998
   12.63388920   97.17359924    0.67000002    2.76999998
   12.63722229  107.95300293    0.67000002    2.76999998
   12.64055538   98.52749634    0.69000000    2.78999996
   12.64361095  105.87999725    0.64999998    2.78999996
   12.64694405  100.45899963    0.64999998    2.78999996
   12.65027714  105.42299652    0.64999998    2.78999996
   12.65333271  109.00199890    0.67000002    2.76999998
   12.65666676  113.48300171    0.67000002    2.78999996
   12.65999985  100.97899628    0.64999998    2.78999996
   12.66305542  109.16899872    0.64999998    2.78999996
   12.66638851  116.50800323    0.67000002    2.78999996
   12.66944504  111.56600189    0.63000000    2.78999996
   12.67277813  109.10199738    0.63000000    2.78999996
   12.67611122  115.42299652    0.63000000    2.78999996
   12.68083382  115.42299652    0.63000000    2.78999996
   12.68500042  110.83599854    0.63000000    2.78999996
   12.68833351  108.52700043    0.63000000    2.78999996
   12.69166660  104.02600098    0.63000000    2.78999996
   12.69472218  113.29199982    0.63000000    2.78999996
   12.69805527  125.98999786    0.63000000    2.78999996
   12.70138836  126.15899658    0.63000000    2.78999996
   12.70444393  117.19499969    0.64999998    2.78999996
   12.70777798  118.42900085    0.64999998    2.78999996
   12.71111107  113.52999878    0.64999998    2.76999998
   12.71444416  123.27500153    0.64999998    2.78999996
   12.71749973  109.19300079    0.64999998    2.80999994
   12.72083282  112.42099762    0.64999998    2.78999996
   12.72416592  102.16200256    0.64999998    2.78999996
   12.72722149  114.59300232    0.64999998    2.78999996
   12.73222160  114.59300232    0.63000000    2.78999996
   12.73638916   91.19010162    0.63000000    2.78999996
   12.73944473  113.42700195    0.63000000    2.78999996
   12.74277782  115.91400146    0.64999998    2.78999996
   12.74611092  109.82700348    0.63000000    2.78999996
   12.74944496  116.24900055    0.63000000    2.80999994
   12.75249958  107.27799988    0.63000000    2.78999996
   12.75583363  109.12599945    0.63000000    2.78999996
   12.75916672  129.38200378    0.64999998    2.78999996
   12.76222229  117.64900208    0.63000000    2.78999996
   12.76555538  118.26599884    0.64999998    2.78999996
   12.76888847  116.86599731    0.63000000    2.78999996
   12.77194405  122.08200073    0.64999998    2.78999996
   12.77527714  121.19599915    0.63000000    2.80999994
   12.77833271  119.15799713    0.63000000    2.78999996
   12.79750061   91.30549622    0.63000000    2.78999996
   12.79944515  118.05400085    0.63000000    2.78999996
   12.80277824  111.40399933    0.63000000    2.78999996
   12.80583382  121.40299988    0.63000000    2.78999996
   12.80916691  129.55999756    0.63000000    2.78999996
   12.81250000  114.92600250    0.63000000    2.80999994
   12.81555557  120.74600220    0.61000001    2.80999994
   12.81888866  126.59100342    0.58999997    2.80999994
   12.82222176  122.33699799    0.61000001    2.80999994
   12.82527733  112.31099701    0.63000000    2.80999994
   12.82861137  101.57800293    0.64999998    2.80999994
   12.83583260  101.57800293    0.67000002    2.80999994
   12.84000015  118.03099823    0.69000000    2.80999994
   12.84305477  130.91000366    0.69000000    2.80999994
   12.84638882  118.49500275    0.69000000    2.80999994
   12.84749985  115.68800354    0.70999998    2.80999994
   12.85027790  115.39600372    0.70999998    2.80999994
   12.85361195  115.53600311    0.73000002    2.82999992
   12.85666752  116.07299805    0.75000000    2.80999994
   12.86000061  111.88200378    0.75000000    2.78999996
   12.86333370  125.33200073    0.73000002    2.78999996
   12.86638927  114.09500122    0.73000002    2.78999996
   12.86972237  113.22599792    0.73000002    2.80999994
   12.87305546  123.31099701    0.73000002    2.80999994
   12.87638855  119.08100128    0.70999998    2.80999994
   12.87944412  123.76100159    0.67000002    2.80999994
   12.88583279  123.76100159    0.67000002    2.82999992
   12.89000034  121.20700073    0.67000002    2.80999994
   12.89333344  115.77500153    0.67000002    2.80999994
   12.89666653  109.30999756    0.63000000    2.82999992
   12.89750004  118.59500122    0.63000000    2.82999992
   12.90083313  103.53099823    0.61000001    2.82999992
   12.90416622  122.21399689    0.58999997    2.82999992
   12.91027737  116.76399994    0.58999997    2.82999992
   12.91361046  114.81300354    0.58999997    2.80999994
   12.91694450  121.61199951    0.56999999    2.80999994
   12.92000008  110.25299835    0.56999999    2.82999992
   12.92333412  104.72299957    0.55000001    2.80999994
   12.92666721  113.89900208    0.55000001    2.80999994
   12.92972279  114.12699890    0.52999997    2.82999992
   12.93305588  114.66000366    0.52999997    2.82999992
   12.93750000  114.66000366    0.52999997    2.82999992
   12.94166660  112.04399872    0.56999999    2.82999992
   12.94499969  111.21600342    0.56999999    2.82999992
   12.94750023  105.08899689    0.56999999    2.82999992
   12.94888878  112.69699860    0.56999999    2.82999992
   12.95222187  114.65100098    0.58999997    2.82999992
   12.95555496  110.26300049    0.61000001    2.84999990
   12.95861053  108.89900208    0.61000001    2.82999992
   12.96194458  105.30799866    0.61000001    2.80999994
   12.96527767  110.93299866    0.61000001    2.80999994
   12.96833324  114.14499664    0.61000001    2.82999992
   12.97166634  113.81300354    0.61000001    2.82999992
   12.97499943  119.81099701    0.61000001    2.82999992
   12.97833252  110.36599731    0.58999997    2.82999992
   12.98138809  120.18199921    0.58999997    2.82999992
   12.98472214  109.19200134    0.61000001    2.82999992
   12.98916721  109.19200134    0.61000001    2.82999992
   12.99333382  110.78700256    0.61000001    2.82999992
   12.99638939  120.51300049    0.58999997    2.82999992
   12.99750042  114.50299835    0.58999997    2.82999992
   13.00027752  124.84200287    0.58999997    2.80999994
   13.00388908  119.34899902    0.61000001    2.80999994
   13.00722218  121.71199799    0.61000001    2.82999992
   13.01027775  123.66000366    0.63000000    2.82999992
   13.01361084  114.42700195    0.63000000    2.82999992
   13.01694393  120.77999878    0.63000000    2.82999992
   13.02027798  131.18699646    0.63000000    2.82999992
   13.02333355  132.99899292    0.64999998    2.82999992
   13.02666664  117.36900330    0.67000002    2.82999992
   13.02999973  131.78900146    0.67000002    2.82999992
   13.03333378  126.94699860    0.67000002    2.80999994
   13.04111195  126.94699860    0.67000002    2.82999992
   13.04527855  120.95600128    0.64999998    2.82999992
   13.04861164  127.36100006    0.67000002    2.80999994
   13.05027771  108.47599792    0.67000002    2.82999992
   13.05333328  130.92900085    0.67000002    2.80999994
   13.05666733  117.82199860    0.67000002    2.82999992
   13.06000042  132.61399841    0.69000000    2.82999992
   13.06333351  127.41999817    0.64999998    2.82999992
   13.06694412  120.20300293    0.67000002    2.82999992
   13.07027817  124.35199738    0.64999998    2.82999992
   13.07333374  130.28799438    0.64999998    2.82999992
   13.07666683  127.98600006    0.64999998    2.82999992
   13.07999992  142.27299500    0.64999998    2.82999992
   13.08333302  129.51899719    0.64999998    2.84999990
   13.08694458  125.93299866    0.64999998    2.82999992
   13.09555531  125.93299866    0.64999998    2.82999992
   13.10000038  122.71299744    0.64999998    2.80999994
   13.10388947  122.95600128    0.63000000    2.82999992
   13.10722256  121.54799652    0.61000001    2.82999992
   13.11027813  115.82199860    0.61000001    2.82999992
   13.11361122  128.52000427    0.58999997    2.82999992
   13.11694431  136.77699280    0.61000001    2.82999992
   13.12027836  128.39599609    0.61000001    2.82999992
   13.12361145  122.88800049    0.61000001    2.82999992
   13.12694454  140.75599670    0.61000001    2.84999990
   13.13027763  117.59899902    0.61000001    2.82999992
   13.13361073  112.38700104    0.61000001    2.84999990
   13.13694477  135.13299561    0.61000001    2.84999990
   13.14472198  135.13299561    0.58999997    2.82999992
   13.14916611  130.58299255    0.58999997    2.84999990
   13.15249920  121.07900238    0.58999997    2.82999992
   13.15583324  149.13499451    0.61000001    2.82999992
   13.15916634  134.99400330    0.61000001    2.82999992
   13.16249943  143.98699951    0.63000000    2.84999990
   13.16555500  149.36700439    0.61000001    2.84999990
   13.16888905  132.17300415    0.63000000    2.82999992
   13.17222214  125.92400360    0.61000001    2.82999992
   13.17555618  113.19000244    0.61000001    2.82999992
   13.17888927  138.31599426    0.63000000    2.82999992
   13.18222237  128.67799377    0.67000002    2.82999992
   13.18555546  127.78500366    0.67000002    2.82999992
   13.18888855  128.44599915    0.69000000    2.84999990
   13.19388866  128.44599915    0.75000000    2.82999992
   13.19833374  147.65299988    0.73000002    2.86999989
   13.20166683  116.33399963    0.76999998    2.82999992
   13.20527744  142.48800659    0.76999998    2.82999992
   13.20833302  126.12100220    0.75000000    2.82999992
   13.21194458  127.02700043    0.79000002    2.82999992
   13.21527767  118.27600098    0.79000002    2.84999990
   13.21833324  128.96899414    0.80000001    2.84999990
   13.22166634  150.45700073    0.81999999    2.82999992
   13.22499943  124.74500275    0.83999997    2.84999990
   13.22833252  127.10399628    0.83999997    2.82999992
   13.23166656  116.59300232    0.81999999    2.82999992
   13.23500061  127.76499939    0.81999999    2.82999992
   13.23833370  114.92099762    0.86000001    2.82999992
   13.24499989  114.92099762    0.92000002    2.82999992
   13.24916649  128.03900146    0.95999998    2.84999990
   13.25222206  138.47200012    0.98000002    2.82999992
   13.25555515  112.23400116    1.00000000    2.82999992
   13.25861073  130.79800415    1.01999998    2.82999992
   13.26194477  112.99900055    1.03999996    2.84999990
   13.26527786  115.02899933    1.03999996    2.82999992
   13.26833344  113.87100220    1.09000003    2.82999992
   13.27166653  128.66499329    1.11000001    2.82999992
   13.27499962  137.20700073    1.13000000    2.84999990
   13.27805519  123.62300110    1.16999996    2.84999990
   13.28138828  137.09399414    1.19000006    2.82999992
   13.28472233  120.15100098    1.25000000    2.82999992
   13.28777790  126.05699921    1.26999998    2.82999992
   13.29111195  137.64599609    1.28999996    2.82999992
   13.29611111  137.64599609    1.28999996    2.82999992
   13.30027771  132.16099548    1.41999996    2.84999990
   13.30333328  129.34399414    1.50000000    2.82999992
   13.30666733  124.60199738    1.51999998    2.82999992
   13.31000042  117.59500122    1.53999996    2.84999990
   13.31305599  125.94499969    1.55999994    2.82999992
   13.31638908  118.65200043    1.55999994    2.82999992
   13.31944466  143.63900757    1.61000001    2.82999992
   13.32277775  138.04100037    1.61000001    2.82999992
   13.32611084  137.21800232    1.69000006    2.82999992
   13.32916641  133.78799438    1.71000004    2.82999992
   13.33249950  132.78500366    1.69000006    2.82999992
   13.33555508  135.90899658    1.60000002    2.84999990
   13.33888817  123.73899841    1.53999996    2.82999992
   13.34222221  128.89399719    1.55999994    2.82999992
   13.34722233  128.89399719    1.58000004    2.82999992
   13.35138893  132.37300110    1.60000002    2.82999992
   13.35472298  145.30400085    1.60000002    2.80999994
   13.35777855  141.17300415    1.60000002    2.82999992
   13.36111164  151.37100220    1.58000004    2.84999990
   13.36416721  144.88699341    1.63000000    2.82999992
   13.36750031  136.52000427    1.71000004    2.82999992
   13.37083340  150.93099976    1.85000002    2.82999992
   13.37388897  154.25999451    1.78999996    2.82999992
   13.37722206  163.19900513    1.76999998    2.82999992
   13.38055611  157.86300659    1.73000002    2.82999992
   13.38361073  165.23899841    1.63000000    2.82999992
   13.38694477  172.69400024    1.60000002    2.84999990
   13.39027786  152.21899414    1.61000001    2.82999992
   13.39333344  115.81700134    1.61000001    2.82999992
   13.39833355  115.81700134    1.55999994    2.82999992
   13.40249920  146.68099976    1.44000006    2.84999990
   13.40583324  160.77299500    1.46000004    2.82999992
   13.40888882  152.08500671    1.44000006    2.84999990
   13.41222191  166.60600281    1.44000006    2.84999990
   13.41555500  175.22000122    1.41999996    2.82999992
   13.41861153  163.47099304    1.41999996    2.82999992
   13.42194462  156.10499573    1.41999996    2.84999990
   13.42500019  181.20599365    1.39999998    2.84999990
   13.42833328  174.66600037    1.39999998    2.82999992
   13.43166733  160.48100281    1.36000001    2.84999990
   13.43472195  174.99699402    1.33000004    2.84999990
   13.43805599  169.13800049    1.26999998    2.84999990
   13.44138908  174.00999451    1.19000006    2.84999990
   13.44472218  175.96600342    1.14999998    2.84999990
   13.44944477  175.96600342    1.13000000    2.84999990
   13.45361137  178.73300171    1.16999996    2.84999990
   13.45694447  182.32400513    1.16999996    2.84999990
   13.46027756  212.67799377    1.19000006    2.84999990
   13.46333313  163.56199646    1.19000006    2.84999990
   13.46666622  163.06900024    1.14999998    2.84999990
   13.46972179  193.91000366    1.11000001    2.84999990
   13.47305489  110.62300110    1.11000001    2.84999990
   13.47638798  159.63400269    1.11000001    2.84999990
   13.47944355  167.04100037    1.09000003    2.84999990
   13.48277760  172.30900574    1.05999994    2.84999990
   13.48611164  170.69099426    1.03999996    2.84999990
   13.48916721  166.94099426    1.01999998    2.84999990
   13.49250031  161.69500732    0.98000002    2.86999989
   13.49555588  141.96499634    0.98000002    2.84999990
   13.50083351  141.96499634    0.95999998    2.84999990
   13.50500011  153.10400391    0.95999998    2.86999989
   13.50805569  168.14100647    0.95999998    2.86999989
   13.51138878  154.61500549    0.95999998    2.84999990
   13.51444435  178.74200439    0.98000002    2.84999990
   13.51777744  198.77600098    0.98000002    2.86999989
   13.52111053  151.12600708    0.98000002    2.86999989
   13.52416611  177.72799683    1.00000000    2.84999990
   13.52750015  183.61099243    1.03999996    2.84999990
   13.53083324  161.87500000    1.11000001    2.84999990
   13.53388977  172.14199829    1.13000000    2.84999990
   13.53722286  202.70700073    1.16999996    2.86999989
   13.54027843  169.22599792    1.19000006    2.84999990
   13.54361153  197.46699524    1.21000004    2.86999989
   13.54694462  160.60600281    1.25000000    2.86999989
   13.55194473  160.60600281    1.28999996    2.86999989
   13.55611134  175.92999268    1.30999994    2.82999992
   13.55916691  170.45799255    1.33000004    2.84999990
   13.56250000  212.77099609    1.34000003    2.84999990
   13.56583309  173.39500427    1.36000001    2.84999990
   13.56888866  182.53599548    1.36000001    2.84999990
   13.57222176  163.12899780    1.39999998    2.86999989
   13.57555580  193.38200378    1.41999996    2.84999990
   13.57861137  166.92199707    1.44000006    2.84999990
   13.58194447  180.45199585    1.39999998    2.86999989
   13.58527756  181.40899658    1.36000001    2.86999989
   13.58833313  155.56500244    1.36000001    2.84999990
   13.59166622  186.22599792    1.34000003    2.86999989
   13.59472179  173.71299744    1.36000001    2.86999989
   13.59805489  147.90600586    1.38000000    2.86999989
   13.60305595  147.90600586    1.41999996    2.86999989
   13.60722256  170.84199524    1.41999996    2.86999989
   13.61055565  180.41600037    1.38000000    2.86999989
   13.61361122  187.72900391    1.36000001    2.86999989
   13.61694431  160.39599609    1.34000003    2.86999989
   13.61999989  180.62399292    1.33000004    2.86999989
   13.62333393  119.90100098    1.38000000    2.86999989
   13.62666702  154.77299500    1.39999998    2.84999990
   13.62972260  152.59300232    1.50000000    2.84999990
   13.63305569  177.81900024    1.60000002    2.84999990
   13.63638878  132.41900635    1.60000002    2.84999990
   13.63944435  139.33900452    1.60000002    2.84999990
   13.64277744  151.95899963    1.53999996    2.86999989
   13.64611053  151.27400208    1.48000002    2.86999989
   13.64916611  144.65800476    1.48000002    2.84999990
   13.65416622  144.65800476    1.48000002    2.86999989
   13.65833282  163.60299683    1.48000002    2.86999989
   13.66166592  141.63499451    1.48000002    2.86999989
   13.66499996  142.16799927    1.50000000    2.86999989
   13.66805553  154.86700439    1.53999996    2.84999990
   13.67138958  136.16700745    1.58000004    2.86999989
   13.67444515  135.53999329    1.61000001    2.86999989
   13.67777824  147.67300415    1.64999998    2.84999990
   13.68111134  138.58399963    1.69000006    2.86999989
   13.68416691  125.42500305    1.64999998    2.86999989
   13.68750000  134.64799500    1.71000004    2.84999990
   13.69055557  152.79600525    1.80999994    2.86999989
   13.69388866  126.69999695    1.86000001    2.86999989
   13.69722271  142.42300415    1.86000001    2.84999990
   13.70027733  127.65299988    1.88000000    2.86999989
   13.70555496  127.65299988    1.91999996    2.84999990
   13.70944405  130.58200073    1.96000004    2.86999989
   13.71277714  128.25000000    2.17000008    2.84999990
   13.71611118  142.91600037    2.21000004    2.84999990
   13.71916580  126.76799774    2.30999994    2.84999990
   13.72249985  125.72599792    2.61999989    2.84999990
   13.72583294  131.48599243    2.75000000    2.84999990
   13.72888851  122.19200134    2.80999994    2.82999992
   13.73222160  131.86900330    2.84999990    2.82999992
   13.73527813  116.30899811    2.94000006    2.82999992
   13.73861122  122.18900299    3.01999998    2.82999992
   13.74194431  143.90899658    3.03999996    2.84999990
   13.74499989  127.95300293    3.07999992    2.84999990
   13.74833393  127.50900269    3.18000007    2.84999990
   13.75166702  136.63099670    3.16000009    2.82999992
   13.75666714  136.63099670    3.09999990    2.82999992
   13.76083374  133.46699524    3.20000005    2.82999992
   13.76388931  145.52999878    3.26999998    2.82999992
   13.76722240  129.47500610    3.28999996    2.82999992
   13.77055550  112.71900177    3.30999994    2.84999990
   13.77361107  130.17999268    3.30999994    2.80999994
   13.77694416  135.38200378    3.43000007    2.84999990
   13.78027725  130.44799805    3.41000009    2.82999992
   13.78333378  125.65000153    3.39000010    2.84999990
   13.78666687  122.60199738    3.34999990    2.84999990
   13.79000092  141.07899475    3.23000002    2.82999992
   13.79305553  108.50900269    3.18000007    2.82999992
   13.79638958  117.87300110    3.14000010    2.82999992
   13.79944515  121.73100281    3.07999992    2.82999992
   13.82027817  121.73100281    2.78999996    2.84999990
   13.82444477  136.88400269    2.82999992    2.86999989
   13.82750034  129.91799927    2.82999992    2.84999990
   13.83083344  118.80400085    2.86999989    2.84999990
   13.83388901  125.53099823    2.89000010    2.84999990
   13.83722210  129.85899353    2.94000006    2.84999990
   13.84055519  127.35600281    3.00000000    2.82999992
   13.84361076  130.28399658    3.07999992    2.86999989
   13.84694386  122.07099915    3.16000009    2.82999992
   13.85027790  133.65299988    3.16000009    2.84999990
   13.85333347  121.91300201    3.16000009    2.84999990
   13.85666752  124.72000122    3.14000010    2.84999990
   13.85972214  134.77000427    3.18000007    2.84999990
   13.86305618  119.26200104    3.20000005    2.82999992
   13.86638927  121.85299683    3.21000004    2.82999992
   13.86777782  121.26499939    3.21000004    2.82999992
   13.87194443  121.26499939    3.21000004    2.82999992
   13.87583351  131.70599365    3.18000007    2.84999990
   13.87916660  131.19799805    3.14000010    2.84999990
   13.88249969  142.36199951    3.18000007    2.82999992
   13.88555527  126.36599731    3.14000010    2.82999992
   13.88888836  135.03300476    3.16000009    2.84999990
   13.89194393  117.23500061    3.07999992    2.84999990
   13.89527798  127.72899628    3.01999998    2.82999992
   13.89861107  117.38500214    2.89000010    2.84999990
   13.90166664  117.79100037    2.82999992    2.84999990
   13.90499973  115.83899689    2.80999994    2.84999990
   13.90833282  120.49800110    2.76999998    2.84999990
   13.91138840  135.33399963    2.73000002    2.84999990
   13.91472149  133.60099792    2.71000004    2.84999990
   13.91777802  118.32800293    2.69000006    2.84999990
   13.91833401  118.87100220    2.71000004    2.84999990
   13.92305565  118.87100220    2.67000008    2.84999990
   13.92722225  115.25399780    2.66000009    2.84999990
   13.93027782  120.75599670    2.61999989    2.84999990
   13.93361092  120.74800110    2.67000008    2.84999990
   13.93694496  118.70300293    2.73000002    2.84999990
   13.94000053  133.24699402    2.76999998    2.82999992
   13.94333363  119.70500183    2.82999992    2.84999990
   13.94638920  133.45199585    2.80999994    2.84999990
   13.94972229  112.48100281    2.80999994    2.84999990
   13.95305538  114.78700256    2.76999998    2.84999990
   13.95611095  123.87200165    2.73000002    2.84999990
   13.95944405  118.31900024    2.71000004    2.84999990
   13.96277714  124.10500336    2.73000002    2.84999990
   13.96583271  123.53600311    2.75000000    2.84999990
   13.96777725  123.24299622    2.71000004    2.84999990
   13.96944427  111.45400238    2.66000009    2.84999990
   13.97416592  111.45400238    2.50000000    2.84999990
   13.97833252  118.74099731    2.40000010    2.84999990
   13.98138809  114.74700165    2.28999996    2.86999989
   13.98472214  141.46600342    2.21000004    2.86999989
   13.98805618  123.24800110    2.28999996    2.86999989
   13.99111176  114.24299622    2.32999992    2.86999989
   13.99444485  112.99400330    2.25000000    2.86999989
   13.99777794  123.14499664    2.13000011    2.86999989
   14.00083351  115.67900085    2.07999992    2.86999989
   14.00416660  125.82599640    2.01999998    2.86999989
   14.00722218  125.00099945    1.98000002    2.86999989
   14.01055527  113.28700256    1.98000002    2.86999989
   14.01388931  119.69699860    1.96000004    2.86999989
   14.01694393  135.03900146    1.96000004    2.86999989
   14.01777744  133.18600464    1.96000004    2.86999989
   14.02055550  130.54299927    2.09999990    2.86999989
   14.02527714  130.54299927    2.30999994    2.84999990
   14.02944374  129.25799561    2.21000004    2.86999989
   14.03277779  121.14499664    2.05999994    2.84999990
   14.03583336  119.32299805    2.13000011    2.86999989
   14.03916740  120.77400208    2.11999989    2.86999989
   14.04250050  121.32399750    2.07999992    2.86999989
   14.04555607  121.74900055    2.11999989    2.84999990
   14.04888916  113.70600128    2.07999992    2.84999990
   14.05194473  115.38200378    2.05999994    2.86999989
   14.05527782  115.08599854    2.00000000    2.86999989
   14.05861092  117.72100067    2.07999992    2.86999989
   14.06166649  109.44699860    2.11999989    2.84999990
   14.06500053  122.49500275    2.11999989    2.86999989
   14.06777763  125.68199921    2.13000011    2.84999990
   14.06861115  110.37899780    2.13000011    2.86999989
   14.07194424  124.92800140    2.11999989    2.86999989
   14.07638836  124.92800140    2.11999989    2.86999989
   14.08055592  121.12400055    2.05999994    2.84999990
   14.08388901  116.24800110    2.11999989    2.84999990
   14.08722210  120.24099731    2.17000008    2.86999989
   14.09027767  119.46800232    2.21000004    2.86999989
   14.09361076  122.47200012    2.25000000    2.86999989
   14.09666634  126.28700256    2.26999998    2.89000010
   14.10000038  125.70099640    2.26999998    2.89000010
   14.10333347  122.66300201    3.18000007    2.91000009
   14.10638905  118.98699951    4.90999985    2.25000000
   14.10972214  110.80899811    4.90999985    2.91000009
   14.11305618  123.11599731    4.90999985    2.86999989
   14.11611176  110.10500336    3.34999990    2.89000010
   14.11777782  115.58200073    2.64000010    2.89000010
   14.11972237  118.88500214    2.19000006    2.86999989
   14.12305546  123.49600220    2.71000004    2.89000010
   14.12777805  123.49600220    2.05999994    2.89000010
   14.13194466  109.16200256    2.05999994    2.89000010
   14.13500023  126.67099762    2.11999989    2.86999989
   14.13833332  113.31099701    2.11999989    2.91000009
   14.14138889  119.67500305    4.90999985    2.94000006
   14.14472198   97.84999847    4.90999985    1.19000006
   14.14805508   -1.00000000    4.90999985    1.21000004
   14.15111065   -1.00000000    4.90999985    0.38000000
   14.15444374  135.85499573    4.90999985    2.03999996
   14.15777779  107.24500275    4.90999985    1.46000004
   14.16083336  105.46399689    4.90999985    2.46000004
   14.16416645  111.28199768    4.90999985    2.91000009
   14.16722298  124.99900055    4.90999985    3.00000000
   14.16777802  124.20300293    4.90999985    3.00000000
   14.17111111  118.42600250    2.17000008    2.93000007
   14.17444515  131.65800476    2.03999996    2.89000010
   14.17888927  131.65800476    2.00000000    2.86999989
   14.18305588  126.18900299    2.01999998    2.86999989
   14.18611145  117.58799744    1.91999996    2.86999989
   14.18944454  124.21499634    1.89999998    2.86999989
   14.19277763  126.61199951    1.85000002    2.86999989
   14.19583321  128.85800171    1.78999996    2.86999989
   14.19916630  131.84199524    1.73000002    2.86999989
   14.20249939  116.88099670    1.73000002    2.86999989
   14.20555496  119.47200012    1.73000002    2.86999989
   14.20888901  121.09999847    1.73000002    2.86999989
   14.21194458  112.12500000    1.75000000    2.89000010
   14.21527767  132.81700134    1.73000002    2.84999990
   14.21805477  120.52700043    1.80999994    2.86999989
   14.21888828  120.47299957    1.80999994    2.86999989
   14.22222137  120.06800079    1.88000000    2.86999989
   14.22527695  109.20999908    1.89999998    2.86999989
   14.22999954  109.20999908    1.98000002    2.86999989
   14.23416710  118.39700317    2.03999996    2.86999989
   14.23750019  111.93000031    2.11999989    2.89000010
   14.24055576  122.52500153    2.17000008    2.86999989
   14.24388885  113.51799774    2.21000004    2.86999989
   14.24722290  124.12400055    2.23000002    2.86999989
   14.25027752  116.96199799    2.30999994    2.86999989
   14.25361156  123.66400146    2.32999992    2.86999989
   14.25666714  118.19999695    2.34999990    2.86999989
   14.26000023  116.01000214    2.34999990    2.86999989
   14.26333332  122.00199890    2.36999989    2.89000010
   14.26638889  121.79100037    4.90999985    2.91000009
   14.26777744  119.23999786    4.90999985    2.91000009
   14.26999950  109.55500031    4.86999989    2.89000010
   14.27333355  122.91500092    4.05999994    2.89000010
   14.27638817  127.90699768    3.21000004    2.86999989
   14.28111076  127.90699768    2.44000006    2.86999989
   14.28527832  124.63800049    2.32999992    2.84999990
   14.28861141  124.20600128    2.30999994    2.86999989
   14.29194450  119.76100159    2.30999994    2.84999990
   14.29500008  123.72000122    2.32999992    2.86999989
   14.29833412  119.62799835    2.39000010    2.86999989
   14.30138874  117.58300018    2.48000002    2.86999989
   14.30472279  120.76399994    2.51999998    2.86999989
   14.30805588  120.56400299    2.59999990    2.86999989
   14.31111145  117.01699829    2.59999990    2.86999989
   14.31444454  127.38099670    2.48000002    2.86999989
   14.31777763  112.63999939    2.50000000    2.84999990
   14.31833363  123.56099701    2.50000000    2.84999990
   14.32138920  126.73500061    2.50000000    2.89000010
   14.32472229  121.48500061    2.50000000    2.86999989
   14.32777786  113.36499786    2.48000002    2.86999989
   14.33249950  113.36499786    2.48000002    2.86999989
   14.33666611  112.77799988    2.46000004    2.86999989
   14.33972168  121.92500305    2.46000004    2.86999989
   14.34305477  122.19899750    2.48000002    2.86999989
   14.34611034  124.55200195    2.55999994    2.84999990
   14.34944439  123.60399628    2.61999989    2.86999989
   14.35277843  123.42199707    2.64000010    2.86999989
   14.35583401  125.34899902    2.69000006    2.86999989
   14.35916710  115.23600006    2.78999996    2.84999990
   14.36250019  116.19300079    2.73000002    2.84999990
   14.36555576  118.71700287    2.71000004    2.86999989
   14.36833382  116.73400116    2.71000004    2.86999989
   14.36916637  112.32700348    2.71000004    2.86999989
   14.37250042  116.94599915    2.75000000    2.84999990
   14.37555599  114.91999817    2.75000000    2.86999989
   14.37888908  117.31400299    2.84999990    2.84999990
   14.38361073  117.31400299    3.21000004    2.84999990
   14.38777733  120.16799927    3.09999990    2.84999990
   14.39083290  103.00399780    3.14000010    2.84999990
   14.39416695  114.75900269    3.09999990    2.84999990
   14.39750004  131.52600098    3.14000010    2.84999990
   14.40055561  113.43900299    3.18000007    2.84999990
   14.40388870  121.13800049    3.36999989    2.84999990
   14.40722179  114.52300262    3.61999989    2.84999990
   14.41027737  116.89900208    3.76999998    2.84999990
   14.41361046  121.78500366    3.91000009    2.82999992
   14.41666698  120.37799835    3.99000001    2.84999990
   14.41833401  117.97100067    3.91000009    2.84999990
   14.42027855  122.64800262    3.86999989    2.82999992
   14.42361164  126.18299866    3.86999989    2.82999992
   14.42666721  117.80400085    3.89000010    2.84999990
   14.43000031  123.23000336    3.97000003    2.82999992
   14.43472195  123.23000336    3.80999994    2.84999990
   14.43888855  114.48699951    3.73000002    2.84999990
   14.44222260  122.45600128    3.84999990    2.84999990
   14.44527817  123.97699738    3.72000003    2.84999990
   14.44861126  122.86799622    3.66000009    2.84999990
   14.45194435  126.25800323    3.75000000    2.84999990
   14.45499992  119.60299683    3.84999990    2.82999992
   14.45833302  115.60099792    3.86999989    2.84999990
   14.46138859  132.11000061    3.78999996    2.82999992
   14.46472168  125.04100037    3.80999994    2.82999992
   14.46805477  125.90000153    3.72000003    2.82999992
   14.46861076  127.08499908    3.59999990    2.84999990
   14.47166634  117.70400238    3.51999998    2.84999990
   14.47499943  122.80899811    3.41000009    2.84999990
   14.47833252  127.39299774    3.26999998    2.84999990
   14.48138809  123.19799805    3.26999998    2.84999990
   14.48583317  123.19799805    3.26999998    2.84999990
   14.49000072  121.80999756    3.53999996    2.82999992
   14.49333382  125.15299988    3.59999990    2.84999990
   14.49666691  125.50800323    3.95000005    2.84999990
   14.49972248  126.51599884    4.00000000    2.82999992
   14.50305557  132.47799683    3.82999992    2.84999990
   14.50611115  126.94200134    3.82999992    2.84999990
   14.50944424  123.07599640    3.66000009    2.84999990
   14.51277733  124.67600250    3.57999992    2.86999989
   14.51583290  124.36399841    3.50000000    2.84999990
   14.51861095  122.42900085    3.53999996    2.84999990
   14.51972198  114.53500366    3.61999989    2.84999990
   14.52277756  125.51200104    3.57999992    2.84999990
   14.52611065  123.44200134    3.61999989    2.84999990
   14.52916622  127.28199768    3.59999990    2.84999990
   14.53249931  124.29900360    3.78999996    2.84999990
   14.53722286  124.29900360    4.01999998    2.84999990
   14.54138947  125.09700012    4.40999985    2.82999992
   14.54444504  134.04699707    4.53000021    2.82999992
   14.54777813  123.04499817    4.69999981    2.82999992
   14.55083370  123.68900299    4.78000021    2.82999992
   14.55416679  122.20999908    4.80000019    2.82999992
   14.55749989  120.13999939    4.73999977    2.82999992
   14.56055546  127.80400085    4.67999983    2.82999992
   14.56388950  119.87999725    4.67999983    2.82999992
   14.56722260  120.86499786    4.61999989    2.82999992
   14.56861115  126.36900330    4.65999985    2.82999992
   14.57083321  123.64199829    4.65999985    2.82999992
   14.57388878  127.98999786    4.61999989    2.82999992
   14.57722187  126.69499969    4.55999994    2.82999992
   14.58055592  131.40100098    4.61999989    2.82999992
   14.58361053  122.26899719    4.53000021    2.82999992
   14.58833313  122.26899719    4.28999996    2.84999990
   14.59249973  137.57299805    4.11999989    2.82999992
   14.59555531  130.47700500    4.19999981    2.84999990
   14.59888840  126.92600250    4.44999981    2.82999992
   14.60222244  130.32000732    4.48999977    2.82999992
   14.60527802  124.85900116    4.48999977    2.82999992
   14.60861111  136.69700623    4.42999983    2.82999992
   14.61166668  129.25900269    4.32999992    2.82999992
   14.61500072  134.79100037    4.71999979    2.82999992
   14.61833382  122.82499695    4.90999985    2.82999992
   14.61888885  125.76100159    4.90999985    2.82999992
   14.62194443  128.82000732    4.90999985    2.82999992
   14.62527752  130.24200439    4.90999985    2.80999994
   14.62861156  123.94300079    4.90999985    2.80999994
   14.63166714  132.03100586    4.90999985    2.80999994
   14.63500023  134.38699341    4.90999985    2.80999994
   14.63944435  134.38699341    4.90999985    2.80999994
   14.64361095  135.47500610    4.90999985    2.82999992
   14.64694405  125.53199768    4.90999985    2.80999994
   14.64999962  133.14799500    4.90999985    2.82999992
   14.65333271  140.50599670    4.90999985    2.80999994
   14.65638828  129.58000183    4.90999985    2.80999994
   14.65972137  127.32599640    4.82999992    2.82999992
   14.66305542  131.71600342    4.82999992    2.82999992
   14.66611099  132.72099304    4.88999987    2.82999992
   14.66888905  130.93200684    4.90999985    2.82999992
   14.67000008  125.20999908    4.90999985    2.82999992
   14.67305565  127.18499756    4.90999985    2.80999994
   14.67638874  137.44999695    4.90999985    2.80999994
   14.67944431  135.65899658    4.90999985    2.82999992
   14.68277836  134.03300476    4.88999987    2.82999992
   14.68611145  137.16600037    4.84999990    2.84999990
   14.69055557  137.16600037    4.86999989    2.82999992
   14.69472218  127.79699707    4.90999985    2.82999992
   14.69805527  137.74400330    4.90999985    2.82999992
   14.70111084  130.84199524    4.84999990    2.82999992
   14.70444393  125.16300201    4.80000019    2.82999992
   14.70777798  128.60800171    4.76000023    2.82999992
   14.71083355  139.41000366    4.61999989    2.82999992
   14.71416664  131.16700745    4.55999994    2.84999990
   14.71749973  139.82699585    4.53000021    2.82999992
   14.71888828  143.47900391    4.53999996    2.84999990
   14.72111034  141.50199890    4.51000023    2.82999992
   14.72416592  139.21899414    4.36999989    2.82999992
   14.72749996  140.20300293    4.26999998    2.84999990
   14.73055553  125.61499786    4.26999998    2.82999992
   14.73388958  133.10000610    4.21999979    2.84999990
   14.73722267  124.52500153    4.13999987    2.84999990
   14.74194431  124.52500153    4.11999989    2.84999990
   14.74583340  141.32000732    4.21999979    2.82999992
   14.74916649  121.61199951    4.23999977    2.84999990
   14.75249958  129.57800293    4.13999987    2.84999990
   14.75555515  117.79900360    4.09999990    2.84999990
   14.75888920  123.11799622    4.00000000    2.84999990
   14.76222229  118.42600250    3.97000003    2.84999990
   14.76527786  116.50399780    4.03999996    2.84999990
   14.76861095  116.22000122    4.28999996    2.82999992
   14.76916599  118.13099670    4.28999996    2.82999992
   14.77222157  117.85299683    4.36999989    2.84999990
   14.77555561  126.41799927    4.53000021    2.84999990
   14.77888870  122.07199860    4.63999987    2.82999992
   14.78194427  116.53900146    4.71999979    2.82999992
   14.78527832  123.95200348    4.69999981    2.82999992
   14.78861141  121.46499634    4.53999996    2.84999990
   14.79305553  121.46499634    4.61999989    2.82999992
   14.79722309  121.93399811    4.69999981    2.82999992
   14.80027771  122.63700104    4.71999979    2.82999992
   14.80361176  132.85499573    4.76000023    2.82999992
   14.80694485  122.83899689    4.69999981    2.82999992
   14.81000042  140.17799377    4.63999987    2.82999992
   14.81333351  118.50399780    4.82999992    2.82999992
   14.81666660  118.23200226    4.88999987    2.82999992
   14.83388901  149.41000366    4.84999990    2.82999992
   14.83638859  139.41000366    4.82999992    2.84999990
   14.83972168  129.22399902    4.90999985    2.82999992
   14.84444427  129.22399902    4.90999985    2.82999992
   14.84833336  134.63200378    4.90999985    2.80999994
   14.85166740  125.03700256    4.90999985    2.82999992
   14.85500050  130.93499756    4.90999985    2.82999992
   14.85805607  127.18399811    4.88999987    2.82999992
   14.86138916  128.36700439    4.84999990    2.82999992
   14.86472225  131.88000488    4.76000023    2.82999992
   14.86777782  136.96800232    4.63999987    2.82999992
   14.87111092  126.39299774    4.53000021    2.84999990
   14.87416649  150.76499939    4.46999979    2.84999990
   14.87750053  123.31500244    4.51000023    2.84999990
   14.88083363  126.62400055    4.53000021    2.82999992
   14.88361073  136.29499817    4.55999994    2.84999990
   14.88444424  131.21299744    4.53999996    2.82999992
   14.88749981  122.30699921    4.65999985    2.82999992
   14.89083290  134.88999939    4.82999992    2.82999992
   14.89555550  134.88999939    4.84999990    2.82999992
   14.89972210  120.48899841    4.90999985    2.82999992
   14.90277767  136.46800232    4.90999985    2.82999992
   14.90611076  126.03600311    4.90999985    2.82999992
   14.90944386  135.24400330    4.90999985    2.82999992
   14.91249943  139.18200684    4.90999985    2.80999994
   14.91583252  149.30599976    4.90999985    2.82999992
   14.91916656  148.56900024    4.90999985    2.82999992
   14.92222214  142.27699280    4.90999985    2.82999992
   14.92555618  135.04100037    4.90999985    2.82999992
   14.92861176  141.21299744    4.90999985    2.82999992
   14.93194485  132.52400208    4.90999985    2.82999992
   14.93361092  135.73300171    4.90999985    2.82999992
   14.93555546  128.78599548    4.88999987    2.82999992
   14.93888855  129.23500061    4.90999985    2.82999992
   14.94194412  134.44799805    4.90999985    2.84999990
   14.94666672  134.44799805    4.90999985    2.82999992
   14.95083332  130.82400513    4.90999985    2.82999992
   14.95416641  133.49800110    4.90999985    2.82999992
   14.95722198  133.85800171    4.90999985    2.82999992
   14.96055508  137.19000244    4.90999985    2.84999990
   14.96361065  150.32099915    4.90999985    2.82999992
   14.96694374  129.17300415    4.90999985    2.82999992
   14.97027779  137.10299683    4.90999985    2.80999994
   14.97333336  131.47799683    4.90999985    2.82999992
   15.07888889   -1.00000000   -1.00000000   -1.00000000
   15.23333359   -1.00000000   -1.00000000   -1.00000000
   15.38027763   -1.00000000   -1.00000000   -1.00000000
   15.42083359  131.25000000    4.90999985    2.80999994
   15.42388916  125.47599792    4.90999985    2.80999994
   15.42722225  129.46299744    4.90999985    2.80999994
   15.43027782  129.52299500    4.90999985    2.80999994
   15.43361092  132.69500732    4.90999985    2.80999994
   15.43694496  127.30500031    4.90999985    2.80999994
   15.44000053  117.14600372    4.90999985    2.80999994
   15.44333363  125.62899780    4.90999985    2.82999992
   15.44916630  125.62899780    4.90999985    2.82999992
   15.45333290  126.71900177    4.90999985    2.82999992
   15.45666695  128.36900330    4.90999985    2.82999992
   15.45972157  124.88400269    4.90999985    2.80999994
   15.46305561  124.26100159    4.90999985    2.82999992
   15.46638870  124.33300018    4.90999985    2.80999994
   15.46944427  117.24199677    4.90999985    2.82999992
   15.47055531  128.34500122    4.90999985    2.80999994
   15.47305489  121.57800293    4.90999985    2.82999992
   15.47638798  130.24699402    4.90999985    2.82999992
   15.47944355  120.12599945    4.90999985    2.82999992
   15.48277760  130.33299255    4.90999985    2.84999990
   15.48583317  130.89100647    4.90999985    2.84999990
   15.48916721  129.90499878    4.82999992    2.82999992
   15.49250031  127.83899689    4.80000019    2.84999990
   15.49555588  120.66699982    4.80999994    2.84999990
   15.50027752  120.66699982    4.90999985    2.84999990
   15.50444412  121.49500275    4.90999985    2.84999990
   15.50777817  124.64900208    4.90999985    2.84999990
   15.51111126  123.95999908    4.90999985    2.84999990
   15.51416683  122.10299683    4.90999985    2.84999990
   15.51749992  126.41000366    4.90999985    2.84999990
   15.52055550  123.32700348    4.90999985    2.82999992
   15.52111053  125.11799622    4.90999985    2.84999990
   15.52444458  121.13700104    4.90999985    2.82999992
   15.52750015  107.36000061    4.90999985    2.84999990
   15.53083324  125.20700073    4.90999985    2.82999992
   15.53388977  118.62100220    4.90999985    2.82999992
   15.53722286  121.98799896    4.90999985    2.82999992
   15.54055595  113.73899841    4.90999985    2.84999990
   15.54361153  120.62000275    4.90999985    2.82999992
   15.54694462  121.67099762    4.90999985    2.82999992
   15.55166721  121.67099762    4.90999985    2.82999992
   15.55583382  122.55400085    4.90999985    2.82999992
   15.55888939  124.63600159    4.90999985    2.80999994
   15.56222248  125.88500214    4.90999985    2.84999990
   15.56527805  127.01899719    4.90999985    2.82999992
   15.56861115  117.19000244    4.90999985    2.82999992
   15.57055569  119.17500305    4.90999985    2.82999992
   15.57222176  113.35600281    4.90999985    2.82999992
   15.57555580  121.22100067    4.90999985    2.82999992
   15.57861137  120.84200287    4.90999985    2.82999992
   15.58194447  117.82299805    4.90999985    2.84999990
   15.58500004  135.62399292    4.90999985    2.82999992
   15.58833313  118.93099976    4.90999985    2.84999990
   15.59166622  116.83799744    4.90999985    2.82999992
   15.59472179  110.96900177    4.90999985    2.84999990
   15.59805489  124.94000244    4.90999985    2.84999990
   15.60277843  124.94000244    4.90999985    2.82999992
   15.60694504  124.24500275    4.90999985    2.82999992
   15.61000061  119.15299988    4.90999985    2.84999990
   15.61333370  118.79900360    4.90999985    2.84999990
   15.61666679  121.16400146    4.90999985    2.82999992
   15.61972237  118.55100250    4.90999985    2.82999992
   15.62055588  125.19100189    4.90999985    2.82999992
   15.62333393  125.64700317    4.90999985    2.82999992
   15.62666702  119.25700378    4.90999985    2.80999994
   15.62972260  127.26999664    4.90999985    2.80999994
   15.63305569  120.10800171    4.90999985    2.78999996
   15.63638878  120.62000275    4.90999985    2.82999992
   15.63944435  118.73500061    4.90999985    2.82999992
   15.64277744  121.81700134    4.90999985    2.80999994
   15.64583302  129.84300232    4.90999985    2.82999992
   15.64916611  126.35500336    4.90999985    2.80999994
   15.65388870  126.35500336    4.90999985    2.82999992
   15.65805531  123.49500275    4.90999985    2.82999992
   15.66138840  122.48500061    4.90999985    2.82999992
   15.66444397  118.28700256    4.90999985    2.80999994
   15.66777802  126.78500366    4.90999985    2.82999992
   15.67055607  119.68699646    4.90999985    2.82999992
   15.67138958  125.69300079    4.90999985    2.82999992
   15.67472267  112.45500183    4.90999985    2.82999992
   15.67777824  124.74800110    4.90999985    2.82999992
   15.68111134  127.07700348    4.90999985    2.84999990
   15.68444443  110.20899963    4.90999985    2.84999990
   15.68750000  120.57199860    4.90999985    2.82999992
   15.69083309  129.34100342    4.90999985    2.82999992
   15.69388866  119.39800262    4.90999985    2.82999992
   15.69722271  122.49099731    4.90999985    2.82999992
   15.70055580  140.65899658    4.90999985    2.84999990
   15.70499992  140.65899658    4.90999985    2.84999990
   15.70916653  121.79100037    4.90999985    2.84999990
   15.71249962  123.31199646    4.90999985    2.82999992
   15.71583271  119.51499939    4.90999985    2.84999990
   15.71888828  118.09899902    4.90999985    2.84999990
   15.72055531  144.27499390    4.90999985    2.82999992
   15.72249985  125.50700378    4.90999985    2.84999990
   15.72583294  125.96099854    4.90999985    2.84999990
   15.72888851  112.98999786    4.90999985    2.84999990
   15.73222160  120.16500092    4.90999985    2.82999992
   15.73555565  119.04900360    4.90999985    2.84999990
   15.73861122  122.48100281    4.80000019    2.84999990
   15.74194431  117.28500366    4.73999977    2.84999990
   15.74499989  122.67600250    4.59999990    2.84999990
   15.74833393  112.83499908    4.42999983    2.86999989
   15.75166702  125.63400269    4.51000023    2.84999990
   15.75638866  125.63400269    4.80000019    2.84999990
   15.76055527  118.41600037    4.90999985    2.86999989
   15.76361084  121.34700012    4.80999994    2.86999989
   15.76694393  117.88200378    4.90999985    2.84999990
   15.76999950  117.87699890    4.90999985    2.82999992
   15.77083302  122.11799622    4.90999985    2.82999992
   15.77361107  115.97200012    4.44999981    2.84999990
   15.77694416  126.83599854    4.28999996    2.84999990
   15.78027725  122.80400085    4.32999992    2.86999989
   15.78333378  114.58799744    4.38999987    2.86999989
   15.78666687  125.01799774    4.28999996    2.86999989
   15.78972244  120.74400330    4.13999987    2.86999989
   15.79305553  122.27700043    4.11999989    2.86999989
   15.79638958  118.84899902    4.28999996    2.86999989
   15.79944515  127.15699768    4.34999990    2.86999989
   15.80277824  118.13600159    4.36999989    2.86999989
   15.80749989  118.13600159    4.42999983    2.84999990
   15.81166649  121.78199768    4.40999985    2.86999989
   15.81472206  124.22299957    4.32999992    2.86999989
   15.81805515  120.70999908    4.26000023    2.84999990
   15.82083321  122.28199768    3.91000009    2.84999990
   15.82166672  119.69300079    3.86999989    2.86999989
   15.82499981  125.04699707    4.09999990    2.86999989
   15.82833290  120.96099854    4.44999981    2.86999989
   15.83138847  114.69599915    4.90999985    2.84999990
   15.83472157  300.10900879    4.90999985    2.59999990
   15.83777714  144.26300049    4.90999985    2.73000002
   15.84111118  130.44799805    4.90999985    2.64000010
   15.84444427  108.52100372    4.90999985    2.67000008
   15.84749985  134.46200562    4.90999985    2.40000010
   15.85083389  133.70300293    4.90999985    2.84999990
   15.85416698  128.50799561    4.90999985    2.80999994
   15.85861111  128.50799561    4.63999987    2.86999989
   15.86277771  122.14900208    4.69999981    2.86999989
   15.86611176  132.49000549    4.90999985    2.84999990
   15.86916637  123.26699829    4.90999985    2.84999990
   15.87083340  123.02300262    4.90999985    2.84999990
   15.87277794  122.16699982    4.90999985    2.84999990
   15.87611103  123.79900360    4.90999985    2.86999989
   15.87944412  120.62100220    4.84999990    2.84999990
   15.88249969  115.50599670    4.76000023    2.84999990
   15.88583279  116.97200012    4.69999981    2.84999990
   15.88888836  122.44000244    4.73999977    2.86999989
   15.89222240  114.98300171    4.90999985    2.86999989
   15.89555550  135.52200317    4.90999985    2.78999996
   15.89861107  129.87800598    4.90999985    2.67000008
   15.90194416  120.44300079    4.90999985    2.82999992
   15.90527725  130.97000122    4.90999985    2.84999990
   15.90972137  130.97000122    4.63999987    2.86999989
   15.91388893  121.03600311    4.30999994    2.86999989
   15.91722298  118.92600250    4.11999989    2.86999989
   15.92027855  115.57499695    4.09999990    2.86999989
   15.92111111  121.48799896    4.13999987    2.86999989
   15.92388916  120.72899628    4.55999994    2.86999989
   15.92722225  122.69300079    4.86999989    2.84999990
   15.93027782  131.22799683    4.90999985    2.84999990
   15.93361092  121.40000153    4.90999985    2.84999990
   15.93694496  134.78900146    4.90999985    2.75000000
   15.94000053  125.94899750    4.90999985    2.67000008
   15.94333363   -1.00000000    4.90999985    2.03999996
   15.94666672   -1.00000000    4.90999985    1.09000003
   15.94972229   -1.00000000    4.90999985    0.64999998
   15.95305538   -1.00000000    4.90999985    0.40000001
   15.95611095   -1.00000000    4.90999985    0.61000001
   15.96500015   -1.00000000    4.90999985    2.40000010
   15.96833324  196.10600281    4.90999985    1.14999998
   15.97194386   -1.00000000    4.90999985    1.89999998
   15.97499943   -1.00000000    4.90999985    1.28999996
   15.97833252  250.33200073    4.90999985    2.48000002
   15.98166656   -1.00000000    4.90999985    1.88000000
   15.98472214   -1.00000000    4.90999985    1.64999998
   15.98805618   -1.00000000    4.90999985    1.14999998
   15.99138927   -1.00000000    4.90999985    0.50000000
   15.99444485   -1.00000000    4.90999985    0.46000001
   15.99777794   -1.00000000    4.90999985    1.19000006
   16.00083351  128.01899719    4.90999985    1.73000002
   16.00416756  138.13299561    4.90999985    2.86999989
   16.00749969  174.77900696    4.90999985    2.44000006
   16.01222229  174.77900696    4.90999985    2.32999992
   16.01638794  163.09899902    4.90999985    2.55999994
   16.01944351  129.83700562    4.90999985    2.57999992
   16.02111053  130.68699646    4.90999985    2.78999996
   16.02305603  133.96099854    4.90999985    2.78999996
   16.02638817   -1.00000000    4.90999985    2.48000002
   16.02972221  127.70600128    4.90999985    1.75000000
   16.03277779  143.07000732    4.90999985    2.25000000
   16.03610992  107.33499908    4.90999985    2.48000002
   16.03916550  135.96600342    4.90999985    2.89000010
   16.04249954  143.15899658    4.90999985    2.86999989
   16.04583359  129.78300476    4.90999985    2.91000009
   16.04888916  125.22699738    4.90999985    2.86999989
   16.05222130  120.40100098    4.90999985    2.89000010
   16.05555534  127.01000214    4.44999981    2.84999990
   16.05861092  126.39600372    4.40999985    2.86999989
   16.06333351  126.39600372    4.32999992    2.86999989
   16.06750107  118.16300201    4.90999985    2.86999989
   16.07083511  127.54299927    4.90999985    2.53999996
   16.07111168  151.75999451    4.90999985    2.57999992
   16.07444572   -1.00000000    4.90999985    2.30999994
   16.07777786  243.16499329    4.90999985    2.01999998
   16.08083344  125.93000031    4.90999985    2.34999990
   16.08416748   -1.00000000    4.90999985    1.28999996
   16.08750153   -1.00000000    4.90999985    1.41999996
   16.09055710   -1.00000000    4.90999985    0.63000000
   16.09388924   -1.00000000    4.90999985    0.38000000
   16.09722328   -1.00000000   -1.00000000   -1.00000000
   16.10027885   -1.00000000    4.90999985    1.69000006
   16.10361099   -1.00000000    4.90999985    0.41999999
   16.10666656   -1.00000000    4.90999985    0.44000000
   16.11000061   -1.00000000    4.90999985    0.40000001
   16.11861038   -1.00000000    4.90999985    0.38000000
   16.12222290   -1.00000000    4.90999985    0.58999997
   16.12527847   -1.00000000    4.90999985    1.05999994
   16.12861061   -1.00000000    4.90999985    0.61000001
   16.13194466   84.60449982    4.90999985    0.89999998
   16.13500023   -1.00000000    4.90999985    2.26999998
   16.13833237   96.16329956    4.90999985    1.41999996
   16.14166641   -1.00000000    4.90999985    1.48000002
   16.14472198  290.86898804    4.90999985    1.23000002
   16.14805603  139.02799988    4.90999985    2.61999989
   16.15111160  124.15599823    4.90999985    2.84999990
   16.15444374  130.24400330    4.90999985    2.86999989
   16.15777779  174.29299927    4.90999985    2.73000002
   16.16083336  132.30999756    4.90999985    2.61999989
   16.16583252  132.30999756    3.73000002    2.89000010
   16.17000008  122.02100372    3.70000005    2.89000010
   16.17138863  120.16500092    3.72000003    2.89000010
   16.17333221  123.70800018    3.68000007    2.89000010
   16.17666626  127.81300354    3.84999990    2.86999989
   16.18000031  124.65799713    3.75000000    2.89000010
   16.18305397  119.66200256    3.61999989    2.86999989
   16.18638802  115.91999817    3.66000009    2.86999989
   16.18944359  115.40599823    4.00000000    2.86999989
   16.19277763  117.20999908    4.36999989    2.86999989
   16.19610977  120.59600067    4.53000021    2.84999990
   16.19916534  116.18800354    4.36999989    2.86999989
   16.20250130  121.46199799    4.55999994    2.84999990
   16.20583344  123.09100342    4.90999985    2.86999989
   16.20888901  122.90799713    4.90999985    2.84999990
   16.21222305  111.08599854    4.90999985    2.84999990
   16.21694565  111.08599854    4.90999985    2.82999992
   16.22111130  123.53600311    4.90999985    2.82999992
   16.22166634  117.57099915    4.90999985    2.82999992
   16.22472191  119.91500092    4.90999985    2.82999992
   16.22805595  117.45200348    4.90999985    2.84999990
   16.23139000   94.02629852    4.90999985    2.89000010
   16.23444557  120.15899658    4.90999985    2.78999996
   16.23777771   -1.00000000    4.90999985    2.93000007
   16.24111176   -1.00000000    4.90999985    1.69000006
   16.24416733   -1.00000000    4.90999985    1.25000000
   16.24749947   -1.00000000    4.90999985    1.91999996
   16.25055504   -1.00000000    4.90999985    2.23000002
   16.25388908   -1.00000000    4.90999985    0.81999999
   16.25722313  125.47299957    4.90999985    1.48000002
   16.26027870  272.01199341    4.90999985    2.46000004
   16.26361084   -1.00000000    4.90999985    1.19000006
   16.27222252   -1.00000000    4.90999985    0.88000000
   16.27527809   -1.00000000    4.90999985    0.52999997
   16.27861023   -1.00000000    4.90999985    0.63000000
   16.28194427   -1.00000000    4.90999985    0.63000000
   16.28499985   -1.00000000    4.90999985    0.36000001
   16.28833199   -1.00000000    4.90999985    0.69000000
   16.29138756  155.26100159    4.90999985    2.36999989
   16.29472160   -1.00000000    4.90999985    0.76999998
   16.29805565   -1.00000000    4.90999985    1.94000006
   16.30111122   -1.00000000    4.90999985    0.20999999
   16.30444336   -1.00000000    4.90999985    0.25000000
   16.30777740   -1.00000000    4.90999985    0.31999999
   16.31083298   -1.00000000    4.90999985    0.46000001
   16.31416512   -1.00000000    4.90999985    0.05000000
   16.32333374   -1.00000000    4.90999985    0.01000000
   16.32666779   -1.00000000    4.90999985    0.05000000
   16.32972336   -1.00000000    4.90999985    0.05000000
   16.33305550   -1.00000000    4.90999985    0.03000000
   16.33611107   -1.00000000    4.90999985    0.01000000
   16.33944511   -1.00000000    4.78000021    0.01000000
   16.34277916   -1.00000000    4.78000021    0.01000000
   16.34583473   -1.00000000    4.78000021    0.01000000
   16.34916687   -1.00000000    4.78000021    0.01000000
   16.35250092   -1.00000000    4.78000021    0.01000000
   16.35555649   -1.00000000    4.78000021    0.01000000
   16.35888863   -1.00000000    4.78000021    0.01000000
   16.36194420   -1.00000000    4.78000021    0.01000000
   16.36527824   -1.00000000    4.78000021    0.01000000
   16.37444496   -1.00000000    4.90999985    0.17000000
   16.37777710   -1.00000000    4.90999985    0.41999999
   16.38083267   -1.00000000    4.90999985    0.80000001
   16.38416672   -1.00000000    4.90999985    1.39999998
   16.38750076   -1.00000000    4.90999985    0.44000000
   16.39055634   -1.00000000    4.90999985    0.83999997
   16.39388847   -1.00000000    4.90999985    0.20999999
   16.39722252   -1.00000000    4.90999985    0.01000000
   16.40027809   -1.00000000    4.90999985    0.01000000
   16.40361023   -1.00000000    4.90999985    0.01000000
   16.40666580   -1.00000000    4.90999985    0.01000000
   16.40999985   -1.00000000    4.90999985    0.01000000
   16.41333389   -1.00000000    4.90999985    0.01000000
   16.41638756   -1.00000000    4.90999985    0.01000000
   16.43833160   -1.00000000    4.90999985    0.01000000
   16.44166565   -1.00000000    4.90999985    0.01000000
   16.44472122   -1.00000000    4.90999985    0.01000000
   16.44805527   -1.00000000    4.90999985    0.01000000
   16.45138931   -1.00000000    4.90999985    0.01000000
   16.45444489   -1.00000000    4.90999985    0.01000000
   16.45777893   -1.00000000    4.90999985    0.01000000
   16.46111107   -1.00000000    4.90999985    0.01000000
   16.46416664   -1.00000000    4.90999985    0.01000000
   16.46750069   -1.00000000    4.90999985    0.01000000
   16.47694588   -1.00000000    4.90999985    0.01000000
   16.48027802   -1.00000000    4.90999985    0.01000000
   16.48333359   -1.00000000    4.90999985    0.01000000
   16.48666763   -1.00000000    4.90999985    0.01000000
   16.49027824   -1.00000000    4.90999985    0.01000000
   16.49333382   -1.00000000    4.90999985    0.01000000
   16.49666786   -1.00000000    4.90999985    0.01000000
   16.50000000   -1.00000000    4.90999985    0.01000000
   16.50305557   -1.00000000    4.90999985    0.01000000
   16.50638962   -1.00000000    4.90999985    0.01000000
   16.50944519   -1.00000000    4.90999985    0.01000000
   16.51277733   -1.00000000    4.90999985    0.01000000
   16.51611137   -1.00000000    4.90999985    0.01000000
   16.51916695   -1.00000000    4.90999985    0.01000000
   16.52805519   -1.00000000    4.90999985    0.01000000
   16.53138924   -1.00000000    4.90999985    0.01000000
   16.53472137   -1.00000000    4.90999985    0.01000000
   16.53833199   -1.00000000    4.90999985    0.01000000
   16.54138756   -1.00000000    4.90999985    0.01000000
   16.54472160   -1.00000000    4.90999985    0.01000000
   16.54805565   -1.00000000    4.90999985    0.01000000
   16.55111122   -1.00000000    4.90999985    0.01000000
   16.55444336   -1.00000000    4.90999985    0.01000000
   16.55749893   -1.00000000    4.90999985    0.01000000
   16.56083298   -1.00000000    4.90999985    0.01000000
   16.56416512   -1.00000000    4.90999985    0.01000000
   16.56722260   -1.00000000    4.90999985    0.01000000
   16.57055664   -1.00000000    4.90999985    0.01000000
   16.57944489   -1.00000000    4.90999985    0.01000000
   16.58250046   -1.00000000    4.90999985    0.01000000
   16.58583450   -1.00000000    4.90999985    0.01000000
   16.58944511   -1.00000000    4.90999985    0.01000000
   16.59250069   -1.00000000    4.90999985    0.01000000
   16.59583473   -1.00000000    4.90999985    0.01000000
   16.59916687   -1.00000000    4.90999985    0.01000000
   16.60222244   -1.00000000    4.90999985    0.01000000
   16.60555649   -1.00000000    4.90999985    0.01000000
   16.60861206   -1.00000000    4.90999985    0.01000000
   16.61194420   -1.00000000    4.90999985    0.01000000
   16.61527824   -1.00000000    4.90999985    0.01000000
   16.61833382   -1.00000000    4.90999985    0.01000000
   16.62166595   -1.00000000    4.90999985    0.01000000
   16.63055611   -1.00000000    4.90999985    0.01000000
   16.63361168   -1.00000000    4.90999985    0.01000000
   16.63694382   -1.00000000    4.90999985    0.01000000
   16.64055634   -1.00000000    4.90999985    0.01000000
   16.64361191   -1.00000000    4.90999985    0.01000000
   16.64694405   -1.00000000    4.90999985    0.01000000
   16.65027809   -1.00000000    4.90999985    0.01000000
   16.65333366   -1.00000000    4.90999985    0.01000000
   16.65666580   -1.00000000    4.90999985    0.01000000
   16.65999985   -1.00000000    4.90999985    0.01000000
   16.66305542   -1.00000000    4.90999985    0.01000000
   16.66638756   -1.00000000    4.90999985    0.01000000
   16.66944313   -1.00000000    4.90999985    0.01000000
   16.67277718   -1.00000000    4.90999985    0.01000000
   16.68166542   -1.00000000    4.90999985    0.01000000
   16.68499947   -1.00000000    4.90999985    0.01000000
   16.68861008   -1.00000000    4.90999985    0.01000000
   16.69166565   -1.00000000    4.90999985    0.01000000
   16.69499969   -1.00000000    4.90999985    0.01000000
   16.69833183   -1.00000000    4.90999985    0.01000000
   16.70138931   -1.00000000    4.90999985    0.01000000
   16.70472336   -1.00000000    4.90999985    0.01000000
   16.70777893   -1.00000000    4.90999985    0.01000000
   16.71111107   -1.00000000    4.90999985    0.01000000
   16.71444511   -1.00000000    4.90999985    0.01000000
   16.71750069   -1.00000000    4.90999985    0.01000000
   16.72083473   -1.00000000    4.90999985    0.01000000
   16.72416687   -1.00000000    4.90999985    0.01000000
   16.73277855   -1.00000000    4.90999985    0.01000000
   16.73611069   -1.00000000    4.90999985    0.01000000
   16.73972321   -1.00000000    4.90999985    0.01000000
   16.74277878   -1.00000000    4.90999985    0.01000000
   16.74611092   -1.00000000    4.90999985    0.01000000
   16.74944496   -1.00000000    4.90999985    0.01000000
   16.75250053   -1.00000000    4.90999985    0.01000000
   16.75583267   -1.00000000    4.90999985    0.01000000
   16.75916672   -1.00000000    4.90999985    0.01000000
   16.76222229   -1.00000000    4.90999985    0.01000000
   16.76555634   -1.00000000    4.90999985    0.01000000
   16.76861000   -1.00000000    4.90999985    0.01000000
   16.77194405   -1.00000000    4.90999985    0.01000000
   16.77527809   -1.00000000    4.90999985    0.01000000
   16.78416634   -1.00000000    4.90999985    0.01000000
   16.78722191   -1.00000000    3.91000009    0.01000000
   16.79083252   -1.00000000    4.90999985    0.03000000
   16.79388809   -1.00000000    4.90999985    0.07000000
   16.79722214   -1.00000000    4.90999985    0.13000000
   16.80055428   -1.00000000    4.90999985    0.46000001
   16.80360985   -1.00000000    4.90999985    0.20999999
   16.80694389   -1.00000000    4.90999985    0.17000000
   16.80999947   -1.00000000    4.90999985    0.15000001
   16.81333351   -1.00000000    4.90999985    0.19000000
   16.81666756   -1.00000000    4.90999985    0.13000000
   16.81972313   -1.00000000    3.32999992    0.01000000
   16.82305717   -1.00000000    2.78999996    0.01000000
   16.82638931   -1.00000000    2.03999996    0.01000000
   16.83527756   -1.00000000    4.90999985    0.03000000
   16.83889008   -1.00000000    4.05999994    0.01000000
   16.84194565   -1.00000000    2.26999998    0.01000000
   16.84527779   -1.00000000    4.90999985    0.03000000
   16.84861183   -1.00000000    4.90999985    0.01000000
   16.85166740   -1.00000000    4.90999985    0.01000000
   16.85499954   -1.00000000    4.90999985    0.01000000
   16.85805511   -1.00000000    4.90999985    0.01000000
   16.86138916   -1.00000000    4.90999985    0.01000000
   16.86472321   -1.00000000    2.67000008    0.01000000
   16.86777878   -1.00000000    2.71000004    0.01000000
   16.87111092   -1.00000000    2.71000004    0.01000000
   16.87444496   -1.00000000    2.66000009    0.01000000
   16.87750053   -1.00000000    2.67000008    0.01000000
   16.88638878   -1.00000000    4.90999985    0.03000000
   16.88999939   -1.00000000    4.13999987    0.03000000
   16.89305496   -1.00000000    4.90999985    0.07000000
   16.89638901   -1.00000000    4.90999985    0.11000000
   16.89972115   -1.00000000    4.90999985    0.13000000
   16.90277672   -1.00000000    4.90999985    0.17000000
   16.90611076   -1.00000000    4.90999985    0.41999999
   16.90944481   -1.00000000    4.90999985    0.44000000
   16.91250038   -1.00000000    4.90999985    0.46000001
   16.91583252   -1.00000000    4.90999985    0.23000000
   16.91916656   -1.00000000    4.90999985    0.17000000
   16.92222214   -1.00000000    4.90999985    0.03000000
   16.92555428   -1.00000000    3.30999994    0.01000000
   16.92860985   -1.00000000    3.00000000    0.01000000
   16.93750000   -1.00000000    3.00000000    0.01000000
   16.94138718   -1.00000000    3.00000000    0.01000000
   16.94444275   -1.00000000    3.00000000    0.01000000
   16.94777679   -1.00000000    3.00000000    0.01000000
   16.95083427   -1.00000000    3.00000000    0.01000000
   16.95416832   -1.00000000    3.00000000    0.01000000
   16.95750046   -1.00000000    1.96000004    0.01000000
   16.96055603   -1.00000000    4.57999992    0.03000000
   16.96389008   -1.00000000    4.90999985    0.05000000
   16.96722221   -1.00000000    4.90999985    0.05000000
   16.97027779   -1.00000000    4.90999985    0.07000000
   16.97361183   -1.00000000    4.90999985    0.11000000
   16.97666740   -1.00000000    4.90999985    0.05000000
   16.98000145   -1.00000000    2.98000002    0.01000000
   16.98888969   -1.00000000    2.51999998    0.01000000
   16.99194527   -1.00000000    2.51999998    0.01000000
   16.99527740   -1.00000000    2.51999998    0.01000000
   16.99833298   -1.00000000    1.66999996    0.01000000
   17.00166702   -1.00000000    3.48000002    0.01000000
   17.00499916   -1.00000000    4.90999985    0.07000000
   17.00805473   -1.00000000    4.90999985    0.13000000
   17.01138878   -1.00000000    4.90999985    0.41999999
   17.01472282   -1.00000000    4.90999985    1.30999994
   17.01777840   -1.00000000    4.90999985    2.17000008
   17.02111053   -1.00000000    4.90999985    2.64000010
   17.02416611   -1.00000000    4.90999985    2.94000006
   17.02750015   -1.00000000    4.90999985    2.82999992
   17.03083229   -1.00000000    2.80999994    2.89000010
   17.03999901   -1.00000000    2.64000010    2.91000009
   17.04305458   -1.00000000    2.48000002    2.89000010
   17.04638863   -1.00000000    2.73000002    2.89000010
   17.04972076   -1.00000000    3.53999996    2.93000007
   17.05277634   -1.00000000    4.90999985    2.84999990
   17.05611038   -1.00000000    4.90999985    2.73000002
   17.05916595   -1.00000000    4.90999985    2.71000004
   17.06250000   -1.00000000    4.90999985    2.93000007
   17.06583214   -1.00000000    4.90999985    2.40000010
   17.06888962   -1.00000000    4.90999985    2.32999992
   17.07222366   -1.00000000    4.90999985    2.40000010
   17.07555580   -1.00000000    4.90999985    1.34000003
   17.07861137   -1.00000000    4.90999985    1.91999996
   17.08194542   -1.00000000    4.90999985    2.00000000
   17.09111214   -1.00000000    4.90999985    2.30999994
   17.09444427   -1.00000000    4.90999985    2.28999996
   17.09749985   -1.00000000    4.90999985    2.03999996
   17.10083389   -1.00000000    4.90999985    2.93000007
   17.10416794   -1.00000000    4.90999985    2.84999990
   17.10722351   -1.00000000    4.90999985    2.78999996
   17.11055565   -1.00000000    4.90999985    2.86999989
   17.11361122   -1.00000000    4.90999985    2.71000004
   17.11694527   -1.00000000    4.90999985    2.53999996
   17.12027740   -1.00000000    4.90999985    2.25000000
   17.12333298   -1.00000000    4.90999985    2.51999998
   17.12666702   -1.00000000    4.90999985    2.55999994
   17.13000107   -1.00000000    4.90999985    2.84999990
   17.13305473   -1.00000000    4.90999985    2.93000007
   17.14222145   -1.00000000    4.90999985    2.86999989
   17.14555550   -1.00000000    4.90999985    2.78999996
   17.14888954   -1.00000000    4.90999985    2.82999992
   17.15194321   -1.00000000    4.90999985    2.84999990
   17.15527725   -1.00000000    4.82999992    2.84999990
   17.15833282   -1.00000000    4.90999985    2.86999989
   17.16166687   -1.00000000    4.90999985    2.86999989
   17.16499901   -1.00000000    4.40999985    2.86999989
   17.16805458   -1.00000000    4.42999983    2.86999989
   17.17138863   -1.00000000    4.09999990    2.86999989
   17.17472076   -1.00000000    3.82999992    2.86999989
   17.17777634   -1.00000000    3.86999989    2.86999989
   17.18111038   -1.00000000    4.07999992    2.86999989
   17.18416595   -1.00000000    3.97000003    2.84999990
   17.19361115   -1.00000000    4.44999981    2.84999990
   17.19666672   -1.00000000    4.53000021    2.84999990
   17.20000076   -1.00000000    4.69999981    2.84999990
   17.20305634   -1.00000000    4.90999985    2.84999990
   17.20639038   -1.00000000    4.90999985    2.67000008
   17.20972252   -1.00000000    4.90999985    2.73000002
   17.21277809   -1.00000000    4.88999987    2.86999989
   17.21611214   -1.00000000    4.90999985    2.84999990
   17.21916771   -1.00000000    4.90999985    2.82999992
   17.22249985   -1.00000000    4.90999985    2.82999992
   17.22583389   -1.00000000    4.90999985    2.82999992
   17.22888947   -1.00000000    4.90999985    2.84999990
   17.23222351   -1.00000000    4.90999985    2.82999992
   17.23555565   -1.00000000    4.90999985    2.82999992
   17.24472237   -1.00000000    4.90999985    2.82999992
   17.24777794   -1.00000000    4.90999985    2.82999992
   17.25111198   -1.00000000    4.90999985    2.84999990
   17.25444412   -1.00000000    4.90999985    2.82999992
   17.25749969   -1.00000000    4.90999985    2.82999992
   17.26083374   -1.00000000    4.90999985    2.82999992
   17.26388931   -1.00000000    4.90999985    2.82999992
   17.26722145   -1.00000000    4.90999985    2.80999994
   17.27055550   -1.00000000    4.90999985    2.82999992
   17.27361107   -1.00000000    4.90999985    2.82999992
   17.27694511   -1.00000000    4.90999985    2.82999992
   17.28027725   -1.00000000    4.90999985    2.82999992
   17.28333282   -1.00000000    4.90999985    2.84999990
   17.28666687   -1.00000000    4.88999987    2.84999990
   17.29583359   -1.00000000    4.84999990    2.84999990
   17.29916573   -1.00000000    4.57999992    2.84999990
   17.30222130   -1.00000000    4.59999990    2.84999990
   17.30555534   -1.00000000    4.84999990    2.84999990
   17.30861092   -1.00000000    4.73999977    2.84999990
   17.31194305   -1.00000000    4.76000023    2.84999990
   17.31527710   -1.00000000    4.71999979    2.84999990
   17.31833458   -1.00000000    4.53999996    2.84999990
   17.32166672   -1.00000000    4.51000023    2.84999990
   17.32500076   -1.00000000    4.73999977    2.84999990
   17.32805634   -1.00000000    4.61999989    2.86999989
   17.33139038   -1.00000000    4.53999996    2.84999990
   17.33444595   -1.00000000    4.53000021    2.86999989
   17.33777809   -1.00000000    4.48999977    2.84999990
   17.34694481   -1.00000000    4.90999985    2.71000004
   17.35027885   -1.00000000    4.90999985    2.86999989
   17.35361099   -1.00000000    4.90999985    1.69000006
   17.35666656   -1.00000000    4.90999985    2.84999990
   17.36000061   -1.00000000    4.38999987    2.86999989
   17.36305618   -1.00000000    4.57999992    2.84999990
   17.36638832   -1.00000000    4.80000019    2.80999994
   17.36972237   -1.00000000    4.69999981    2.84999990
   17.37277794   -1.00000000    4.90999985    2.84999990
   17.37611198   -1.00000000    4.90999985    2.84999990
   17.37944412   -1.00000000    4.90999985    2.80999994
   17.38249969   -1.00000000    4.90999985    2.75000000
   17.38583374   -1.00000000    4.90999985    2.17000008
   17.38888931   -1.00000000    4.90999985    2.13000011
   17.39805603   -1.00000000    4.90999985    2.86999989
   17.40138817   -1.00000000    4.90999985    2.82999992
   17.40472221   -1.00000000    4.90999985    2.82999992
   17.40777779   -1.00000000    4.90999985    2.80999994
   17.41110992   -1.00000000    4.90999985    2.80999994
   17.41416550   -1.00000000    4.90999985    2.80999994
   17.41749954   -1.00000000    4.90999985    2.80999994
   17.42083359   -1.00000000    4.90999985    2.80999994
   17.42388916   -1.00000000    4.90999985    2.80999994
   17.42722130   -1.00000000    4.90999985    2.80999994
   17.43055534   -1.00000000    4.90999985    2.80999994
   17.43361092   -1.00000000    4.90999985    2.80999994
   17.43694305   -1.00000000    4.90999985    2.80999994
   17.46222305   -1.00000000    4.90999985    2.80999994
   17.46555710   -1.00000000    4.90999985    2.80999994
   17.46861076   -1.00000000    4.90999985    2.80999994
   17.47194481   -1.00000000    4.90999985    2.80999994
   17.47500038   -1.00000000    4.90999985    2.80999994
   17.47833443   -1.00000000    4.90999985    2.80999994
   17.48166656   -1.00000000    4.90999985    2.80999994
   17.48472214   -1.00000000    4.90999985    2.78999996
   17.48805618   -1.00000000    4.90999985    2.78999996
   17.49138832   -1.00000000    4.90999985    2.80999994
   17.49444389   -1.00000000    4.90999985    2.78999996
   17.49777794   -1.00000000    4.90999985    2.78999996
   17.50083351   -1.00000000    4.90999985    2.78999996
   17.50416756   -1.00000000    4.90999985    2.78999996
   17.51361084   -1.00000000    4.90999985    2.80999994
   17.51694489   -1.00000000    4.90999985    2.80999994
   17.52027702   -1.00000000    4.90999985    2.82999992
   17.52333260   -1.00000000    4.90999985    2.80999994
   17.52666664   -1.00000000    4.90999985    2.78999996
   17.53000069   -1.00000000    4.90999985    2.78999996
   17.53305435   -1.00000000    4.90999985    2.80999994
   17.53638840   75.00450134    4.90999985    2.78999996
   17.53972244  150.34899902    4.90999985    2.78999996
   17.54277802  142.94099426    4.90999985    2.78999996
   17.54611015  141.48100281    4.90999985    2.78999996
   17.54916573  146.02699280    4.90999985    2.78999996
   17.55249977  141.55299377    4.90999985    2.78999996
   17.55555534  134.36099243    4.90999985    2.78999996
   17.55611038  139.34300232    4.90999985    2.78999996
   17.56083298  139.34300232    4.90999985    2.78999996
   17.56499863  133.11599731    4.90999985    2.78999996
   17.56833458  131.26600647    4.90999985    2.78999996
   17.57139015  136.30700684    4.90999985    2.78999996
   17.57472229  136.28599548    4.90999985    2.78999996
   17.57805634  135.46200562    4.90999985    2.78999996
   17.58111191  137.66400146    4.90999985    2.78999996
   17.58444595  128.74299622    4.90999985    2.78999996
   17.58750153  127.00099945    4.90999985    2.78999996
   17.59083366  131.35899353    4.90999985    2.78999996
   17.59416771  127.05500031    4.90999985    2.78999996
   17.59722328  121.25299835    4.90999985    2.78999996
   17.60055542  134.38499451    4.90999985    2.80999994
   17.60388947  119.50099945    4.90999985    2.80999994
   17.60555649  129.95500183    4.90999985    2.78999996
   17.60750008  128.55700684    4.90999985    2.80999994
   17.61194420  128.55700684    4.90999985    2.80999994
   17.61611176  123.77799988    4.90999985    2.78999996
   17.61944389  128.39599609    4.90999985    2.78999996
   17.62277794  119.76799774    4.90999985    2.78999996
   17.62583351  118.24700165    4.90999985    2.78999996
   17.62916756  118.04499817    4.90999985    2.78999996
   17.63222313  125.85700226    4.90999985    2.78999996
   17.63555527  125.20400238    4.90999985    2.78999996
   17.63888931  122.92400360    4.90999985    2.78999996
   17.64194489  126.13999939    4.90999985    2.78999996
   17.64527702  122.80999756    4.90999985    2.78999996
   17.64861107  123.84400177    4.90999985    2.78999996
   17.65166664  123.59999847    4.90999985    2.76999998
   17.65499878  132.66900635    4.90999985    2.76999998
   17.65555573  122.50499725    4.90999985    2.76999998
   17.65861130  117.38999939    4.90999985    2.76999998
   17.66333389  117.38999939    4.90999985    2.76999998
   17.66749954  118.90799713    4.90999985    2.78999996
   17.67055511  120.94699860    4.90999985    2.78999996
   17.67388916  128.13400269    4.90999985    2.76999998
   17.67694473  114.56199646    4.90999985    2.76999998
   17.68027687  119.53600311    4.90999985    2.76999998
   17.68361092  121.84200287    4.90999985    2.78999996
   17.68666649  113.91500092    4.90999985    2.78999996
   17.68999863  117.81999969    4.90999985    2.76999998
   17.69333267  127.19100189    4.90999985    2.78999996
   17.69638824  112.36399841    4.90999985    2.78999996
   17.69972038  119.82599640    4.90999985    2.78999996
   17.70277786  127.55200195    4.90999985    2.78999996
   17.70555687  129.23699951    4.90999985    2.78999996
   17.70639038  126.39399719    4.90999985    2.78999996
   17.70972252  130.37899780    4.90999985    2.80999994
   17.71444511  130.37899780    4.90999985    2.80999994
   17.71861076  126.33799744    4.90999985    2.78999996
   17.72166634  126.29299927    4.90999985    2.78999996
   17.72500038  127.97799683    4.90999985    2.78999996
   17.72833443  137.22900391    4.90999985    2.78999996
   17.73139000  126.70800018    4.90999985    2.78999996
   17.73472214  126.23400116    4.90999985    2.78999996
   17.73777771  123.39399719    4.90999985    2.78999996
   17.74111176  128.06599426    4.90999985    2.80999994
   17.74444389  122.05500031    4.90999985    2.78999996
   17.74749947  130.15699768    4.90999985    2.78999996
   17.75083351  125.55699921    4.90999985    2.78999996
   17.75416756  126.52899933    4.90999985    2.78999996
   17.75555611  131.89599609    4.90999985    2.78999996
   17.75777817  126.20999908    4.90999985    2.78999996
   17.76111031  126.38600159    4.90999985    2.78999996
   17.76555634  126.38600159    4.90999985    2.76999998
   17.76972198  127.24400330    4.90999985    2.78999996
   17.77305603  120.60099792    4.90999985    2.78999996
   17.77611160  133.73899841    4.90999985    2.76999998
   17.77944374  126.27400208    4.90999985    2.78999996
   17.78277779  124.24500275    4.90999985    2.78999996
   17.78583336  130.15499878    4.90999985    2.76999998
   17.78916550  118.05699921    4.90999985    2.78999996
   17.79222107  119.86000061    4.90999985    2.78999996
   17.79555511  121.99900055    4.90999985    2.78999996
   17.79888916  124.98500061    4.90999985    2.78999996
   17.80194283  125.34400177    4.90999985    2.78999996
   17.80527687  119.89399719    4.90999985    2.78999996
   17.80583191  126.78800201    4.90999985    2.76999998
   17.80888748  130.05099487    4.90999985    2.78999996
   17.81194305   77.61879730    4.90999985    2.82999992
   17.81666756   77.61879730    4.90999985    2.84999990
   17.82083511  121.95500183    4.90999985    2.80999994
   17.82416725  125.13400269    4.90999985    2.78999996
   17.82750130  120.88999939    4.90999985    2.78999996
   17.83055687  128.78700256    4.90999985    2.78999996
   17.83388901  124.00900269    4.90999985    2.78999996
   17.83694458  125.00199890    4.90999985    2.80999994
   17.84027863  128.32099915    4.90999985    2.82999992
   17.84361267  129.42500305    4.90999985    2.80999994
   17.84666824  127.07800293    4.90999985    2.80999994
   17.85000038  128.92599487    4.90999985    2.80999994
   17.85333443  129.89500427    4.90999985    2.78999996
   17.85583305  127.55999756    4.90999985    2.80999994
   17.85694504  123.23899841    4.90999985    2.78999996
   17.86000061  124.05200195    4.90999985    2.82999992
   17.86333466   -1.00000000    4.90999985    2.91000009
   17.86805534   -1.00000000    4.90999985    2.94000006
   17.87222290  122.23799896    4.90999985    2.82999992
   17.87527847  126.35700226    4.90999985    2.78999996
   17.87861061  130.30499268    4.90999985    2.78999996
   17.88166618  128.17599487    4.90999985    2.76999998
   17.88500023  129.04499817    4.90999985    2.78999996
   17.88833237  129.15899658    4.90999985    2.76999998
   17.89138794  125.20999908    4.90999985    2.76999998
   17.89472198  125.57099915    4.90999985    2.76999998
   17.89777756  132.02499390    4.90999985    2.76999998
   17.90111160  124.47799683    4.90999985    2.78999996
   17.90444374  125.29199982    4.90999985    2.78999996
   17.90583229  132.38999939    4.90999985    2.78999996
   17.90805435  129.61900330    4.90999985    2.76999998
   17.91110992  133.48599243    4.90999985    2.78999996
   17.91444397  133.83999634    4.90999985    2.76999998
   17.91916656  133.83999634    4.90999985    2.78999996
   17.92333221  123.96299744    4.90999985    2.76999998
   17.92638779  125.11000061    4.90999985    2.76999998
   17.92972183  124.42299652    4.90999985    2.76999998
   17.93305397  126.78399658    4.90999985    2.76999998
   17.93610954  126.62699890    4.90999985    2.76999998
   17.93944359  126.62400055    4.90999985    2.76999998
   17.94249916  126.15599823    4.90999985    2.78999996
   17.94583321  125.66699982    4.90999985    2.78999996
   17.94916534  128.68800354    4.90999985    2.78999996
   17.95222282  122.78900146    4.90999985    2.78999996
   17.95555687  122.66799927    4.90999985    2.78999996
   17.95611191  132.41099548    4.90999985    2.78999996
   17.95944595  125.95099640    4.90999985    2.76999998
   17.96250153  132.49099731    4.90999985    2.76999998
   17.96583366  133.17300415    4.90999985    2.78999996
   17.97027779  133.17300415    4.90999985    2.76999998
   17.97444534  123.42900085    4.90999985    2.78999996
   17.97777748  131.10499573    4.90999985    2.80999994
   17.98083305  124.16999817    4.90999985    2.78999996
   17.98416710  131.93699646    4.90999985    2.78999996
   17.98722267  138.66299438    4.90999985    2.78999996
   17.99055672  127.46399689    4.90999985    2.76999998
   17.99388885  128.76899719    4.90999985    2.76999998
   17.99694443  134.99899292    4.90999985    2.76999998
   18.00027847  135.79699707    4.90999985    2.76999998
   18.00361061  131.33599854    4.90999985    2.75000000
   18.00611115  135.96400452    4.90999985    2.75000000
   18.00722313  127.22200012    4.90999985    2.75000000
   18.01027870  135.41499329    4.90999985    2.76999998
   18.01361084  134.43699646    4.90999985    2.76999998
   18.01666641  134.46800232    4.90999985    2.76999998
   18.02138901  134.46800232    4.90999985    2.75000000
   18.02555466  132.28100586    4.90999985    2.75000000
   18.02888870  132.99899292    4.90999985    2.76999998
   18.03194427  138.82600403    4.90999985    2.75000000
   18.03527641  128.90899658    4.90999985    2.75000000
   18.03861046  126.24800110    4.90999985    2.75000000
   18.04166603  130.61099243    4.90999985    2.75000000
   18.04500008  125.64199829    4.90999985    2.75000000
   18.04833221  125.81800079    4.90999985    2.75000000
   18.05138779  134.63900757    4.90999985    2.75000000
   18.05472183  127.23899841    4.90999985    2.75000000
   18.05611038  127.01999664    4.90999985    2.75000000
   18.05833244  129.00599670    4.90999985    2.75000000
   18.06138802  128.79200745    4.90999985    2.75000000
   18.06472206  127.70300293    4.90999985    2.75000000
   18.06805611  126.44400024    4.90999985    2.75000000
   18.07277870  126.44400024    4.90999985    2.73000002
   18.07694626  129.54899597    4.90999985    2.76999998
   18.08000183  132.73199463    4.90999985    2.75000000
   18.08333397  140.24800110    4.90999985    2.73000002
   18.08638954  136.13200378    4.90999985    2.75000000
   18.08972359  126.50499725    4.90999985    2.73000002
   18.09305573  129.32099915    4.90999985    2.73000002
   18.09611130  130.42999268    4.90999985    2.73000002
   18.09944534  130.46000671    4.90999985    2.73000002
   18.10250092  129.35800171    4.90999985    2.73000002
   18.10583305  130.98100281    4.90999985    2.73000002
   18.10639000  130.47999573    4.90999985    2.73000002
   18.10972214  126.47200012    4.90999985    2.75000000
   18.11277771  127.80899811    4.90999985    2.75000000
   18.11611176  132.60899353    4.90999985    2.75000000
   18.11944389  127.02700043    4.90999985    2.75000000
   18.12388992  127.02700043    4.90999985    2.75000000
   18.12805557  131.88800049    4.90999985    2.73000002
   18.13111115  128.83399963    4.90999985    2.73000002
   18.13444519  140.04200745    4.90999985    2.73000002
   18.13777733  124.05500031    4.90999985    2.73000002
   18.14083290  142.90400696    4.90999985    2.75000000
   18.14416695  135.63299561    4.90999985    2.73000002
   18.14749908  134.95300293    4.90999985    2.73000002
   18.15055466  130.41600037    4.90999985    2.71000004
   18.15388870  134.64900208    4.90999985    2.73000002
   18.15638924  130.48899841    4.90999985    2.71000004
   18.15749931  144.54600525    4.90999985    2.73000002
   18.16083336  138.16499329    4.90999985    2.73000002
   18.16388893  133.12399292    4.90999985    2.73000002
   18.16722107  133.83200073    4.90999985    2.73000002
   18.17027664  134.54600525    4.90999985    2.73000002
   18.17499924  134.54600525    4.90999985    2.75000000
   18.17916679  133.97000122    4.90999985    2.75000000
   18.18249893  129.41200256    4.90999985    2.73000002
   18.18555450  131.34599304    4.90999985    2.73000002
   18.18888855  129.96699524    4.90999985    2.73000002
   18.19194412  133.17100525    4.90999985    2.73000002
   18.19527626  133.81300354    4.90999985    2.73000002
   18.19861031  123.19100189    4.90999985    2.73000002
   18.20166779  129.71600342    4.90999985    2.73000002
   18.20499992  129.70100403    4.90999985    2.73000002
   18.20639038  130.36000061    4.90999985    2.73000002
   18.20861244  128.86700439    4.90999985    2.73000002
   18.21194458  132.60899353    4.90999985    2.73000002
   18.21500015  125.07499695    4.90999985    2.75000000
   18.21833420  134.77699280    4.90999985    2.71000004
   18.22138977  133.47900391    4.90999985    2.73000002
   18.22611237  133.47900391    4.90999985    2.71000004
   18.23027802  131.99499512    4.90999985    2.71000004
   18.23361206  132.14799500    4.90999985    2.73000002
   18.23666763  130.52099609    4.90999985    2.71000004
   18.23999977  130.42700195    4.90999985    2.71000004
   18.24333382  127.24800110    4.90999985    2.71000004
   18.24638939  130.51600647    4.90999985    2.71000004
   18.24972153  131.03599548    4.90999985    2.73000002
   18.25305557  131.19400024    4.90999985    2.71000004
   18.25611115  135.63900757    4.90999985    2.71000004
   18.25666618  134.13600159    4.90999985    2.73000002
   18.26000023  130.96099854    4.90999985    2.71000004
   18.26305580  139.36900330    4.90999985    2.71000004
   18.26638794  134.73100281    4.90999985    2.71000004
   18.26972198  138.52299500    4.90999985    2.73000002
   18.27277756  135.09399414    4.90999985    2.71000004
   18.27750015  135.09399414    4.90999985    2.71000004
   18.28138924  127.00099945    4.90999985    2.71000004
   18.28472137  129.91900635    4.90999985    2.71000004
   18.28805542  131.53500366    4.90999985    2.71000004
   18.29111099  132.77099609    4.90999985    2.71000004
   18.29444313  129.76499939    4.90999985    2.73000002
   18.29777718  132.21200562    4.90999985    2.73000002
   18.30083275  131.16499329    4.90999985    2.69000006
   18.30416679  135.51100159    4.90999985    2.71000004
   18.30666542  125.71800232    4.90999985    2.71000004
   18.30777740  123.94400024    4.90999985    2.71000004
   18.31110954  129.39599609    4.90999985    2.71000004
   18.31416512  129.97900391    4.90999985    2.71000004
   18.31750107  127.58300018    4.90999985    2.73000002
   18.32055664  129.86999512    4.90999985    2.71000004
   18.32389069  134.52000427    4.90999985    2.73000002
   18.32861137  134.52000427    4.90999985    2.71000004
   18.33277893  125.28900146    4.90999985    2.73000002
   18.33583450  125.66200256    4.90999985    2.73000002
   18.33916664  129.50999451    4.90999985    2.71000004
   18.34250069  127.41600037    4.90999985    2.71000004
   18.34555626  128.27499390    4.90999985    2.71000004
   18.34889030  129.18899536    4.90999985    2.73000002
   18.35194397  123.65799713    4.90999985    2.71000004
   18.35527802  124.27300262    4.90999985    2.71000004
   18.35666656  125.48600006    4.90999985    2.71000004
   18.35888863  131.66000366    4.90999985    2.71000004
   18.36222267  132.23899841    4.90999985    2.71000004
   18.36527824  136.19599915    4.90999985    2.71000004
   18.36861038  133.88400269    4.90999985    2.71000004
   18.37166595  123.67800140    4.90999985    2.71000004
   18.37500000  129.02999878    4.90999985    2.71000004
   18.37972260  129.02999878    4.90999985    2.71000004
   18.38388824  129.23599243    4.90999985    2.71000004
   18.38722229  132.72900391    4.90999985    2.71000004
   18.39027786  128.48399353    4.90999985    2.71000004
   18.39361191  126.74600220    4.90999985    2.71000004
   18.39666748  125.78800201    4.90999985    2.71000004
   18.39999962  126.82800293    4.90999985    2.71000004
   18.40333366  127.18900299    4.90999985    2.73000002
   18.40638924  127.17500305    4.90999985    2.73000002
   18.40694427  132.83200073    4.90999985    2.73000002
   18.41027832  208.54400635    4.90999985    2.71000004
   18.41361046  136.06500244    4.90999985    2.73000002
   18.41666603  137.30799866    4.90999985    2.71000004
   18.42000008  146.83700562    4.90999985    2.71000004
   18.42305565  136.69700623    4.90999985    2.71000004
   18.42638779  141.47399902    4.90999985    2.73000002
   18.43083191  141.47399902    4.90999985    2.71000004
   18.43499947  129.70199585    4.90999985    2.71000004
   18.43833160  137.45899963    4.90999985    2.71000004
   18.44138718  132.60000610    4.90999985    2.73000002
   18.44472122  133.08399963    4.90999985    2.73000002
   18.44805527  132.77499390    4.90999985    2.73000002
   18.45111275  137.45599365    4.90999985    2.73000002
   18.45444489  136.90600586    4.90999985    2.75000000
   18.47166634  137.31100464    4.90999985    2.73000002
   18.47416687  138.15899658    4.90999985    2.73000002
   18.47750092  130.24299622    4.90999985    2.73000002
   18.48222351  130.24299622    4.90999985    2.73000002
   18.48638916  136.23399353    4.90999985    2.73000002
   18.48972321  136.42999268    4.90999985    2.75000000
   18.49277878  138.74800110    4.90999985    2.75000000
   18.49611092  139.00500488    4.90999985    2.75000000
   18.49944496  131.02299500    4.90999985    2.73000002
   18.50250053  141.29299927    4.90999985    2.73000002
   18.50583267  137.45700073    4.90999985    2.71000004
   18.50916672  148.64300537    4.90999985    2.73000002
   18.51222229  135.99000549    4.90999985    2.73000002
   18.51555634  137.04200745    4.90999985    2.73000002
   18.51861000  140.40199280    4.90999985    2.71000004
   18.52138901  132.92300415    4.90999985    2.73000002
   18.52249908  136.69299316    4.90999985    2.73000002
   18.52555466  130.38400269    4.90999985    2.73000002
   18.52888870  129.20199585    4.90999985    2.75000000
   18.53361130  129.20199585    4.90999985    2.73000002
   18.53750038  128.44000244    4.90999985    2.71000004
   18.54083252  139.50000000    4.90999985    2.71000004
   18.54416656  122.61900330    4.90999985    2.71000004
   18.54722214  129.40400696    4.90999985    2.73000002
   18.55055428  148.52699280    4.90999985    2.71000004
   18.55388832  140.38400269    4.90999985    2.69000006
   18.55694389  145.99499512    4.90999985    2.69000006
   18.56027794  141.10099792    4.90999985    2.69000006
   18.56361008  144.64900208    4.90999985    2.69000006
   18.56666756  142.09300232    4.90999985    2.69000006
   18.57000160  147.51899719    4.90999985    2.71000004
   18.57139015  146.34700012    4.90999985    2.69000006
   18.57361221  139.20300293    4.90999985    2.69000006
   18.57694626  137.14500427    4.90999985    2.71000004
   18.58000183  141.91799927    4.90999985    2.71000004
   18.58472252  141.91799927    4.90999985    2.73000002
   18.58889008  136.53799438    4.90999985    2.73000002
   18.59194565  133.89399719    4.90999985    2.73000002
   18.59527779  127.18800354    4.90999985    2.73000002
   18.59861183  145.55999756    4.90999985    2.75000000
   18.60166740  126.38099670    4.90999985    2.75000000
   18.60499954  131.33900452    4.90999985    2.75000000
   18.60805511  128.27499390    4.90999985    2.75000000
   18.61138916  131.63600159    4.90999985    2.76999998
   18.61472321  132.97200012    4.90999985    2.76999998
   18.61777878  131.49699402    4.90999985    2.76999998
   18.62111092  129.83299255    4.90999985    2.75000000
   18.62166595  135.61999512    4.90999985    2.76999998
   18.62500000  128.51400757    4.90999985    2.76999998
   18.62805557  119.64600372    4.90999985    2.78999996
   18.63138962  129.80299377    4.90999985    2.76999998
   18.63583374  129.80299377    4.90999985    2.76999998
   18.63999939  131.81500244    4.90999985    2.76999998
   18.64333344  130.77200317    4.90999985    2.76999998
   18.64638901  139.47200012    4.90999985    2.78999996
   18.64972115  128.71400452    4.90999985    2.76999998
   18.65277672  130.72200012    4.90999985    2.76999998
   18.65611076  120.90799713    4.90999985    2.78999996
   18.65944481  126.50700378    4.90999985    2.78999996
   18.66250038  135.93899536    4.90999985    2.78999996
   18.66583252  130.18800354    4.90999985    2.78999996
   18.66916656  121.59100342    4.90999985    2.78999996
   18.67166519  135.23899841    4.90999985    2.78999996
   18.67277718  132.00599670    4.90999985    2.76999998
   18.67583275  130.82200623    4.90999985    2.76999998
   18.67916679  132.05000305    4.90999985    2.75000000
   18.68222237  128.85099792    4.90999985    2.75000000
   18.68694305  128.85099792    4.90999985    2.75000000
   18.69111061  133.21400452    4.90999985    2.76999998
   18.69444275  134.30400085    4.90999985    2.75000000
   18.69749832  129.05099487    4.90999985    2.75000000
   18.70083427  126.92099762    4.90999985    2.75000000
   18.70416832  138.13299561    4.90999985    2.76999998
   18.70722389  127.01999664    4.90999985    2.76999998
   18.71055603  132.66900635    4.90999985    2.76999998
   18.71389008  129.17500305    4.90999985    2.76999998
   18.71694565  120.86399841    4.90999985    2.76999998
   18.72027779  127.07800293    4.90999985    2.76999998
   18.72166634  127.87799835    4.90999985    2.76999998
   18.72389030  129.86700439    4.90999985    2.75000000
   18.72694588  125.09700012    4.90999985    2.75000000
   18.73027802  132.07400513    4.90999985    2.75000000
   18.73361206  123.44100189    4.90999985    2.76999998
   18.73833275  123.44100189    4.90999985    2.76999998
   18.74222183  134.82600403    4.90999985    2.75000000
   18.74555588  128.40899658    4.90999985    2.75000000
   18.74888992  127.70800018    4.90999985    2.75000000
   18.75194359  131.22300720    4.90999985    2.75000000
   18.75527763  134.26499939    4.90999985    2.75000000
   18.75861168  126.63999939    4.90999985    2.76999998
   18.76166725  127.84400177    4.90999985    2.75000000
   18.76499939  123.93800354    4.90999985    2.76999998
   18.76805496  127.68299866    4.90999985    2.76999998
   18.77138901  128.76899719    4.90999985    2.78999996
   18.77194405  124.39099884    4.90999985    2.78999996
   18.77527809  130.94400024    4.90999985    2.78999996
   18.77833366  127.28199768    4.90999985    2.76999998
   18.78166580  121.21099854    4.90999985    2.76999998
   18.78499985  121.43800354    4.90999985    2.76999998
   18.78944397  121.43800354    4.90999985    2.76999998
   18.79361153  120.44599915    4.90999985    2.75000000
   18.79666710  117.15799713    4.90999985    2.75000000
   18.79999924  126.48600006    4.90999985    2.78999996
   18.80333328  123.33399963    4.90999985    2.76999998
   18.80638885  126.43000031    4.90999985    2.78999996
   18.80972099  128.26800537    4.90999985    2.78999996
   18.81305504  123.16500092    4.90999985    2.78999996
   18.81611061  121.15499878    4.90999985    2.76999998
   18.81944466  125.96700287    4.90999985    2.78999996
   18.82194519  123.37999725    4.90999985    2.75000000
   18.82305717  126.16999817    4.90999985    2.76999998
   18.82638931  133.46600342    4.90999985    2.76999998
   18.82944489  131.74400330    4.90999985    2.73000002
   18.83277893  135.32800293    4.90999985    2.73000002
   18.83583450  123.74800110    4.90999985    2.75000000
   18.84055710  123.74800110    4.90999985    2.73000002
   18.84472275  123.96099854    4.90999985    2.75000000
   18.84805679  128.53599548    4.90999985    2.75000000
   18.85111237  121.83999634    4.90999985    2.73000002
   18.85444450  124.27100372    4.90999985    2.75000000
   18.85750008  124.14900208    4.90999985    2.75000000
   18.86083412  118.94499969    4.90999985    2.75000000
   18.86416626  128.47300720    4.90999985    2.75000000
   18.86722183  120.62699890    4.90999985    2.75000000
   18.87055588  120.57499695    4.90999985    2.75000000
   18.87194443  124.74800110    4.90999985    2.75000000
   18.87416649  120.17900085    4.90999985    2.75000000
   18.87750053  120.16400146    4.90999985    2.73000002
   18.88055611  129.33099365    4.90999985    2.73000002
   18.88388824  121.01699829    4.90999985    2.73000002
   18.88694382  121.69599915    4.90999985    2.71000004
   18.89166641  121.69599915    4.90999985    2.73000002
   18.89583397  126.18299866    4.90999985    2.73000002
   18.89916611  124.91200256    4.90999985    2.73000002
   18.90222168  124.34300232    4.90999985    2.73000002
   18.90555573  125.33699799    4.90999985    2.71000004
   18.90888786  129.47700500    4.90999985    2.71000004
   18.91194344  128.20399475    4.90999985    2.71000004
   18.91527748  125.92800140    4.90999985    2.71000004
   18.91860962  120.76499939    4.90999985    2.69000006
   18.92166519  120.68399811    4.90999985    2.71000004
   18.92222214  121.06099701    4.90999985    2.71000004
   18.92555428  120.13099670    4.90999985    2.71000004
   18.92860985  113.99199677    4.90999985    2.73000002
   18.93194389  120.29399872    4.90999985    2.73000002
   18.93527603  127.39499664    4.90999985    2.75000000
   18.93833160  122.57800293    4.90999985    2.75000000
   18.94305420  122.57800293    4.90999985    2.73000002
   18.94694328  125.31900024    4.90999985    2.75000000
   18.95027924  123.91799927    4.90999985    2.75000000
   18.95361137  121.36100006    4.90999985    2.75000000
   18.95666695  116.55599976    4.90999985    2.75000000
   18.96000099  120.74600220    4.90999985    2.75000000
   18.96333504  121.10800171    4.90999985    2.76999998
   18.96638870  124.69899750    4.90999985    2.78999996
   18.96972275  117.88500214    4.80000019    2.80999994
   18.97222328  120.31400299    4.44999981    2.80999994
   18.97333336  113.73000336    4.36999989    2.80999994
   18.97638893  123.34500122    4.05999994    2.82999992
   18.97972298  124.47799683    3.93000007    2.82999992
   18.98305511  118.15299988    3.89000010    2.82999992
   18.98611069  128.09700012    3.75000000    2.82999992
   18.98944473  119.22200012    3.73000002    2.82999992
   18.99416733  119.22200012    3.68000007    2.82999992
   18.99833298  122.55899811    3.75000000    2.80999994
   19.00138855  123.96499634    3.55999994    2.82999992
   19.00472260  119.60099792    3.43000007    2.84999990
   19.00777817  116.60600281    3.34999990    2.82999992
   19.01111031  113.89099884    3.16000009    2.84999990
   19.01444435  115.56900024    3.00000000    2.82999992
   19.01749992  114.64700317    2.98000002    2.82999992
   19.02083397  120.64199829    2.96000004    2.82999992
   19.02222252  115.49500275    2.91000009    2.82999992
   19.02444458  112.68399811    2.75000000    2.84999990
   19.02777672  110.08300018    2.61999989    2.84999990
   19.03083229  118.05300140    2.46000004    2.84999990
   19.03416634  119.03500366    2.42000008    2.84999990
   19.03722191  121.25800323    2.42000008    2.84999990
   19.04055595  107.76499939    2.42000008    2.82999992
   19.04527664  107.76499939    2.40000010    2.82999992
   19.04944420  119.63200378    2.46000004    2.82999992
   19.05277634  119.25900269    2.48000002    2.82999992
   19.05583191  109.42400360    2.50000000    2.82999992
   19.05916595  110.51000214    2.51999998    2.82999992
   19.06222153  109.06600189    2.69000006    2.82999992
   19.06555557  116.32700348    2.59999990    2.82999992
   19.06888962  118.22799683    2.51999998    2.82999992
   19.07194519  114.31800079    2.51999998    2.82999992
   19.07250023  117.81300354    2.50000000    2.84999990
   19.07583427  114.07099915    2.51999998    2.84999990
   19.07916832  123.48400116    2.46000004    2.84999990
   19.08222389  123.73699951    2.51999998    2.82999992
   19.08555603  115.32199860    2.55999994    2.82999992
   19.08889008  119.93699646    2.55999994    2.82999992
   19.09194565  119.55799866    2.57999992    2.82999992
   19.09638977  119.55799866    2.67000008    2.82999992
   19.10055542  119.41400146    2.75000000    2.82999992
   19.10388947  113.59100342    2.84999990    2.82999992
   19.10694504  113.79100037    2.67000008    2.84999990
   19.11027908  120.56500244    2.61999989    2.82999992
   19.11361122  118.74500275    2.67000008    2.82999992
   19.11666679  120.83000183    2.59999990    2.84999990
   19.12000084  116.86699677    2.57999992    2.82999992
   19.12249947  116.67800140    2.44000006    2.82999992
   19.12361145  120.07199860    2.26999998    2.82999992
   19.12694550  121.45600128    2.19000006    2.84999990
   19.13000107  117.09200287    1.98000002    2.84999990
   19.13333321  118.98400116    1.76999998    2.84999990
   19.13666725  119.09100342    1.73000002    2.84999990
   19.13972282  122.59300232    1.75000000    2.84999990
   19.14305496  119.31099701    1.71000004    2.84999990
   19.14777756  119.31099701    1.71000004    2.82999992
   19.15166664  126.06700134    1.94000006    2.84999990
   19.15499878  124.84899902    2.00000000    2.84999990
   19.15833282  118.98600006    2.05999994    2.82999992
   19.16138840  119.86799622    2.03999996    2.82999992
   19.16472244  121.44400024    2.00000000    2.82999992
   19.16777802  116.19799805    2.05999994    2.82999992
   19.17111015  113.17700195    2.11999989    2.82999992
   19.17249870  118.06700134    2.15000010    2.82999992
   19.17472076  114.25499725    2.05999994    2.82999992
   19.17805481  117.41699982    2.05999994    2.82999992
   19.18111038  122.84300232    2.05999994    2.82999992
   19.18444443  124.21600342    2.00000000    2.84999990
   19.18777657  122.39399719    2.09999990    2.82999992
   19.19083214  123.06099701    2.19000006    2.82999992
   19.19416618  120.33799744    2.25000000    2.82999992
   19.19888878  120.33799744    2.21000004    2.82999992
   19.20305634  113.70700073    2.23000002    2.84999990
   19.20611191  121.45999908    2.19000006    2.84999990
   19.20944595  117.62300110    2.15000010    2.82999992
   19.21277809  118.36499786    2.13000011    2.84999990
   19.21583366  120.51999664    2.03999996    2.84999990
   19.21916771  118.51000214    1.98000002    2.84999990
   19.22249985  118.65799713    2.23000002    2.84999990
   19.22305679  124.66799927    2.28999996    2.84999990
   19.22611237  117.09700012    2.36999989    2.82999992
   19.22944450  114.86199951    2.50000000    2.82999992
   19.23250008  117.85399628    2.91000009    2.82999992
   19.23583412  119.48799896    2.86999989    2.82999992
   19.23916626  115.49199677    2.82999992    2.82999992
   19.24222183  116.49099731    2.82999992    2.82999992
   19.24555588  120.55400085    2.93000007    2.82999992
   19.25000000  120.55400085    2.96000004    2.84999990
   19.25416756  117.57700348    3.03999996    2.80999994
   19.25749969  115.90399933    3.30999994    2.82999992
   19.26055527  118.24800110    3.82999992    2.80999994
   19.26388931  119.19499969    4.65999985    2.80999994
   19.26694489  117.78700256    4.90999985    2.78999996
   19.27027702  115.02100372    4.90999985    2.78999996
   19.27305603  128.43899536    4.90999985    2.78999996
   19.27388954  124.46499634    4.90999985    2.78999996
   19.27722168  126.17500305    4.90999985    2.76999998
   19.28027725  118.07399750    4.90999985    2.76999998
   19.28361130  124.51300049    4.90999985    2.76999998
   19.28694344  120.26300049    4.90999985    2.76999998
   19.28999901  128.53999329    4.90999985    2.75000000
   19.29333305  127.77400208    4.90999985    2.73000002
   19.29666710  129.74200439    4.90999985    2.73000002
   19.30111122  129.74200439    4.90999985    2.73000002
   19.30527687  124.32399750    4.90999985    2.75000000
   19.30861092  126.02300262    4.90999985    2.73000002
   19.31166649  129.46800232    4.90999985    2.73000002
   19.31499863  123.44100189    4.90999985    2.75000000
   19.31833458  118.65399933    4.90999985    2.76999998
   19.32139015  121.54900360    4.90999985    2.76999998
   19.32305717  122.38800049    4.90999985    2.76999998
   19.32500076  129.15199280    4.90999985    2.76999998
   19.32833481  121.07299805    4.90999985    2.76999998
   19.33139038  123.12000275    4.82999992    2.78999996
   19.33472252  116.68000031    4.53000021    2.78999996
   19.33805656  118.03099823    4.05999994    2.80999994
   19.34111214  116.94300079    3.72000003    2.80999994
   19.34444427  115.30000305    3.61999989    2.80999994
   19.34777832  117.80599976    3.36999989    2.80999994
   19.35250092  117.80599976    3.01999998    2.80999994
   19.35639000  114.54399872    3.07999992    2.82999992
   19.35972214  120.40399933    3.41000009    2.82999992
   19.36305618  125.40000153    3.76999998    2.80999994
   19.36611176  124.18900299    4.05999994    2.78999996
   19.36944389  122.35399628    4.11999989    2.78999996
   19.37277794  120.56500244    3.99000001    2.80999994
   19.37333298  123.51799774    3.97000003    2.80999994
   19.37638855  120.38899994    3.89000010    2.80999994
   19.37972260  120.49800110    3.91000009    2.78999996
   19.38277817  125.23000336    3.86999989    2.80999994
   19.38611031  123.76699829    3.78999996    2.78999996
   19.38944435  127.21700287    3.72000003    2.80999994
   19.39249992  120.29599762    3.64000010    2.80999994
   19.39583397  119.26399994    3.61999989    2.80999994
   19.39916611  125.20899963    3.72000003    2.80999994
   19.40361023  125.20899963    3.76999998    2.80999994
   19.40777779  126.61100006    3.78999996    2.80999994
   19.41083336  118.54799652    3.84999990    2.80999994
   19.41416550  119.72499847    3.82999992    2.80999994
   19.41722107  119.73600006    3.80999994    2.78999996
   19.42055511  122.24199677    4.00000000    2.80999994
   19.42333221  126.15299988    4.13999987    2.80999994
   19.42416573  119.99299622    4.21999979    2.78999996
   19.42749977  124.98100281    4.46999979    2.78999996
   19.43055534  121.44300079    4.86999989    2.78999996
   19.43388748  129.32499695    4.90999985    2.76999998
   19.43722153  124.95999908    4.90999985    2.76999998
   19.44027710  123.01899719    4.90999985    2.76999998
   19.44361115  126.17299652    4.90999985    2.76999998
   19.44694328  122.36900330    4.90999985    2.76999998
   19.45000076  123.79399872    4.90999985    2.75000000
   19.45472336  123.79399872    4.90999985    2.78999996
   19.45888901  118.33000183    4.90999985    2.78999996
   19.46194458  123.78399658    4.90999985    2.78999996
   19.46527863  131.24899292    4.90999985    2.76999998
   19.46861076  127.41600037    4.90999985    2.75000000
   19.48833275  121.56900024    4.78000021    2.76999998
   19.48861122  124.74400330    4.78000021    2.76999998
   19.49194527  123.96199799    4.51000023    2.76999998
   19.49527740  132.08700562    4.15999985    2.78999996
   19.49833298  130.03100586    4.00000000    2.78999996
   19.50166702  126.69999695    3.75000000    2.78999996
   19.50583267  126.69999695    3.39000010    2.80999994
   19.51000023  126.03299713    3.18000007    2.80999994
   19.51333427  132.83999634    3.11999989    2.80999994
   19.51638794  130.97999573    3.00000000    2.80999994
   19.51972198  131.90499878    2.80999994    2.80999994
   19.52305603  124.78900146    2.53999996    2.80999994
   19.52611160  120.47699738    2.30999994    2.80999994
   19.52944374  122.30999756    2.23000002    2.80999994
   19.53249931  125.09200287    2.32999992    2.82999992
   19.53583336  126.10199738    2.46000004    2.80999994
   19.53888893  117.71700287    2.57999992    2.80999994
   19.53944397  113.27500153    2.57999992    2.82999992
   19.54277802  127.64600372    2.59999990    2.80999994
   19.54611015  114.35900116    2.67000008    2.80999994
   19.54916573  125.90100098    2.91000009    2.80999994
   19.55249977  129.17199707    3.07999992    2.80999994
   19.55694389  129.17199707    3.18000007    2.78999996
   19.56110954  128.55400085    3.16000009    2.80999994
   19.56444359  134.26600647    3.07999992    2.78999996
   19.56777954  122.09200287    3.05999994    2.82999992
   19.57083511  125.20600128    3.03999996    2.78999996
   19.57416725  134.04100037    3.11999989    2.78999996
   19.57722282  130.11500549    3.16000009    2.80999994
   19.58055687  136.59300232    3.20000005    2.80999994
   19.58388901  126.10500336    3.18000007    2.78999996
   19.58694458  133.15600586    3.39000010    2.78999996
   19.58889008  127.07800293    4.90999985    2.78999996
   19.59055710   92.80220032    4.90999985    2.80999994
   19.59388924  134.34800720    4.90999985    2.75000000
   19.59722328  137.55099487    3.72000003    2.78999996
   19.60027885  133.64399719    3.61999989    2.78999996
   19.60361099  145.52000427    4.07999992    2.80999994
   19.60833359  145.52000427    4.90999985    2.82999992
   19.61250114  151.56799316    4.90999985    1.71000004
   19.61555672  117.29000092    4.90999985    2.50000000
   19.61888885  141.14799500    4.90999985    2.19000006
   19.62194443  142.92799377    4.90999985    2.80999994
   19.62527847  147.46899414    4.90999985    2.82999992
   19.62861061  257.65100098    4.90999985    2.75000000
   19.63194466   -1.00000000    4.90999985    1.98000002
   19.63500023  166.60400391    4.90999985    0.31999999
   19.63833237   -1.00000000    4.90999985    1.83000004
   19.64166641   -1.00000000    4.90999985    0.58999997
   19.64500046   -1.00000000    4.90999985    0.38000000
   19.64805603   -1.00000000    4.90999985    0.30000001
   19.65138817   -1.00000000    4.90999985    1.36000001
   19.65472221  166.43899536    4.90999985    2.61999989
   19.65944481  166.43899536    4.90999985    0.56999999
   19.66361046  176.94900513    4.90999985    1.91999996
   19.66666603   -1.00000000    4.90999985    1.96000004
   19.67000008  160.91099548    4.90999985    2.86999989
   19.67333221   75.09030151    4.90999985    2.82999992
   19.67638779  126.89099884    4.90999985    1.86000001
   19.67972183  156.85200500    4.90999985    1.64999998
   19.68305397  144.12800598    4.90999985    2.89000010
   19.68610954  129.21200562    4.90999985    2.00000000
   19.68888855  137.95300293    4.90999985    1.26999998
   19.68972206  142.51400757    4.90999985    2.61999989
   19.69305420  144.00799561    4.90999985    2.84999990
   19.69638824  153.78399658    4.90999985    2.84999990
   19.69944382   -1.00000000    4.90999985    2.89000010
   19.70277786  106.59300232    4.90999985    0.63000000
   19.70611191  171.33900452    4.90999985    2.67000008
   19.71055603  171.33900452    4.90999985    2.80999994
   19.71472359  129.56399536    4.15999985    2.76999998
   19.71805573  160.93400574    3.59999990    2.78999996
   19.72111130  150.57299805    3.66000009    2.78999996
   19.72444534  153.63000488    3.07999992    2.78999996
   19.72777748  150.19099426    3.09999990    2.78999996
   19.73083305  155.30599976    3.01999998    2.78999996
   19.73416710  143.11300659    3.14000010    2.76999998
   19.73750114  159.47900391    3.05999994    2.78999996
   19.73916626  152.43800354    3.09999990    2.76999998
   19.74083328  145.71200562    3.14000010    2.78999996
   19.74416733  136.67100525    3.01999998    2.78999996
   19.74749947  149.18899536    2.93000007    2.76999998
   19.75055504  146.09500122    2.91000009    2.78999996
   19.75388908  145.31599426    3.03999996    2.78999996
   19.75694466  123.82199860    4.51000023    2.78999996
   19.76166725  123.82199860    4.90999985    2.76999998
   19.76583290  136.27900696    4.90999985    2.76999998
   19.76916695  122.65200043    4.90999985    2.76999998
   19.77249908  136.55099487    4.90999985    2.78999996
   19.77555466  114.44499969    4.90999985    2.71000004
   19.77888870  159.32600403    4.90999985    2.15000010
   19.78194427  110.70700073    4.90999985    2.32999992
   19.78527641  166.13600159    4.90999985    2.80999994
   19.78861046   -1.00000000    4.90999985    1.28999996
   19.78916550  180.71200562    4.90999985    1.28999996
   19.79194450  148.76800537    4.90999985    2.34999990
   19.79527664   -1.00000000    4.90999985    2.86999989
   19.79861069  104.63300323    4.90999985    0.94000000
   19.80166626  150.28399658    4.90999985    2.89000010
   19.80499840  143.90299988    4.90999985    2.78999996
   19.80833244  150.81599426    4.90999985    2.86999989
   19.81305504  150.81599426    4.90999985    2.82999992
   19.81722260  139.51600647    3.97000003    2.78999996
   19.82027817  135.12899780    3.99000001    2.75000000
   19.82361221  126.12899780    4.05999994    2.75000000
   19.82666779  136.86399841    4.00000000    2.76999998
   19.83000183  133.15100098    4.01999998    2.75000000
   19.83333397  133.26300049    3.91000009    2.76999998
   19.83666801  133.24200439    3.68000007    2.76999998
   19.83916664  128.50399780    3.72000003    2.76999998
   19.84000015  136.97099304    3.68000007    2.76999998
   19.84333420  149.73599243    3.68000007    2.78999996
   19.84666824  136.16400146    3.64000010    2.78999996
   19.84972191  145.97599792    3.84999990    2.76999998
   19.85305595  125.97299957    3.72000003    2.76999998
   19.85639000  139.41700745    3.51999998    2.76999998
   19.85944557  146.46099854    3.32999992    2.76999998
   19.86416626  146.46099854    3.25000000    2.76999998
   19.86833382  134.77499390    3.01999998    2.76999998
   19.87138939  145.14799500    3.14000010    2.76999998
   19.87472153  134.62199402    3.36999989    2.78999996
   19.87805557  140.52600098    3.73000002    2.76999998
   19.88111115  146.50700378    3.89000010    2.76999998
   19.88444519  137.47399902    3.99000001    2.76999998
   19.88777733  141.15499878    4.90999985    2.78999996
   19.88916588  133.69299316    4.90999985    2.78999996
   19.89111137  143.54200745    4.90999985    2.71000004
   19.89444351  149.32400513    4.90999985    2.82999992
   19.89777756  155.99400330    4.90999985    2.80999994
   19.90083313  158.52600098    4.90999985    2.75000000
   19.90416718   -1.00000000    4.90999985    2.50000000
   19.90749931  152.85600281    4.90999985    1.60000002
   19.91055489  128.37199402    4.90999985    2.86999989
   19.91527748  128.37199402    4.90999985    2.76999998
   19.91944313  148.07000732    3.97000003    2.80999994
   19.92277718  157.50599670    3.14000010    2.80999994
   19.92583275  165.07699585    3.99000001    2.76999998
   19.92916679  174.85499573    4.42999983    2.78999996
   19.93249893  170.44200134    4.01999998    2.78999996
   19.93555450  168.70500183    4.90999985    2.78999996
   19.93888855  169.08700562    4.82999992    2.64000010
   19.93944359  171.79699707    4.90999985    2.42000008
   19.94277763  158.05099487    4.90999985    2.78999996
   19.94583321  149.61399841    4.90999985    2.80999994
   19.94916534  157.83000183    4.90999985    2.67000008
   19.95250130  174.62800598    4.90999985    2.78999996
   19.95555687  155.25599670    4.90999985    2.86999989
   19.95888901  116.67199707    4.90999985    1.75000000
   19.96194458  181.84500122    4.90999985    1.14999998
   19.96638870  181.84500122    4.90999985    2.78999996
   19.97055626  153.40499878    4.67999983    2.76999998
   19.97389030  171.88099670    4.53999996    2.75000000
   19.97722244  181.16799927    4.42999983    2.75000000
   19.98027802  184.83000183    4.42999983    2.75000000
   19.98361206  179.88000488    4.34999990    2.75000000
   19.98666763  180.04100037    4.17999983    2.55999994
   19.98944473  195.13800049    4.76000023    2.75000000
   19.99055672  176.33999634    4.90999985    2.76999998
   19.99361229  154.65299988    4.09999990    2.75000000
   19.99694443  172.64999390    3.89000010    2.75000000
   20.00027847  150.78100586    3.78999996    2.75000000
   20.00333405  178.34599304    3.70000005    2.75000000
   20.00666618  174.79100037    3.57999992    2.76999998
   20.01000023  171.22599792    3.48000002    2.76999998
   20.01305580  177.28599548    3.51999998    2.76999998
   20.01777840  177.28599548    3.55999994    2.75000000
   20.02194405  178.72599792    3.46000004    2.75000000
   20.02499962  173.87600708    3.66000009    2.75000000
   20.02833366  186.13699341    3.53999996    2.75000000
   20.03138924  165.39300537    3.43000007    2.76999998
   20.03472137  179.52000427    3.21000004    2.75000000
   20.03805542  156.82699585    3.03999996    2.76999998
   20.03944397  171.83399963    2.91000009    2.76999998
   20.04166603  167.02299500    2.78999996    2.76999998
   20.04472160  181.59199524    2.71000004    2.76999998
   20.04805565  177.69700623    2.69000006    2.76999998
   20.05138779  169.54400635    2.76999998    2.78999996
   20.05444336  153.77799988    2.78999996    2.75000000
   20.05777740  151.76699829    2.78999996    2.76999998
   20.06110954  173.83000183    2.66000009    2.78999996
   20.06416512  148.00500488    2.61999989    2.76999998
   20.06888962  148.00500488    2.80999994    2.75000000
   20.07305717  139.39399719    2.73000002    2.76999998
   20.07611275  168.49899292    2.75000000    2.76999998
   20.07944489  151.89599609    4.90999985    2.80999994
   20.08277893  162.41900635    4.90999985    2.76999998
   20.08583450  150.46000671    4.90999985    2.78999996
   20.08916664  138.11599731    4.90999985    2.75000000
   20.08972359  136.77299500    4.90999985    2.75000000
   20.09305573  153.83000183    4.17999983    2.76999998
   20.09611130  126.26499939    4.17999983    2.76999998
   20.09944534  143.75300598    3.76999998    2.75000000
   20.10250092  144.77400208    4.15999985    2.76999998
   20.10583305   96.21399689    4.26999998    2.73000002
   20.10916710  149.44599915    4.90999985    2.73000002
   20.11222267  141.34300232    4.90999985    2.76999998
   20.11555672  175.31399536    4.90999985    2.78999996
   20.12000084  175.31399536    4.90999985    2.80999994
   20.12416649  144.27799988    4.90999985    2.78999996
   20.12750053  153.81900024    4.90999985    2.76999998
   20.13055611  145.29699707    4.34999990    2.75000000
   20.13388824  144.49800110    4.11999989    2.75000000
   20.13722229  152.02600098    4.13999987    2.73000002
   20.13972282  150.56700134    4.19999981    2.75000000
   20.14083290  171.03599548    4.19999981    2.75000000
   20.14388847  144.10400391    4.13999987    2.73000002
   20.14722252  127.30000305    4.11999989    2.75000000
   20.15027809  135.53500366    4.09999990    2.75000000
   20.15361023  132.32899475    3.89000010    2.75000000
   20.15694427  137.16900635    4.00000000    2.76999998
   20.15999985  150.53500366    4.90999985    2.78999996
   20.16333389  155.38999939    4.90999985    2.80999994
   20.16666603  182.00900269    4.90999985    2.80999994
   20.17111015  182.00900269    4.90999985    2.57999992
   20.17527771  143.35299683    4.90999985    2.78999996
   20.17860985  141.26400757    4.90999985    2.61999989
   20.18166542  100.07499695    4.90999985    2.69000006
   20.18499947   92.62419891    4.90999985    2.48000002
   20.18833160  134.16000366    4.90999985    2.64000010
   20.18972206  120.12000275    4.90999985    2.57999992
   20.19194412   -1.00000000    4.90999985    2.86999989
   20.19499969   -1.00000000    4.90999985    0.31999999
   20.19833183   -1.00000000    4.90999985    0.20999999
   20.20166779  180.10600281    4.90999985    0.88000000
   20.20472336  106.50900269    4.90999985    2.00000000
   20.20805550   83.78980255    4.90999985    1.26999998
   20.21111107  157.10800171    4.90999985    1.33000004
   20.21444511  175.45100403    4.90999985    2.55999994
   20.21777916  153.88099670    4.90999985    2.80999994
   20.22249985  153.88099670    3.25000000    2.75000000
   20.22638893  148.05200195    3.18000007    2.75000000
   20.22972298  166.45899963    3.11999989    2.75000000
   20.23305511  142.64700317    3.07999992    2.75000000
   20.23611069  151.74699402    4.30999994    2.76999998
   20.23944473  141.11700439    4.90999985    2.78999996
   20.23999977  156.02999878    4.90999985    2.82999992
   20.24333382  115.68000031    4.90999985    2.25000000
   20.24638939  135.13000488    4.90999985    0.52999997
   20.24972153  152.53100586    4.90999985    1.21000004
   20.25305557  140.16400146    4.90999985    2.71000004
   20.25611115  120.20500183    4.90999985    2.82999992
   20.25944519  127.22100067    4.90999985    2.75000000
   20.26277733  137.27900696    4.90999985    2.75000000
   20.26583290  134.77400208    4.90999985    2.80999994
   20.26916695  134.52999878    4.90999985    2.80999994
   20.27361107  134.52999878    4.90999985    2.78999996
   20.27777672  141.06500244    4.90999985    2.76999998
   20.28083229  126.95700073    4.90999985    2.76999998
   20.28416634  135.78100586    4.90999985    2.75000000
   20.28750038  115.75700378    4.90999985    2.73000002
   20.28999901  114.45099640    4.90999985    2.73000002
   20.29111099  120.65799713    4.90999985    2.73000002
   20.29416656  115.09799957    4.90999985    2.71000004
   20.29749870  157.89199829    4.90999985    1.85000002
   20.30083275  143.49099731    4.90999985    2.75000000
   20.30388832   36.36610031    4.90999985    2.69000006
   20.30722237  132.10899353    4.90999985    1.58000004
   20.31055450  134.16200256    4.90999985    1.85000002
   20.31361008  121.66699982    4.90999985    2.75000000
   20.31694603  141.92900085    4.90999985    2.75000000
   20.32000160   87.06800079    4.90999985    2.75000000
   20.32472229   87.06800079    4.90999985    2.67000008
   20.32888985  121.91699982    4.90999985    2.69000006
   20.33222389  124.31099701    4.90999985    2.66000009
   20.33527756  141.81500244    4.90999985    2.69000006
   20.33861160   -1.00000000    4.90999985    2.75000000
   20.34000015  105.41899872    4.90999985    2.01999998
   20.34222221  111.70500183    4.90999985    1.30999994
   20.34555626  173.05099487    4.90999985    2.51999998
   20.34861183  144.04299927    4.90999985    2.82999992
   20.35194397  137.35099792    4.90999985    2.76999998
   20.35499954  125.28399658    4.90999985    2.76999998
   20.35833359  149.09800720    4.90999985    2.71000004
   20.36166763  148.48599243    4.90999985    2.69000006
   20.36472321  136.09899902    4.90999985    2.73000002
   20.36805534  122.18900299    4.71999979    2.69000006
   20.37138939  140.98399353    4.84999990    2.71000004
   20.37611198  140.98399353    4.53999996    2.71000004
   20.38055611  136.75100708    4.90999985    2.71000004
   20.38361168  136.41700745    4.90999985    2.73000002
   20.38694382  154.69200134    4.90999985    2.48000002
   20.39027786  139.18699646    4.90999985    2.71000004
   20.39055634  121.88800049    4.90999985    2.71000004
   20.39388847  113.22100067    4.90999985    2.75000000
   20.39722252  125.41100311    4.90999985    2.75000000
   20.40027809  136.86099243    4.90999985    0.86000001
   20.40361023  156.17599487    4.90999985    2.71000004
   20.40666580  134.13900757    4.90999985    2.66000009
   20.40999985  143.24899292    4.90999985    2.73000002
   20.41333389  142.78799438    4.73999977    2.73000002
   20.41638756  140.30000305    3.97000003    2.71000004
   20.41972160  137.69999695    3.84999990    2.71000004
   20.42305565  143.92999268    3.97000003    2.71000004
   20.42722130  143.92999268    4.09999990    2.69000006
   20.43138885  134.87100220    4.00000000    2.71000004
   20.43444443  120.68900299    4.07999992    2.71000004
   20.43777657  138.04100037    4.90999985    2.73000002
   20.44027710  127.12100220    4.90999985    2.75000000
   20.44138718  132.72700500    4.90999985    2.73000002
   20.44472122  132.38200378    4.90999985    2.73000002
   20.44805527  127.22699738    4.90999985    2.73000002
   20.45111275  126.00800323    4.90999985    2.71000004
   20.45444489  127.81700134    4.90999985    2.71000004
   20.45750046  127.65100098    4.90999985    2.71000004
   20.46083450  117.66500092    4.90999985    2.75000000
   20.46416664  100.45400238    4.90999985    2.73000002
   20.46722221   -1.00000000    4.90999985    0.58999997
   20.47055626  178.20599365    4.90999985    0.44000000
   20.47389030  154.96400452    4.90999985    2.50000000
   20.47833443  154.96400452    4.90999985    2.80999994
   20.48250008   82.46710205    4.90999985    2.80999994
   20.48583412   -1.00000000    4.90999985    1.26999998
   20.50499916  140.44299316    4.90999985    2.67000008
   20.50583267  133.97999573    4.90999985    2.71000004
   20.50888824   92.40930176    4.90999985    2.73000002
   20.51222229  153.71099854    4.90999985    1.73000002
   20.51527786  133.25900269    4.90999985    2.66000009
   20.51861000  134.07600403    4.90999985    2.73000002
   20.52194405  127.25499725    3.78999996    2.71000004
   20.52499962  126.64199829    3.72000003    2.69000006
   20.52972221  126.64199829    3.59999990    2.69000006
   20.53361130  149.42300415    3.50000000    2.69000006
   20.53694344  136.86199951    3.50000000    2.69000006
   20.54027748  134.89799500    3.82999992    2.69000006
   20.54333305  130.37199402    4.40999985    2.71000004
   20.54666710  138.45599365    4.65999985    2.71000004
   20.54999924  133.88299561    4.90999985    2.71000004
   20.55305481  110.95500183    4.11999989    2.69000006
   20.55499840  119.42700195    4.21999979    2.69000006
   20.55666542  118.82399750    4.73999977    2.69000006
   20.55999947  118.00900269    4.21999979    2.69000006
   20.56333351  123.27700043    3.64000010    2.71000004
   20.56638718  112.97699738    3.61999989    2.69000006
   20.56972313  138.80900574    4.30999994    2.71000004
   20.57277870  120.50199890    4.15999985    2.71000004
   20.57611275  119.80699921    4.90999985    2.71000004
   20.58083344  119.80699921    4.90999985    2.71000004
   20.58500099  120.07900238    4.90999985    2.69000006
   20.58805656  132.22099304    4.07999992    2.69000006
   20.59138870  118.30100250    4.07999992    2.67000008
   20.59472275  117.86499786    4.23999977    2.69000006
   20.59777832  132.52499390    4.26999998    2.67000008
   20.60111237  119.11699677    4.46999979    2.67000008
   20.60416794  125.90100098    4.90999985    2.67000008
   20.60499954  125.10399628    4.90999985    2.69000006
   20.60777855  124.41899872    4.90999985    2.71000004
   20.61111069  132.22599792    4.90999985    2.73000002
   20.61444473  139.90100098    4.90999985    2.55999994
   20.61750031  133.18299866    4.90999985    2.76999998
   20.62083435  124.23300171    4.90999985    2.15000010
   20.62416649  135.48699951    4.90999985    2.76999998
   20.62722206  125.26899719    4.90999985    2.75000000
   20.63194466  125.26899719    4.90999985    2.75000000
   20.63611031  125.19499969    4.90999985    2.73000002
   20.63944435   -1.00000000    4.90999985    2.53999996
   20.64249992   90.27300262    4.90999985    0.41999999
   20.64583397  112.80400085    4.90999985    2.71000004
   20.64888954   85.12449646    4.90999985    2.80999994
   20.65222168   -1.00000000    4.90999985    1.73000002
   20.65583229   -1.00000000    4.90999985    0.17000000
   20.65916634   -1.00000000    4.90999985    0.20999999
   20.66222191   -1.00000000    4.90999985    0.38000000
   20.66555595   -1.00000000    4.90999985    0.86000001
   20.66888809   -1.00000000    4.90999985    0.75000000
   20.67194366   -1.00000000    4.90999985    2.76999998
   20.67527771   -1.00000000    4.90999985    2.75000000
   20.67833328   -1.00000000    4.90999985    1.73000002
   20.68722153   -1.00000000    4.90999985    0.13000000
   20.69027710   -1.00000000    4.90999985    2.07999992
   20.69361115   -1.00000000    4.90999985    2.66000009
   20.69694328   -1.00000000    4.90999985    2.67000008
   20.70000076   -1.00000000    4.90999985    2.67000008
   20.70333481   -1.00000000    4.90999985    2.64000010
