    HOUR (UT)   FLARE FACTOR    SKY TESTER    SUN TESTER
   11.17666721   -1.00000000   -1.00000000   -1.00000000
   11.21277714  105.68399811    3.20000005    2.50000000
   11.21722221  122.11499786    3.18000007    2.50000000
   11.22138882  124.09700012    3.18000007    2.50000000
   11.22472191  133.14900208    3.16000009    2.50000000
   11.22777748  121.05300140    3.14000010    2.50000000
   11.23111057  101.52999878    3.14000010    2.50000000
   11.23416710  121.63300323    3.14000010    2.50000000
   11.23750019  122.85800171    3.11999989    2.50000000
   11.24083328  118.98600006    3.11999989    2.50000000
   11.24388885  136.97999573    3.11999989    2.50000000
   11.24611092  121.81500244    3.11999989    2.50000000
   11.24750042  112.88300323    3.14000010    2.51999998
   11.25055599  105.83100128    3.14000010    2.50000000
   11.25388908  135.57800293    3.14000010    2.50000000
   11.25694466  115.73000336    3.11999989    2.50000000
   11.26027775  118.16699982    3.11999989    2.50000000
   11.26333332  129.07699585    3.11999989    2.51999998
   11.26666641  141.49299622    3.11999989    2.50000000
   11.26972198  127.28800201    3.09999990    2.51999998
   11.27305508  114.56700134    3.09999990    2.51999998
   11.27611065  121.78199768    3.09999990    2.51999998
   11.27944374  131.14399719    3.07999992    2.51999998
   11.28249931  114.64600372    3.07999992    2.51999998
   11.28583336  121.38800049    3.07999992    2.51999998
   11.28888893  136.58900452    3.05999994    2.51999998
   11.29222298  134.14799500    3.05999994    2.51999998
   11.29527855  126.48000336    3.03999996    2.51999998
   11.29611111  145.96200562    3.05999994    2.51999998
   11.29888916  124.34300232    3.03999996    2.51999998
   11.30222225  115.51899719    3.03999996    2.53999996
   11.30527782  141.19799805    3.01999998    2.53999996
   11.30861092  135.52200317    3.01999998    2.53999996
   11.31166649  135.19900513    3.01999998    2.53999996
   11.31500053  126.00900269    3.00000000    2.51999998
   11.31805515  133.75300598    3.00000000    2.53999996
   11.32138920  135.48699951    3.00000000    2.51999998
   11.32444477  118.90799713    2.98000002    2.53999996
   11.32777786  144.20399475    3.00000000    2.53999996
   11.33083344  141.49600220    2.98000002    2.53999996
   11.33416653  142.24600220    2.98000002    2.53999996
   11.33722210  135.54100037    2.98000002    2.53999996
   11.34055519  123.94799805    2.96000004    2.53999996
   11.34361076  125.30500031    2.96000004    2.53999996
   11.34611034  155.58299255    2.96000004    2.53999996
   11.34722233  148.08000183    2.96000004    2.53999996
   11.35027790  130.97099304    2.94000006    2.53999996
   11.35361195  123.73600006    2.94000006    2.53999996
   11.35666752  141.21499634    2.93000007    2.55999994
   11.36000061  136.98300171    2.91000009    2.53999996
   11.36305618  133.10299683    2.89000010    2.53999996
   11.36638927  141.29899597    2.89000010    2.55999994
   11.36944485  138.40400696    2.86999989    2.53999996
   11.37277794  149.63999939    2.86999989    2.55999994
   11.37583351  139.44099426    2.84999990    2.55999994
   11.37916660  132.50999451    2.84999990    2.53999996
   11.38222218  135.16700745    2.84999990    2.53999996
   11.38555527  120.31199646    2.84999990    2.53999996
   11.38861084  128.04699707    2.82999992    2.55999994
   11.39194393  146.42700195    2.82999992    2.55999994
   11.39499950  133.21000671    2.80999994    2.55999994
   11.39611053  152.04299927    2.80999994    2.55999994
   11.39861107  133.48599243    2.78999996    2.55999994
   11.40194416  138.73399353    2.76999998    2.55999994
   11.40499973  135.47900391    2.78999996    2.55999994
   11.40833282  115.12599945    2.78999996    2.57999992
   11.41138840  124.23600006    2.78999996    2.55999994
   11.41472149  126.27500153    2.78999996    2.55999994
   11.41777802  154.08500671    2.78999996    2.57999992
   11.42111111  126.20099640    2.76999998    2.57999992
   11.42416668  137.80099487    2.76999998    2.57999992
   11.42750072  125.19300079    2.76999998    2.57999992
   11.43055630  126.81600189    2.76999998    2.57999992
   11.43388939  130.79299927    2.75000000    2.57999992
   11.43694496  131.89700317    2.75000000    2.57999992
   11.44027805  132.78100586    2.75000000    2.57999992
   11.44333363  134.16099548    2.73000002    2.57999992
   11.44611073  141.05200195    2.73000002    2.57999992
   11.44694424  126.19999695    2.73000002    2.57999992
   11.45027733  142.34599304    2.71000004    2.59999990
   11.45333290  148.00199890    2.71000004    2.57999992
   11.45666695  136.80299377    2.71000004    2.57999992
   11.45972157  131.97999573    2.71000004    2.57999992
   11.46305561  138.62199402    2.71000004    2.57999992
   11.46611118  150.98899841    2.71000004    2.57999992
   11.46944427  129.26499939    2.71000004    2.57999992
   11.47249985  134.60099792    2.71000004    2.59999990
   11.47583294  129.52900696    2.71000004    2.57999992
   11.47888851  148.94299316    2.69000006    2.59999990
   11.48222160  151.69700623    2.67000008    2.59999990
   11.48527813  146.70799255    2.66000009    2.59999990
   11.48861122  151.33200073    2.64000010    2.59999990
   11.49166679  148.30799866    2.61999989    2.59999990
   11.49499989  140.28799438    2.61999989    2.59999990
   11.49611092  126.34799957    2.61999989    2.59999990
   11.49833393  138.67300415    2.61999989    2.59999990
   11.50166702  129.50300598    2.59999990    2.59999990
   11.50472260  129.91799927    2.59999990    2.59999990
   11.50805569  142.59599304    2.59999990    2.59999990
   11.51111126  132.64399719    2.59999990    2.59999990
   11.51444435  141.62399292    2.57999992    2.61999989
   11.51749992  124.19300079    2.57999992    2.61999989
   11.52083302  131.01499939    2.55999994    2.59999990
   11.52388859  130.07699585    2.53999996    2.61999989
   11.52722168  148.87699890    2.53999996    2.61999989
   11.53027725  143.09300232    2.51999998    2.61999989
   11.53333378  151.89500427    2.51999998    2.61999989
   11.53666687  133.02999878    2.51999998    2.61999989
   11.53972244  127.12200165    2.50000000    2.61999989
   11.54305553  149.58200073    2.50000000    2.61999989
   11.54611111  150.61199951    2.48000002    2.61999989
   11.54638958  134.53900146    2.48000002    2.61999989
   11.54972267  122.75299835    2.48000002    2.64000010
   11.55277824  131.50900269    2.46000004    2.61999989
   11.55583382  125.81700134    2.46000004    2.61999989
   11.55916691  135.19400024    2.44000006    2.61999989
   11.56222248  137.40499878    2.44000006    2.61999989
   11.56555557  124.68099976    2.44000006    2.61999989
   11.56861115  132.02999878    2.42000008    2.61999989
   11.57166672  132.86599731    2.42000008    2.64000010
   11.57499981  138.58399963    2.40000010    2.61999989
   11.57805538  138.99299622    2.40000010    2.64000010
   11.58138847  137.22000122    2.40000010    2.64000010
   11.58444405  136.58799744    2.36999989    2.64000010
   11.58777714  128.26100159    2.36999989    2.64000010
   11.59083271  129.20300293    2.36999989    2.64000010
   11.59388828  133.05099487    2.34999990    2.64000010
   11.59611034  146.95899963    2.34999990    2.64000010
   11.59749985  132.90100098    2.32999992    2.64000010
   11.60083389  137.11399841    2.30999994    2.64000010
   11.60388947  138.36300659    2.30999994    2.66000009
   11.60694504  150.48899841    2.30999994    2.66000009
   11.61027813  131.17100525    2.28999996    2.64000010
   11.61333370  142.42300415    2.28999996    2.64000010
   11.61666679  131.17900085    2.28999996    2.66000009
   11.61972237  138.19500732    2.28999996    2.66000009
   11.62305546  145.25300598    2.28999996    2.66000009
   11.62611103  136.18400574    2.28999996    2.66000009
   11.62944412  150.87100220    2.28999996    2.64000010
   11.63249969  147.97399902    2.28999996    2.66000009
   11.63583279  134.13600159    2.28999996    2.66000009
   11.63888836  135.28999329    2.26999998    2.66000009
   11.64222240  150.72200012    2.26999998    2.66000009
   11.64527798  138.52999878    2.28999996    2.66000009
   11.64611053  151.21299744    2.28999996    2.66000009
   11.64888859  138.37699890    2.26999998    2.66000009
   11.65222168  148.27499390    2.25000000    2.66000009
   11.65527725  140.09800720    2.23000002    2.67000008
   11.65861034  136.56900024    2.23000002    2.67000008
   11.66166592  133.57099915    2.19000006    2.67000008
   11.66499996  147.47700500    2.17000008    2.66000009
   11.66805553  132.32200623    2.13000011    2.67000008
   11.67138958  132.15800476    2.11999989    2.67000008
   11.67444515  151.14599609    2.09999990    2.67000008
   11.67777824  138.64599609    2.07999992    2.67000008
   11.68083382  148.61300659    2.05999994    2.67000008
   11.68416691  146.30999756    2.05999994    2.67000008
   11.68722248  139.22900391    2.03999996    2.69000006
   11.69055557  128.09300232    2.03999996    2.67000008
   11.69361115  147.08500671    2.03999996    2.69000006
   11.69611073  139.13299561    2.03999996    2.67000008
   11.69722271  132.64399719    2.03999996    2.69000006
   11.70055580  137.13299561    2.03999996    2.67000008
   11.70361137  130.51100159    2.05999994    2.69000006
   11.70694447  136.69200134    2.05999994    2.69000006
   11.71000004  134.03700256    2.07999992    2.69000006
   11.71333313  144.10800171    2.09999990    2.67000008
   11.71638870  141.92700195    2.09999990    2.67000008
   11.71972179  141.69200134    2.11999989    2.67000008
   11.72277737  145.87199402    2.13000011    2.67000008
   11.72611046  152.04299927    2.13000011    2.67000008
   11.72916603  139.14199829    2.13000011    2.67000008
   11.73249912  146.70399475    2.13000011    2.69000006
   11.73555565  126.43599701    2.11999989    2.69000006
   11.73888874  152.95599365    2.11999989    2.67000008
   11.74194431  134.55099487    2.11999989    2.69000006
   11.74527836  128.35099792    2.11999989    2.67000008
   11.74611092  143.98199463    2.11999989    2.69000006
   11.74861145  132.44299316    2.11999989    2.69000006
   11.75194454  131.18899536    2.11999989    2.69000006
   11.75500011  149.68400574    2.11999989    2.69000006
   11.75833321  141.31399536    2.09999990    2.69000006
   11.76138878  131.45599365    2.09999990    2.69000006
   11.76472187  121.69699860    2.09999990    2.67000008
   11.76777744  126.55300140    2.09999990    2.69000006
   11.77111053  136.88900757    2.07999992    2.69000006
   11.77416611  125.59700012    2.05999994    2.69000006
   11.77750015  140.16299438    2.05999994    2.69000006
   11.78055573  135.49400330    2.07999992    2.69000006
   11.78388977  136.09300232    2.09999990    2.69000006
   11.78694534  126.55400085    2.09999990    2.69000006
   11.79027843  139.80299377    2.09999990    2.69000006
   11.79333401  147.31399536    2.09999990    2.69000006
   11.79611111  139.98899841    2.09999990    2.69000006
   11.79694462  153.28700256    2.09999990    2.69000006
   11.80027771  145.61300659    2.09999990    2.69000006
   11.80333328  131.26600647    2.09999990    2.69000006
   11.80666733  137.31199646    2.09999990    2.69000006
   11.80972195  144.29699707    2.09999990    2.69000006
   11.81305599  155.30400085    2.09999990    2.69000006
   11.81611156  134.77099609    2.07999992    2.69000006
   11.81944466  134.91700745    2.07999992    2.69000006
   11.82250023  130.77400208    2.05999994    2.69000006
   11.82583332  139.97099304    2.03999996    2.71000004
   11.82888889  150.69000244    2.01999998    2.71000004
   11.83222198  146.46499634    2.00000000    2.71000004
   11.83527756  137.90400696    2.00000000    2.71000004
   11.83861065  138.51800537    2.00000000    2.71000004
   11.84166622  142.67700195    2.00000000    2.71000004
   11.84499931  139.38499451    1.98000002    2.71000004
   11.84611034  144.24099731    1.98000002    2.71000004
   11.84833336  145.25599670    1.98000002    2.71000004
   11.85166740  161.08500671    2.00000000    2.71000004
   11.85472298  145.60699463    2.01999998    2.71000004
   11.85805607  139.73100281    2.00000000    2.71000004
   11.86111164  137.87500000    1.98000002    2.71000004
   11.86444473  147.68400574    1.98000002    2.71000004
   11.86750031  156.29400635    1.96000004    2.71000004
   11.87083340  151.97099304    1.94000006    2.73000002
   11.87388897  166.23899841    1.94000006    2.73000002
   11.87722206  161.71299744    1.94000006    2.73000002
   11.88027763  148.36999512    1.94000006    2.71000004
   11.88361073  153.30900574    1.91999996    2.73000002
   11.88666630  144.25000000    1.91999996    2.73000002
   11.89000034  142.16999817    1.89999998    2.73000002
   11.89305496  143.82699585    1.89999998    2.73000002
   11.89611053  143.71200562    1.89999998    2.73000002
   11.89666653  152.34199524    1.89999998    2.73000002
   11.89999962  144.66499329    1.88000000    2.73000002
   11.90305519  145.30999756    1.88000000    2.73000002
   11.90638828  138.27999878    1.88000000    2.73000002
   11.90944386  149.62899780    1.85000002    2.75000000
   11.91277695  138.66900635    1.83000004    2.75000000
   11.91583252  146.05900574    1.78999996    2.75000000
   11.91916656  149.89900208    1.76999998    2.73000002
   11.92222214  150.71899414    1.75000000    2.75000000
   11.92555618  148.55299377    1.73000002    2.75000000
   11.92861176  152.77999878    1.73000002    2.75000000
   11.93194485  141.11300659    1.71000004    2.75000000
   11.93500042  131.53500366    1.71000004    2.75000000
   11.93833351  133.21499634    1.69000006    2.75000000
   11.94138908  139.29699707    1.71000004    2.75000000
   11.94472218  136.81399536    1.71000004    2.75000000
   11.94611073  143.59100342    1.71000004    2.75000000
   11.94805527  150.03399658    1.71000004    2.75000000
   11.95138836  139.58799744    1.73000002    2.75000000
   11.95444393  153.89500427    1.73000002    2.75000000
   11.95777798  144.67199707    1.71000004    2.75000000
   11.96083355  153.82800293    1.73000002    2.75000000
   11.96416664  154.72500610    1.64999998    2.75000000
   11.96722221  141.64500427    1.63000000    2.75000000
   11.97055531  140.37300110    1.63000000    2.75000000
   11.97361088  144.10000610    1.63000000    2.76999998
   11.97694397  164.48199463    1.64999998    2.75000000
   11.97999954  143.61500549    1.63000000    2.75000000
   11.98333359  158.02799988    1.64999998    2.76999998
   11.98638916  137.11799622    1.63000000    2.75000000
   11.98972225  145.57000732    1.63000000    2.75000000
   11.99277782  146.82800293    1.63000000    2.75000000
   11.99611092  135.22399902    1.63000000    2.78999996
   11.99638939  157.44099426    1.63000000    2.78999996
   11.99972248  146.50700378    1.63000000    2.75000000
   12.00277805  171.43400574    1.63000000    2.75000000
   12.00611115  139.83500671    1.63000000    2.75000000
   12.00916672  154.38999939    1.64999998    2.75000000
   12.01249981  140.91499329    1.63000000    2.75000000
   12.01555538  148.96600342    1.63000000    2.75000000
   12.01888847  145.19400024    1.58000004    2.76999998
   12.02194405  151.83599854    1.55999994    2.76999998
   12.02555561  160.25100708    1.51999998    2.76999998
   12.02944374  148.56199646    1.51999998    2.78999996
   12.03333378  145.86900330    1.50000000    2.76999998
   12.03666687  147.03999329    1.48000002    2.76999998
   12.04111195  164.11999512    1.46000004    2.78999996
   12.04527855  161.96299744    1.46000004    2.76999998
   12.04750061  161.95500183    1.46000004    2.76999998
   12.05083370  152.07200623    1.44000006    2.78999996
   12.05416679  138.59500122    1.44000006    2.78999996
   12.05777836  163.08799744    1.39999998    2.78999996
   12.06111145  155.03900146    1.38000000    2.78999996
   12.06500053  152.04499817    1.38000000    2.78999996
   12.06944466  150.47999573    1.36000001    2.78999996
   12.07333374  146.97799683    1.36000001    2.78999996
   12.07666683  146.23399353    1.34000003    2.78999996
   12.08083344  153.90100098    1.36000001    2.78999996
   12.08444405  130.17399597    1.33000004    2.78999996
   12.08749962  144.37199402    1.30999994    2.78999996
   12.09083271  141.09100342    1.30999994    2.78999996
   12.09416676  147.55000305    1.28999996    2.80999994
   12.09611034  148.70700073    1.30999994    2.80999994
   12.09777737  140.10600281    1.30999994    2.80999994
   12.10083389  154.77400208    1.28999996    2.78999996
   12.10416698  144.74299622    1.26999998    2.80999994
   12.10722256  142.27400208    1.19000006    2.80999994
   12.11055565  156.16600037    1.16999996    2.80999994
   12.11361122  146.73699951    1.14999998    2.82999992
   12.11694431  153.05299377    1.13000000    2.80999994
   12.11999989  143.39399719    1.11000001    2.80999994
   12.12333393  147.02699280    1.13000000    2.80999994
   12.12638855  145.84899902    1.11000001    2.80999994
   12.12972260  138.00100708    1.11000001    2.82999992
   12.13277817  150.20599365    1.11000001    2.82999992
   12.13611126  125.73600006    1.13000000    2.80999994
   12.13916683  164.42300415    1.11000001    2.80999994
   12.14249992  162.13600159    1.11000001    2.80999994
   12.14555550  139.77799988    1.13000000    2.82999992
   12.14611053  161.38400269    1.13000000    2.82999992
   12.14916611  152.30599976    1.13000000    2.82999992
   12.15222168  148.26400757    1.13000000    2.82999992
   12.15555477  160.04400635    1.13000000    2.82999992
   12.15861034  144.08000183    1.13000000    2.80999994
   12.16194439  137.22599792    1.13000000    2.80999994
   12.16499996  142.78999329    1.13000000    2.82999992
   12.16833401  151.21200562    1.13000000    2.82999992
   12.17138958  140.98800659    1.13000000    2.82999992
   12.17472267  133.84599304    1.13000000    2.82999992
   12.17777824  138.51199341    1.13000000    2.82999992
   12.18111134  149.58500671    1.13000000    2.82999992
   12.18416691  161.17999268    1.14999998    2.82999992
   12.18750000  138.04400635    1.14999998    2.82999992
   12.19055557  165.00000000    1.13000000    2.82999992
   12.19388866  148.15899658    1.13000000    2.82999992
   12.19611073  137.35099792    1.11000001    2.82999992
   12.19750023  151.73699951    1.11000001    2.82999992
   12.20055580  140.24800110    1.11000001    2.82999992
   12.20388889  154.95899963    1.09000003    2.82999992
   12.20694447  138.41400146    1.09000003    2.82999992
   12.21027756  151.02299500    1.07000005    2.82999992
   12.22972202  142.66799927    1.05999994    2.82999992
   12.23305511  154.13800049    1.05999994    2.82999992
   12.23611164  140.38400269    1.05999994    2.82999992
   12.23944473  151.23599243    1.05999994    2.84999990
   12.24250031  144.46400452    1.03999996    2.82999992
   12.24583340  146.24099731    1.05999994    2.84999990
   12.24638939  149.50799561    1.05999994    2.84999990
   12.24916649  142.91400146    1.03999996    2.82999992
   12.25249958  135.43099976    1.05999994    2.84999990
   12.25555515  136.67300415    1.03999996    2.84999990
   12.25888920  144.23500061    1.03999996    2.84999990
   12.26194477  137.74400330    1.05999994    2.82999992
   12.26527786  128.24899292    1.05999994    2.82999992
   12.26833344  139.44299316    1.03999996    2.82999992
   12.27166653  147.00999451    1.05999994    2.84999990
   12.27472210  138.75199890    1.03999996    2.84999990
   12.27805519  125.96600342    1.03999996    2.82999992
   12.28111076  135.59899902    1.03999996    2.82999992
   12.28444481  147.72599792    1.05999994    2.84999990
   12.28750038  133.28799438    1.05999994    2.84999990
   12.29083347  155.66200256    1.05999994    2.84999990
   12.29388905  131.03700256    1.05999994    2.84999990
   12.29638958  146.99299622    1.05999994    2.84999990
   12.29750061  136.77299500    1.05999994    2.84999990
   12.30083370  145.34199524    1.07000005    2.84999990
   12.30388927  140.78700256    1.07000005    2.84999990
   12.30722237  140.37300110    1.07000005    2.84999990
   12.31027794  137.26199341    1.07000005    2.84999990
   12.31361103  140.24899292    1.07000005    2.84999990
   12.31666660  137.06300354    1.07000005    2.84999990
   12.31999969  130.64900208    1.05999994    2.82999992
   12.32305527  142.28700256    1.05999994    2.84999990
   12.32638836  138.08500671    1.05999994    2.84999990
   12.32944393  139.34399414    1.05999994    2.86999989
   12.33277798  135.14799500    1.05999994    2.84999990
   12.33583260  139.87100220    1.05999994    2.84999990
   12.33916664  147.88900757    1.05999994    2.84999990
   12.34222221  142.74600220    1.05999994    2.84999990
   12.34555531  147.60400391    1.05999994    2.86999989
   12.34638882  124.71499634    1.05999994    2.84999990
   12.34888840  136.82699585    1.05999994    2.84999990
   12.35222244  132.94299316    1.05999994    2.84999990
   12.35527802  137.44000244    1.05999994    2.84999990
   12.35861111  149.11300659    1.05999994    2.84999990
   12.36166668  154.08599854    1.03999996    2.84999990
   12.36500072  151.54299927    1.03999996    2.86999989
   12.36805534  140.72399902    1.03999996    2.86999989
   12.37138939  133.20700073    1.03999996    2.84999990
   12.37444496  141.21600342    1.03999996    2.84999990
   12.37777805  138.69799805    1.01999998    2.86999989
   12.38111115  131.17300415    1.01999998    2.84999990
   12.38416672  131.85200500    1.01999998    2.84999990
   12.38749981  146.98899841    1.01999998    2.84999990
   12.39055538  141.47500610    1.01999998    2.84999990
   12.39388847  134.01199341    1.01999998    2.84999990
   12.39638901  145.49299622    1.01999998    2.84999990
   12.39722252  123.92600250    1.01999998    2.86999989
   12.40055561  142.99099731    1.01999998    2.86999989
   12.40361118  138.94200134    1.01999998    2.84999990
   12.40694427  143.19900513    1.03999996    2.84999990
   12.40999985  142.90699768    1.03999996    2.84999990
   12.41333294  135.49400330    1.03999996    2.86999989
   12.41638851  146.95899963    1.05999994    2.86999989
   12.41972256  138.34800720    1.05999994    2.86999989
   12.42277813  154.49699402    1.07000005    2.84999990
   12.42611122  134.17599487    1.07000005    2.84999990
   12.42916679  145.52000427    1.09000003    2.86999989
   12.43249989  124.72000122    1.07000005    2.84999990
   12.43555546  146.51600647    1.07000005    2.86999989
   12.43888855  143.89500427    1.07000005    2.86999989
   12.44194412  143.65699768    1.07000005    2.86999989
   12.44527817  142.03599548    1.05999994    2.86999989
   12.44638920  145.49499512    1.05999994    2.86999989
   12.44861126  147.48300171    1.05999994    2.86999989
   12.45194435  149.04600525    1.05999994    2.86999989
   12.45499992  138.01400757    1.03999996    2.84999990
   12.45833302  139.34800720    1.03999996    2.86999989
   12.46138859  139.37500000    1.03999996    2.86999989
   12.46472168  140.29600525    1.03999996    2.86999989
   12.46777725  134.71099854    1.03999996    2.86999989
   12.47111034  134.61999512    1.03999996    2.86999989
   12.47416592  139.00300598    1.03999996    2.86999989
   12.47749996  137.61700439    1.05999994    2.86999989
   12.48055553  138.30700684    1.05999994    2.86999989
   12.48388958  152.36599731    1.05999994    2.84999990
   12.48694515  139.18400574    1.05999994    2.86999989
   12.49027824  142.50399780    1.05999994    2.84999990
   12.49333382  142.12699890    1.05999994    2.86999989
   12.49638939  135.07699585    1.07000005    2.84999990
   12.49694443  143.67700195    1.07000005    2.84999990
   12.50027752  131.43099976    1.07000005    2.86999989
   12.50333309  139.90600586    1.07000005    2.86999989
   12.50666714  137.13600159    1.09000003    2.86999989
   12.50972176  142.40199280    1.07000005    2.86999989
   12.51305580  134.42500305    1.07000005    2.86999989
   12.51611137  148.08299255    1.07000005    2.86999989
   12.51944447  135.98199463    1.07000005    2.86999989
   12.52250004  153.85000610    1.07000005    2.86999989
   12.52583313  141.97200012    1.07000005    2.86999989
   12.52888870  142.33900452    1.05999994    2.86999989
   12.53222179  134.62300110    1.05999994    2.86999989
   12.53527832  140.54299927    1.05999994    2.86999989
   12.53861141  132.78100586    1.05999994    2.86999989
   12.54166698  133.82499695    1.05999994    2.86999989
   12.54500008  144.61199951    1.05999994    2.86999989
   12.54638958  137.13099670    1.05999994    2.86999989
   12.54861164  109.93399811    1.05999994    2.86999989
   12.55166721  133.23599243    1.05999994    2.86999989
   12.55500031  142.69500732    1.03999996    2.86999989
   12.55805588  136.66999817    1.03999996    2.86999989
   12.56138897  147.11300659    1.01999998    2.89000010
   12.56444454  143.83900452    1.01999998    2.89000010
   12.56777763  132.11999512    1.00000000    2.89000010
   12.57083321  134.84399414    0.98000002    2.89000010
   12.57416630  134.73899841    0.98000002    2.89000010
   12.57722187  136.03900146    1.00000000    2.86999989
   12.58055592  144.89500427    1.00000000    2.89000010
   12.58361053  143.96200562    0.98000002    2.89000010
   12.58694458  135.24000549    0.98000002    2.89000010
   12.59000015  137.40400696    1.00000000    2.89000010
   12.59333324  146.68899536    1.00000000    2.89000010
   12.59638882  143.71699524    1.00000000    2.89000010
   12.59666634  139.02900696    0.98000002    2.89000010
   12.60000038  145.93699646    0.98000002    2.89000010
   12.60305595  141.76199341    1.00000000    2.89000010
   12.60638905  152.74000549    0.98000002    2.91000009
   12.60944462  138.44700623    0.98000002    2.89000010
   12.61277771  144.62699890    0.98000002    2.89000010
   12.61583328  138.84100342    0.98000002    2.86999989
   12.61916637  147.42399597    0.98000002    2.89000010
   12.62222195  122.04599762    1.00000000    2.89000010
   12.62555599  131.62600708    0.98000002    2.89000010
   12.62861156  147.76800537    0.98000002    2.86999989
   12.63194466  139.08299255    1.00000000    2.89000010
   12.63500023  145.65100098    1.00000000    2.89000010
   12.63833332  154.77699280    1.01999998    2.89000010
   12.64138889  142.48699951    1.01999998    2.89000010
   12.64472198  153.56300354    1.01999998    2.86999989
   12.64638901  145.77900696    1.00000000    2.91000009
   12.64833355  145.38000488    1.00000000    2.89000010
   12.65138817  135.02799988    1.00000000    2.89000010
   12.65472221  142.56199646    1.00000000    2.89000010
   12.65777779  145.75500488    1.00000000    2.89000010
   12.66111088  147.60200500    1.00000000    2.89000010
   12.66416645  144.31399536    1.00000000    2.89000010
   12.66750050  138.36700439    1.00000000    2.89000010
   12.67055607  151.56900024    1.01999998    2.89000010
   12.67388916  144.42799377    1.01999998    2.89000010
   12.67694473  147.02799988    1.00000000    2.89000010
   12.68027782  147.41799927    1.01999998    2.89000010
   12.68333340  162.26600647    1.00000000    2.89000010
   12.68666649  138.71299744    1.01999998    2.91000009
   12.68972206  122.77999878    1.01999998    2.89000010
   12.69305515  152.91299438    1.01999998    2.86999989
   12.69611073  145.83200073    1.01999998    2.89000010
   12.69666672  137.80000305    1.00000000    2.89000010
   12.69972229  132.89700317    1.00000000    2.89000010
   12.70305538  138.97300720    1.00000000    2.89000010
   12.70611095  133.00399780    1.00000000    2.89000010
   12.70944405  115.88899994    0.98000002    2.89000010
   12.71249962  130.86799622    0.98000002    2.89000010
   12.71583271  112.53800201    0.98000002    2.89000010
   12.71888828  150.75100708    0.98000002    2.91000009
   12.72222137  127.22000122    1.00000000    2.89000010
   12.72527695  136.85099792    1.00000000    2.91000009
   12.72861099  142.86700439    0.98000002    2.89000010
   12.73166656  152.20399475    0.98000002    2.89000010
   12.73500061  137.40499878    0.98000002    2.89000010
   12.73805618  149.29299927    1.00000000    2.91000009
   12.74138927  140.79299927    1.00000000    2.91000009
   12.74444485  140.30200195    1.00000000    2.91000009
   12.74666691  148.74400330    1.00000000    2.89000010
   12.74805546  139.54699707    1.00000000    2.89000010
   12.75138855  142.50100708    0.98000002    2.91000009
   12.75444412  144.59899902    0.98000002    2.89000010
   12.75777817  144.07699585    0.98000002    2.91000009
   12.76111126  140.03100586    0.98000002    2.91000009
   12.76416683  163.90600586    0.98000002    2.89000010
   12.76749992  154.10000610    0.98000002    2.91000009
   12.77055550  150.59399414    0.95999998    2.89000010
   12.77388859  166.87399292    0.98000002    2.91000009
   12.77694416  140.67399597    1.00000000    2.91000009
   12.78027725  146.91000366    0.98000002    2.91000009
   12.78333378  156.56199646    0.95999998    2.91000009
   12.78666687  162.19500732    0.94000000    2.91000009
   12.78972244  152.07200623    0.94000000    2.91000009
   12.79305553  146.19500732    0.92000002    2.91000009
   12.79611111  147.75500488    0.92000002    2.91000009
   12.79666710  157.57299805    0.92000002    2.91000009
   12.79972267  153.50900269    0.89999998    2.91000009
   12.80277824  160.27099609    0.86000001    2.91000009
   12.80611134  145.67799377    0.86000001    2.91000009
   12.80916691  148.68400574    0.86000001    2.91000009
   12.81250000  156.63499451    0.86000001    2.91000009
   12.81555557  149.75000000    0.86000001    2.91000009
   12.81888866  139.84199524    0.88000000    2.91000009
   12.82194424  146.31300354    0.88000000    2.91000009
   12.82527733  146.74800110    0.86000001    2.93000007
   12.82833290  153.73199463    0.86000001    2.93000007
   12.83166695  144.22500610    0.88000000    2.91000009
   12.83472157  145.45300293    0.88000000    2.91000009
   12.83805561  133.15499878    0.86000001    2.93000007
   12.84111118  139.52699280    0.88000000    2.93000007
   12.84444427  136.76300049    0.86000001    2.93000007
   12.84666634  144.12800598    0.86000001    2.91000009
   12.84777737  144.22300720    0.88000000    2.93000007
   12.85111141  134.87300110    0.88000000    2.93000007
   12.85416698  155.73800659    0.88000000    2.93000007
   12.85750008  143.65499878    0.88000000    2.93000007
   12.86055565  137.70300293    0.88000000    2.93000007
   12.86388969  137.38099670    0.88000000    2.93000007
   12.86694431  138.67999268    0.88000000    2.93000007
   12.87027836  136.80499268    0.88000000    2.91000009
   12.87333393  147.35600281    0.88000000    2.93000007
   12.87666702  138.75599670    0.88000000    2.91000009
   12.87972260  139.12399292    0.88000000    2.91000009
   12.88305569  129.45100403    0.88000000    2.93000007
   12.88611126  148.16299438    0.88000000    2.91000009
   12.88944435  142.10499573    0.88000000    2.94000006
   12.89249992  129.47000122    0.88000000    2.93000007
   12.89583302  135.97599792    0.88000000    2.93000007
   12.89666653  138.25500488    0.88000000    2.93000007
   12.89944458  131.70500183    0.88000000    2.93000007
   12.90249920  141.80400085    0.89999998    2.93000007
   12.90583324  131.92500305    0.89999998    2.91000009
   12.90888882  130.46499634    0.92000002    2.91000009
   12.91222191  135.25199890    0.89999998    2.91000009
   12.91527748  143.05799866    0.89999998    2.93000007
   12.91861153  133.00199890    0.88000000    2.93000007
   12.92166710  127.11000061    0.88000000    2.94000006
   12.92500019  141.60899353    0.88000000    2.93000007
   12.92805576  128.21699524    0.88000000    2.93000007
   12.93138885  134.17199707    0.88000000    2.93000007
   12.93444443  127.04599762    0.88000000    2.93000007
   12.93777752  137.67799377    0.86000001    2.93000007
   12.94083309  118.26699829    0.86000001    2.93000007
   12.94416714  131.41000366    0.86000001    2.93000007
   12.94666672  128.99299622    0.86000001    2.93000007
   12.94777775  142.30799866    0.86000001    2.93000007
   12.95083332  143.20700073    0.86000001    2.93000007
   12.95416641  129.83999634    0.86000001    2.93000007
   12.95722198  128.34700012    0.86000001    2.93000007
   12.96055508  139.35099792    0.88000000    2.93000007
   12.96361065  137.29200745    0.88000000    2.93000007
   12.96694374  139.66099548    0.88000000    2.94000006
   12.96999931  151.55099487    0.88000000    2.93000007
   12.97333336  137.60000610    0.88000000    2.94000006
   12.97638798  139.63099670    0.88000000    2.93000007
   12.97972202  145.62800598    0.89999998    2.94000006
   12.98277760  138.97200012    0.88000000    2.93000007
   12.98611164  138.85699463    0.88000000    2.93000007
   12.98916721  155.36500549    0.86000001    2.93000007
   12.99250031  143.97900391    0.86000001    2.91000009
   12.99555588  140.29400635    0.86000001    2.93000007
   12.99666691  132.13400269    0.86000001    2.93000007
   12.99916649  142.34199524    0.86000001    2.93000007
   13.00222206  126.53800201    0.83999997    2.93000007
   13.00555515  136.71000671    0.83999997    2.94000006
   13.00861073  135.72200012    0.83999997    2.93000007
   13.01194477  127.44499969    0.83999997    2.93000007
   13.01500034  142.66999817    0.83999997    2.93000007
   13.01833344  148.53500366    0.83999997    2.93000007
   13.02138901  144.42799377    0.86000001    2.93000007
   13.02472210  144.92700195    0.88000000    2.93000007
   13.02777767  142.36500549    0.88000000    2.94000006
   13.03111076  148.47900391    0.89999998    2.93000007
   13.03416729  146.55299377    0.89999998    2.94000006
   13.03750038  153.89100647    0.89999998    2.94000006
   13.04055595  154.51499939    0.89999998    2.93000007
   13.04388905  155.82299805    0.89999998    2.94000006
   13.04666710  140.90800476    0.89999998    2.94000006
   13.04750061  150.81199646    0.89999998    2.94000006
   13.05055618  146.03900146    0.89999998    2.93000007
   13.05388927  152.18699646    0.88000000    2.94000006
   13.05694485  113.14900208    0.88000000    2.93000007
   13.06027794  152.50100708    0.88000000    2.93000007
   13.06333351  147.76100159    0.88000000    2.94000006
   13.06666660  140.02699280    0.88000000    2.94000006
   13.06972218  134.86900330    0.88000000    2.94000006
   13.07305527  136.19799805    0.88000000    2.94000006
   13.07611084  135.64399719    0.89999998    2.94000006
   13.07944393  145.67100525    0.89999998    2.94000006
   13.08249950  139.67799377    0.88000000    2.93000007
   13.08583260  121.21499634    0.88000000    2.93000007
   13.08888817  137.94700623    0.88000000    2.93000007
   13.09222221  129.56799316    0.88000000    2.93000007
   13.09527779  138.75700378    0.88000000    2.94000006
   13.09666634  142.41799927    0.88000000    2.94000006
   13.09888840  124.93399811    0.89999998    2.93000007
   13.10194492  146.14399719    0.88000000    2.94000006
   13.10527802  143.92799377    0.88000000    2.93000007
   13.10833359  145.37500000    0.89999998    2.94000006
   13.11166668  137.86199951    0.88000000    2.94000006
   13.11472225  141.61099243    0.88000000    2.94000006
   13.11805534  148.06700134    0.88000000    2.94000006
   13.12111092  135.49000549    0.88000000    2.94000006
   13.12444496  141.28199768    0.89999998    2.94000006
   13.12750053  141.34300232    0.88000000    2.94000006
   13.13083363  132.25599670    0.88000000    2.93000007
   13.13388920  133.87899780    0.88000000    2.94000006
   13.13722229  135.68699646    0.88000000    2.94000006
   13.14027786  126.61199951    0.88000000    2.94000006
   13.14361095  130.32699585    0.88000000    2.94000006
   13.14666653  135.83399963    0.89999998    2.94000006
   13.14722252  146.45100403    0.89999998    2.94000006
   13.15027714  137.78599548    0.89999998    2.94000006
   13.15361118  119.28800201    0.89999998    2.94000006
   13.15666676  141.08700562    0.89999998    2.93000007
   13.15999985  138.09300232    0.89999998    2.94000006
   13.16305542  125.39099884    0.89999998    2.94000006
   13.16638851  135.53100586    0.89999998    2.94000006
   13.16944504  145.84500122    0.89999998    2.93000007
   13.17277813  128.41400146    0.86000001    2.94000006
   13.17583370  148.75999451    0.86000001    2.94000006
   13.17916679  142.61599731    0.86000001    2.94000006
   13.18222237  148.29100037    0.86000001    2.94000006
   13.18555546  148.16999817    0.86000001    2.94000006
   13.18861103  144.44799805    0.86000001    2.93000007
   13.19194412  136.41600037    0.86000001    2.94000006
   13.19499969  141.51100159    0.86000001    2.94000006
   13.19666672  147.15199280    0.86000001    2.94000006
   13.19861126  131.57400513    0.86000001    2.94000006
   13.20166683  141.59500122    0.83999997    2.94000006
   13.20499992  124.77200317    0.81999999    2.96000004
   13.20805550  134.21299744    0.83999997    2.96000004
   13.21138859  152.38499451    0.83999997    2.96000004
   13.21444416  148.66600037    0.81999999    2.96000004
   13.21777725  144.42399597    0.81999999    2.96000004
   13.22111034  133.00399780    0.81999999    2.94000006
   13.22416592  145.51300049    0.81999999    2.94000006
   13.22749996  135.36000061    0.81999999    2.96000004
   13.24694443  134.96200562    0.83999997    2.94000006
   13.24722290  145.44000244    0.81999999    2.96000004
   13.25055599  100.63600159    0.81999999    2.96000004
   13.25361156  142.74099731    0.81999999    2.94000006
   13.25694466  140.28799438    0.81999999    2.94000006
   13.26000023  156.66799927    0.81999999    2.96000004
   13.26333332  133.68800354    0.81999999    2.96000004
   13.26638889  146.41400146    0.81999999    2.96000004
   13.26972198  151.81100464    0.81999999    2.94000006
   13.27277756  128.04499817    0.81999999    2.96000004
   13.27611065  130.20100403    0.81999999    2.96000004
   13.27916622  154.82699585    0.81999999    2.96000004
   13.28249931  157.14399719    0.81999999    2.96000004
   13.28555584  130.13200378    0.83999997    2.96000004
   13.28888893  153.21200562    0.81999999    2.96000004
   13.29194450  156.19400024    0.81999999    2.96000004
   13.29527855  153.64599609    0.83999997    2.94000006
   13.29666710  145.44700623    0.81999999    2.94000006
   13.29861164  148.65600586    0.81999999    2.96000004
   13.30166721  154.59199524    0.83999997    2.96000004
   13.30500031  150.62800598    0.83999997    2.96000004
   13.30805588  146.18200684    0.83999997    2.94000006
   13.31138897  145.80900574    0.86000001    2.96000004
   13.31444454  152.56900024    0.86000001    2.96000004
   13.31777763  148.40699768    0.86000001    2.94000006
   13.32083321  157.51499939    0.86000001    2.96000004
   13.32416630  146.37199402    0.86000001    2.94000006
   13.32722187  149.97700500    0.86000001    2.94000006
   13.33055592  158.92300415    0.86000001    2.96000004
   13.33361053  137.08000183    0.86000001    2.96000004
   13.33694458  139.64399719    0.86000001    2.94000006
   13.34000015  154.04400635    0.86000001    2.94000006
   13.34333324  140.50199890    0.88000000    2.96000004
   13.34638882  150.51600647    0.86000001    2.96000004
   13.34694386  139.02200317    0.86000001    2.94000006
   13.35027790  125.11000061    0.86000001    2.96000004
   13.35333347  145.26300049    0.86000001    2.96000004
   13.35666752  153.82899475    0.86000001    2.96000004
   13.35972214  145.85800171    0.86000001    2.94000006
   13.36305618  128.25300598    0.86000001    2.94000006
   13.36611176  137.28799438    0.83999997    2.96000004
   13.36944485  161.49299622    0.83999997    2.96000004
   13.37250042  156.01100159    0.83999997    2.96000004
   13.37583351  159.38000488    0.83999997    2.96000004
   13.37888908  163.49800110    0.83999997    2.96000004
   13.38222218  156.27900696    0.81999999    2.96000004
   13.38527775  154.76499939    0.81999999    2.96000004
   13.38861084  139.36000061    0.81999999    2.96000004
   13.39166641  144.14799500    0.81999999    2.96000004
   13.39499950  156.82600403    0.80000001    2.96000004
   13.39694405  150.20599365    0.80000001    2.96000004
   13.39861107  151.82299805    0.81999999    2.96000004
   13.40166664  149.64999390    0.80000001    2.96000004
   13.40499973  157.55900574    0.80000001    2.96000004
   13.40805531  159.74699402    0.80000001    2.96000004
   13.41138840  158.05900574    0.79000002    2.96000004
   13.41444397  164.06100464    0.80000001    2.96000004
   13.41777802  148.09100342    0.79000002    2.96000004
   13.42083359  167.88999939    0.79000002    2.96000004
   13.42416668  154.53799438    0.79000002    2.96000004
   13.42722225  150.92999268    0.79000002    2.96000004
   13.43055630  155.76699829    0.79000002    2.94000006
   13.43361092  160.48800659    0.79000002    2.98000002
   13.43694496  174.25900269    0.79000002    2.98000002
   13.44000053  162.08000183    0.79000002    2.96000004
   13.44333363  152.23599243    0.79000002    2.96000004
   13.44638920  151.70899963    0.79000002    2.96000004
   13.44694424  152.59199524    0.79000002    2.96000004
   13.44999981  157.75100708    0.76999998    2.98000002
   13.45305538  146.94400024    0.76999998    2.96000004
   13.45638847  160.47999573    0.79000002    2.98000002
   13.45944405  152.29400635    0.79000002    2.96000004
   13.46277714  158.40600586    0.79000002    2.96000004
   13.46583271  158.05000305    0.79000002    2.98000002
   13.46916580  147.18299866    0.80000001    2.98000002
   13.47222137  123.96399689    0.81999999    2.96000004
   13.47555542  140.34500122    0.81999999    2.98000002
   13.47861099  137.61700439    0.81999999    2.96000004
   13.48194408  157.79499817    0.81999999    2.96000004
   13.48500061  136.43699646    0.83999997    2.96000004
   13.48833370  152.29100037    0.83999997    2.96000004
   13.49138927  152.66600037    0.83999997    2.98000002
   13.49472237  156.32600403    0.83999997    2.96000004
   13.49694443  136.93099976    0.81999999    2.96000004
   13.49833393  155.34700012    0.81999999    2.96000004
   13.50138855  139.52299500    0.81999999    2.96000004
   13.50472260  139.30299377    0.81999999    2.96000004
   13.50777817  144.69200134    0.81999999    2.98000002
   13.51111126  153.02900696    0.81999999    2.96000004
   13.51416683  161.15600586    0.81999999    2.96000004
   13.51749992  149.84399414    0.81999999    2.96000004
   13.52055550  155.15899658    0.83999997    2.98000002
   13.52388859  165.97900391    0.83999997    2.96000004
   13.52694416  158.14300537    0.83999997    2.96000004
   13.53027725  154.33700562    0.83999997    2.98000002
   13.53333378  144.00399780    0.83999997    2.96000004
   13.53666687  153.95799255    0.83999997    2.98000002
   13.53972244  155.71400452    0.83999997    2.98000002
   13.54305553  155.39300537    0.81999999    2.98000002
   13.54611111  144.42399597    0.81999999    2.98000002
   13.54694462  143.84599304    0.81999999    2.98000002
   13.54972267  144.70700073    0.81999999    2.96000004
   13.55277824  143.97999573    0.81999999    2.98000002
   13.55611134  140.08500671    0.81999999    2.98000002
   13.55916691  131.69599915    0.81999999    2.98000002
   13.56250000  147.29299927    0.81999999    2.94000006
   13.56555557  152.68499756    0.81999999    2.96000004
   13.56888866  144.40699768    0.81999999    2.96000004
   13.57194424  146.44599915    0.81999999    2.98000002
   13.57527733  151.02400208    0.83999997    2.96000004
   13.57833290  153.29200745    0.83999997    2.98000002
   13.58166695  142.73399353    0.81999999    2.98000002
   13.58472157  136.47500610    0.81999999    3.00000000
   13.58805561  147.82299805    0.80000001    2.96000004
   13.59111118  147.17700195    0.80000001    2.96000004
   13.59444427  144.96499634    0.80000001    3.00000000
   13.59694386  141.23599243    0.80000001    2.96000004
   13.59805489  133.50700378    0.80000001    2.96000004
   13.70916653   -1.00000000   -1.00000000   -1.00000000
   13.80583382   -1.00000000   -1.00000000   -1.00000000
   13.90694427   -1.00000000   -1.00000000   -1.00000000
   13.93722248   70.07219696    0.70999998    3.00000000
   13.94027805  149.37699890    0.70999998    3.00000000
   13.94361115  106.94000244    0.70999998    3.00000000
   13.94666672  109.62000275    0.69000000    3.01999998
   13.94999981  121.15399933    0.69000000    3.00000000
   13.95305538  141.92300415    0.70999998    3.00000000
   13.95638847  143.28300476    0.69000000    2.98000002
   13.95944405  134.19700623    0.69000000    3.00000000
   13.96583271  134.19700623    0.69000000    2.98000002
   13.96972179  138.23199463    0.70999998    3.00000000
   13.97305489  139.11500549    0.70999998    3.00000000
   13.97611046  149.25900269    0.70999998    2.98000002
   13.97944355  126.36000061    0.73000002    3.01999998
   13.98249912  114.95800018    0.76999998    3.01999998
   13.98583317  121.08100128    0.75000000    3.00000000
   13.98722267  139.12500000    0.75000000    3.00000000
   13.98916721  132.54400635    0.75000000    3.00000000
   13.99250031  125.46099854    0.75000000    2.98000002
   13.99555588  144.89999390    0.75000000    2.98000002
   13.99888897  160.06500244    0.75000000    3.00000000
   14.00194454  136.02799988    0.75000000    2.98000002
   14.00527763  110.28199768    0.75000000    3.00000000
   14.00833321  129.36999512    0.75000000    3.00000000
   14.01166630  151.22599792    0.75000000    3.00000000
   14.01694393  151.22599792    0.75000000    3.00000000
   14.02111053  135.61099243    0.76999998    3.00000000
   14.02416611  120.08999634    0.76999998    3.00000000
   14.02750015  131.73800659    0.76999998    3.00000000
   14.03055573  137.85499573    0.76999998    3.00000000
   14.03388977  143.55999756    0.76999998    3.00000000
   14.03694534  122.61499786    0.76999998    2.98000002
   14.03750038  138.80799866    0.76999998    2.98000002
   14.04055595  146.33799744    0.76999998    3.00000000
   14.04388905  135.96699524    0.76999998    3.00000000
   14.04694462  127.98500061    0.76999998    3.00000000
   14.05027771  144.28100586    0.76999998    3.00000000
   14.05333328  146.69200134    0.79000002    3.00000000
   14.05666733  159.13600159    0.76999998    3.00000000
   14.05972195  138.15899658    0.76999998    3.00000000
   14.06305599  142.55400085    0.76999998    3.00000000
   14.06805515  142.55400085    0.75000000    3.00000000
   14.07222176  147.73800659    0.76999998    3.00000000
   14.07527733  131.41999817    0.75000000    3.01999998
   14.07861137  150.49899292    0.75000000    3.01999998
   14.08166695  154.10200500    0.75000000    3.01999998
   14.08500004  139.05200195    0.75000000    3.00000000
   14.08749962  155.64300537    0.75000000    3.00000000
   14.08833313  136.25000000    0.75000000    3.00000000
   14.09166622  146.47700500    0.75000000    3.00000000
   14.09472179  145.80700684    0.75000000    3.00000000
   14.09805489  140.19299316    0.75000000    3.00000000
   14.10111141  135.17199707    0.75000000    3.00000000
   14.10444450  128.55400085    0.75000000    3.01999998
   14.10750008  144.27000427    0.75000000    3.00000000
   14.11083412  151.77299500    0.76999998    3.00000000
   14.11388969  139.17300415    0.76999998    3.00000000
   14.11944485  139.17300415    0.76999998    3.00000000
   14.12333393  138.72200012    0.76999998    3.00000000
   14.12666702  126.22599792    0.75000000    2.98000002
   14.12972260  144.22999573    0.75000000    3.00000000
   14.13305569  132.15600586    0.75000000    3.00000000
   14.13611126  109.96199799    0.75000000    3.00000000
   14.13749981  141.60299683    0.73000002    3.01999998
   14.13972187  121.16799927    0.73000002    3.01999998
   14.14305496  140.64599609    0.75000000    3.00000000
   14.14611053  128.86399841    0.73000002    3.00000000
   14.14944458  141.73599243    0.75000000    3.01999998
   14.15249920  135.65299988    0.73000002    3.00000000
   14.15583324  127.76999664    0.75000000    3.00000000
   14.15888882  138.79600525    0.75000000    3.00000000
   14.16222191  151.35899353    0.75000000    3.00000000
   14.16527748  143.99200439    0.75000000    3.00000000
   14.17055607  143.99200439    0.75000000    3.00000000
   14.17472267  137.17199707    0.75000000    3.01999998
   14.17777824  129.83599854    0.75000000    3.00000000
   14.18111134  139.65199280    0.73000002    3.00000000
   14.18416691  127.71299744    0.73000002    3.01999998
   14.18750000  125.52600098    0.73000002    3.00000000
   14.18777752  141.91799927    0.73000002    3.00000000
   14.19111156  132.18200684    0.73000002    3.00000000
   14.19416714  137.70799255    0.70999998    3.00000000
   14.19750023  126.16000366    0.70999998    3.00000000
   14.20055580  132.56199646    0.70999998    3.01999998
   14.20388889  144.11000061    0.70999998    3.00000000
   14.20694447  132.87399292    0.70999998    3.00000000
   14.21027756  135.27999878    0.70999998    3.01999998
   14.21333313  130.92799377    0.69000000    3.01999998
   14.21666622  134.09700012    0.69000000    3.01999998
   14.22166634  134.09700012    0.69000000    3.00000000
   14.22583294  133.88299561    0.69000000    3.01999998
   14.22888851  130.66400146    0.69000000    3.01999998
   14.23222160  131.03500366    0.69000000    3.01999998
   14.23527813  129.80000305    0.69000000    3.01999998
   14.23777771  142.29600525    0.70999998    3.00000000
   14.23888874  145.23899841    0.70999998    3.00000000
   14.24194431  143.94400024    0.69000000    3.00000000
   14.24527836  136.03999329    0.70999998    3.01999998
   14.24833393  153.77999878    0.70999998    3.01999998
   14.25166702  135.62300110    0.70999998    3.01999998
   14.25472260  146.01100159    0.70999998    3.01999998
   14.25805569  142.32200623    0.70999998    3.00000000
   14.26111126  142.63800049    0.70999998    3.01999998
   14.26444435  138.70399475    0.70999998    3.01999998
   14.26749992  124.76499939    0.70999998    3.00000000
   14.27277756  124.76499939    0.73000002    3.00000000
   14.27694416  147.80200195    0.73000002    3.00000000
   14.28027725  158.07800293    0.73000002    3.01999998
   14.28333378  144.36500549    0.73000002    2.98000002
   14.28666687  149.80200195    0.73000002    3.00000000
   14.28805637  154.56199646    0.73000002    3.01999998
   14.29027843  138.80299377    0.73000002    3.01999998
   14.29333401  145.90100098    0.73000002    3.00000000
   14.29666710  141.47200012    0.73000002    3.01999998
   14.29972267  141.16900635    0.75000000    3.01999998
   14.30305576  150.55299377    0.75000000    3.00000000
   14.30611134  126.30999756    0.75000000    3.00000000
   14.30944443  146.26699829    0.73000002    3.00000000
   14.31250000  148.71699524    0.75000000    3.00000000
   14.31583309  152.93800354    0.75000000    3.00000000
   14.31888866  142.78999329    0.75000000    3.01999998
   14.32416630  142.78999329    0.75000000    3.00000000
   14.32805538  141.86099243    0.75000000    3.00000000
   14.33138847  153.78700256    0.75000000    3.00000000
   14.33444405  152.45100403    0.75000000    3.01999998
   14.33777714  148.04200745    0.75000000    3.00000000
   14.33833313  146.74499512    0.73000002    3.00000000
   14.34138870  162.95799255    0.75000000    3.00000000
   14.34444427  153.05299377    0.73000002    3.01999998
   14.34777737  141.06500244    0.70999998    3.00000000
   14.35083389  160.67900085    0.73000002    3.00000000
   14.35416698  147.61099243    0.73000002    3.00000000
   14.35722256  149.80099487    0.73000002    3.00000000
   14.36055565  148.37199402    0.73000002    3.01999998
   14.36361122  151.77200317    0.73000002    3.01999998
   14.36694431  145.01800537    0.73000002    3.01999998
   14.36999989  155.39399719    0.73000002    3.01999998
   14.37527752  155.39399719    0.73000002    3.01999998
   14.37916660  153.19500732    0.73000002    3.00000000
   14.38249969  159.67999268    0.75000000    3.00000000
   14.38555527  147.55400085    0.73000002    3.00000000
   14.38833332  155.58799744    0.75000000    3.01999998
   14.38916683  148.87100220    0.75000000    3.01999998
   14.39222240  154.85400391    0.73000002    3.00000000
   14.39555550  136.99600220    0.73000002    3.00000000
   14.39861107  146.72399902    0.75000000    3.00000000
   14.40194416  149.32499695    0.75000000    3.01999998
   14.40499973  144.80099487    0.75000000    3.01999998
   14.40833282  154.25100708    0.76999998    3.01999998
   14.41138840  140.95700073    0.76999998    3.00000000
   14.41472149  148.00399780    0.76999998    3.01999998
   14.41777802  149.99899292    0.76999998    3.01999998
   14.42111111  151.35499573    0.79000002    3.00000000
   14.42638874  151.35499573    0.76999998    3.00000000
   14.43055630  145.78300476    0.76999998    3.00000000
   14.43361092  140.86900330    0.76999998    3.00000000
   14.43694496  152.90800476    0.75000000    3.01999998
   14.43833351  151.81799316    0.75000000    3.01999998
   14.44055557  140.05099487    0.75000000    3.01999998
   14.44361115  131.93699646    0.75000000    3.01999998
   14.44694424  125.69200134    0.75000000    3.00000000
   14.44999981  139.22599792    0.75000000    3.01999998
   14.45333290  136.06799316    0.75000000    3.00000000
   14.45638847  137.61799622    0.75000000    3.01999998
   14.45972157  138.44700623    0.75000000    3.00000000
   14.46277714  140.82400513    0.75000000    3.01999998
   14.46611118  136.26699829    0.75000000    2.98000002
   14.46916580  136.68899536    0.75000000    3.00000000
   14.47249985  140.90499878    0.76999998    3.01999998
   14.47749996  140.90499878    0.79000002    3.00000000
   14.48166656  144.50399780    0.79000002    3.00000000
   14.48472214  140.65699768    0.79000002    3.00000000
   14.48805618  130.04899597    0.76999998    3.00000000
   14.48861122  141.80000305    0.79000002    3.00000000
   14.49138927  143.25599670    0.76999998    3.01999998
   14.49472237  133.15600586    0.75000000    3.00000000
   14.49777794  118.47899628    0.75000000    3.01999998
   14.50111103  133.19200134    0.73000002    3.00000000
   14.50416660  137.55099487    0.70999998    3.01999998
   14.50749969  130.52200317    0.70999998    3.00000000
   14.51055527  117.49299622    0.70999998    3.01999998
   14.51388931  139.47700500    0.69000000    3.01999998
   14.51694393  145.95199585    0.67000002    3.01999998
   14.52027798  134.14500427    0.67000002    3.01999998
   14.52333355  132.34100342    0.64999998    3.01999998
   14.52888870  132.34100342    0.64999998    3.01999998
   14.53277779  148.00399780    0.64999998    3.01999998
   14.53611183  143.24099731    0.64999998    3.01999998
   14.53861141  137.01300049    0.63000000    3.01999998
   14.53972244  130.39999390    0.63000000    3.03999996
   14.54305553  144.30999756    0.63000000    3.01999998
   14.54611111  138.79400635    0.63000000    3.01999998
   14.54944515  142.59599304    0.63000000    3.01999998
   14.55249977  134.84700012    0.63000000    3.01999998
   14.55583382  147.31799316    0.64999998    3.01999998
   14.55888939  139.53799438    0.69000000    3.03999996
   14.56222248  148.59700012    0.61000001    3.01999998
   14.56527805  144.64300537    0.61000001    3.01999998
   14.56861115  136.95899963    0.63000000    3.03999996
   14.57166672  147.80499268    0.61000001    3.01999998
   14.57499981  141.13499451    0.63000000    3.01999998
   14.57999992  141.13499451    0.63000000    3.01999998
   14.58388901  150.59399414    0.63000000    3.01999998
   14.58722210  133.31500244    0.64999998    3.01999998
   14.58861065  120.88200378    0.63000000    3.00000000
   14.59055519  146.17799377    0.64999998    3.03999996
   14.59388828  136.45100403    0.63000000    3.01999998
   14.59694386  147.78999329    0.63000000    3.01999998
   14.60027790  153.21200562    0.63000000    3.01999998
   14.60333347  139.12100220    0.64999998    3.01999998
   14.60666752  144.93099976    0.67000002    3.01999998
   14.60972214  137.91799927    0.67000002    3.03999996
   14.61305618  129.88800049    0.67000002    3.01999998
   14.61611176  135.96000671    0.67000002    3.01999998
   14.61944485  138.94599915    0.69000000    3.01999998
   14.62250042  130.52099609    0.69000000    3.03999996
   14.62583351  152.05400085    0.69000000    3.01999998
   14.63111115  152.05400085    0.69000000    3.00000000
   14.63527775  146.75999451    0.69000000    3.01999998
   14.63833332  139.71899414    0.69000000    3.01999998
   14.63888836  141.98199463    0.69000000    3.01999998
   14.64194393  141.96699524    0.69000000    3.01999998
   14.64527798  127.52700043    0.70999998    3.01999998
   14.64833355  142.53399658    0.70999998    3.00000000
   14.65166664  146.21600342    0.70999998    3.03999996
   14.65472221  140.62100220    0.69000000    3.01999998
   14.65805531  141.38600159    0.69000000    3.01999998
   14.66111088  146.28799438    0.69000000    3.01999998
   14.66444397  128.99400330    0.69000000    3.01999998
   14.66750050  138.02600098    0.67000002    3.01999998
   14.67083359  152.67799377    0.69000000    3.00000000
   14.67388916  137.48399353    0.67000002    3.01999998
   14.67722225  125.88400269    0.67000002    3.01999998
   14.68222237  125.88400269    0.64999998    3.01999998
   14.68638897  144.61300659    0.64999998    3.03999996
   14.68888855  144.54400635    0.64999998    3.01999998
   14.68972206  150.49499512    0.67000002    3.03999996
   14.69305515  145.66900635    0.67000002    3.01999998
   14.69611073  139.38099670    0.67000002    3.03999996
   14.69944477  144.09100342    0.69000000    3.03999996
   14.70249939  148.20899963    0.70999998    3.01999998
   14.70583344  102.26300049    0.73000002    3.01999998
   14.70888901  142.47799683    0.70999998    3.01999998
   14.71222210  149.74800110    0.70999998    3.01999998
   14.71527767  163.00599670    0.69000000    3.01999998
   14.71861076  149.49800110    0.70999998    3.01999998
   14.72166634  145.47399902    0.70999998    3.01999998
   14.72499943  142.94099426    0.70999998    3.01999998
   14.72805500  142.85099792    0.70999998    3.01999998
   14.73361111  142.85099792    0.70999998    3.01999998
   14.73750019  160.65600586    0.70999998    3.01999998
   14.73888874  156.54899597    0.70999998    3.01999998
   14.74083328  139.84700012    0.70999998    3.01999998
   14.74416733  139.19400024    0.70999998    3.01999998
   14.74722290  143.66999817    0.70999998    3.03999996
   14.75055599  150.45100403    0.70999998    3.01999998
   14.75361156  135.65299988    0.70999998    3.01999998
   14.75694466  147.53599548    0.70999998    3.01999998
   14.76000023  146.30400085    0.70999998    3.01999998
   14.76333332  161.58000183    0.70999998    3.01999998
   14.76638889  146.84300232    0.70999998    3.01999998
   14.76972198  132.45899963    0.70999998    3.01999998
   14.77277756  137.94500732    0.70999998    3.01999998
   14.77611065  146.19099426    0.70999998    3.01999998
   14.77916622  152.01199341    0.70999998    3.01999998
   14.78472233  152.01199341    0.73000002    3.01999998
   14.78861141  155.11300659    0.73000002    3.01999998
   14.78916740  137.76600647    0.73000002    3.01999998
   14.79250050  159.12199402    0.73000002    3.01999998
   14.79555607  136.13800049    0.73000002    3.03999996
   14.79888916  153.83099365    0.75000000    3.01999998
   14.80194473  156.08900452    0.76999998    3.00000000
   14.80527782  151.01300049    0.76999998    3.00000000
   14.80833340  140.00199890    0.79000002    3.01999998
   14.81166649  139.82299805    0.79000002    3.01999998
   14.81472206  130.76699829    0.79000002    3.01999998
   14.81805515  146.44099426    0.79000002    3.01999998
   14.82111073  141.06900024    0.79000002    3.00000000
   14.82444477  137.66700745    0.80000001    3.01999998
   14.82750034  134.18400574    0.80000001    3.01999998
   14.83083344  139.84800720    0.81999999    3.01999998
   14.83583260  139.84800720    0.81999999    3.01999998
   14.84000015  144.26600647    0.83999997    3.00000000
   14.84305477  147.61099243    0.83999997    3.01999998
   14.84638882  137.16900635    0.86000001    3.01999998
   14.84944439  145.30900574    0.86000001    3.00000000
   14.85277843  130.72799683    0.83999997    3.01999998
   14.85583401  140.18400574    0.83999997    3.01999998
   14.85916710  139.84100342    0.83999997    3.01999998
   14.86222267  131.24600220    0.81999999    3.01999998
   14.86555576  113.70800018    0.83999997    3.01999998
   14.86861134  139.22099304    0.83999997    3.01999998
   14.87194443  144.77400208    0.83999997    3.01999998
   14.87500000  160.81300354    0.83999997    3.01999998
   14.87833309  133.28700256    0.81999999    3.01999998
   14.88138866  144.90699768    0.83999997    3.01999998
   14.88694477  144.90699768    0.83999997    3.01999998
   14.89111137  143.56799316    0.83999997    3.00000000
   14.89416695  130.55499268    0.83999997    3.01999998
   14.89750004  135.77600098    0.83999997    3.01999998
   14.90055561  135.21800232    0.81999999    3.01999998
   14.90388870  134.89799500    0.83999997    3.01999998
   14.90694427  154.88600159    0.83999997    3.01999998
   14.91027737  141.67300415    0.83999997    3.01999998
   14.91333294  143.83999634    0.81999999    3.00000000
   14.91666698  128.22200012    0.81999999    3.01999998
   14.91972256  130.35800171    0.83999997    3.00000000
   14.92305565  149.59800720    0.81999999    3.01999998
   14.92611122  144.12500000    0.81999999    3.01999998
   14.92944431  161.32200623    0.86000001    3.01999998
   14.93249989  143.36999512    0.83999997    3.01999998
   14.95444393  134.23800659    0.80000001    3.03999996
   14.95472240  142.91400146    0.80000001    3.03999996
   14.95777798  149.76499939    0.80000001    3.01999998
   14.96111107  156.22700500    0.80000001    3.01999998
   14.96416664  147.91999817    0.80000001    3.03999996
   14.96749973  132.67999268    0.80000001    3.01999998
   14.97083282  138.97700500    0.79000002    3.01999998
   14.97388840  154.57000732    0.79000002    3.01999998
   14.97722149  142.23399353    0.79000002    3.01999998
   14.98027706  147.51499939    0.79000002    3.01999998
   14.98361111  142.37600708    0.79000002    3.01999998
   14.98944473  142.37600708    0.79000002    3.01999998
   14.99361134  138.66900635    0.79000002    3.01999998
   14.99666691  145.47900391    0.79000002    3.01999998
   15.00000000  148.47300720    0.79000002    3.01999998
   15.00305557  142.36199951    0.79000002    3.01999998
   15.00416660  147.46000671    0.79000002    3.01999998
   15.00666714  130.98199463    0.79000002    3.03999996
   15.01000023  128.73199463    0.79000002    3.03999996
   15.01305580  131.84100342    0.76999998    3.01999998
   15.01638889  153.31199646    0.76999998    3.03999996
   15.01944447  152.35200500    0.76999998    3.01999998
   15.02277756  154.35600281    0.76999998    3.01999998
   15.02583313  163.86799622    0.75000000    3.03999996
   15.02916622  149.98599243    0.75000000    3.03999996
   15.03222179  152.91499329    0.75000000    3.01999998
   15.03555584  141.89900208    0.75000000    3.01999998
   15.04055595  141.89900208    0.75000000    3.01999998
   15.04472256  142.24899292    0.76999998    3.01999998
   15.04805565  159.77299500    0.76999998    3.01999998
   15.05111122  146.29600525    0.79000002    3.01999998
   15.05416679  160.44000244    0.79000002    3.01999998
   15.05500031  143.66700745    0.80000001    3.00000000
   15.05805588  152.36099243    0.80000001    3.01999998
   15.06111145  147.86999512    0.79000002    3.00000000
   15.06444454  130.44700623    0.79000002    3.00000000
   15.06750011  146.56500244    0.79000002    3.01999998
   15.07083321  149.55000305    0.79000002    3.01999998
   15.07388878  144.14999390    0.76999998    3.03999996
   15.07722187  141.94700623    0.79000002    3.01999998
   15.08027744  142.60000610    0.79000002    3.03999996
   15.08361053  154.16600037    0.79000002    3.03999996
   15.08666611  141.59199524    0.80000001    3.01999998
   15.09194374  141.59199524    0.80000001    3.01999998
   15.09583282  145.64799500    0.81999999    3.01999998
   15.09916592  143.85400391    0.81999999    3.01999998
   15.10222244  130.68699646    0.81999999    3.01999998
   15.10416698  146.11300659    0.81999999    3.01999998
   15.10583401  156.20899963    0.81999999    3.01999998
   15.10916710  138.48100281    0.80000001    3.01999998
   15.11222267  153.06100464    0.80000001    3.01999998
   15.11555576  145.04100037    0.80000001    3.01999998
   15.11861134  124.86199951    0.80000001    3.01999998
   15.12194443  138.43099976    0.81999999    3.01999998
   15.12500000  141.47599792    0.81999999    3.01999998
   15.12833309  147.69700623    0.81999999    3.01999998
   15.13138866  142.31900024    0.83999997    3.01999998
   15.13472176  130.37899780    0.83999997    3.01999998
   15.13777733  138.30400085    0.83999997    3.01999998
   15.14305496  138.30400085    0.81999999    3.01999998
   15.14722252  144.53100586    0.81999999    3.01999998
   15.15027714  141.21800232    0.83999997    3.01999998
   15.15361118  148.27400208    0.81999999    3.01999998
   15.15416622  148.61900330    0.81999999    3.01999998
   15.15722179  124.93299866    0.81999999    3.01999998
   15.16027737  145.50700378    0.81999999    3.03999996
   15.16361046  146.97799683    0.80000001    3.01999998
   15.16666698  158.10899353    0.80000001    3.01999998
   15.17000008  143.63499451    0.80000001    3.01999998
   15.17305565  143.16099548    0.80000001    3.01999998
   15.17638874  148.88000488    0.80000001    3.01999998
   15.17944431  141.96200562    0.80000001    3.01999998
   15.18277836  135.64599609    0.79000002    3.01999998
   15.18583298  152.53700256    0.79000002    3.01999998
   15.18916702  149.68600464    0.79000002    3.01999998
   15.19416714  149.68600464    0.76999998    3.01999998
   15.19833374  147.96899414    0.76999998    3.01999998
   15.20138836  145.07000732    0.76999998    3.01999998
   15.20416641  138.15600586    0.76999998    3.01999998
   15.20527744  139.68299866    0.79000002    3.01999998
   15.20833302  146.02200317    0.79000002    3.01999998
   15.21138859  150.13499451    0.79000002    3.03999996
   15.21472168  125.60299683    0.79000002    3.01999998
   15.21777725  129.96800232    0.80000001    3.01999998
   15.22111034  133.77200317    0.80000001    3.01999998
   15.22416592  143.51199341    0.79000002    3.01999998
   15.22749996  130.54899597    0.79000002    3.01999998
   15.23055553  149.62600708    0.79000002    3.01999998
   15.23388958  146.91299438    0.79000002    3.01999998
   15.23694515  147.86999512    0.79000002    3.01999998
   15.24027824  148.02000427    0.76999998    3.01999998
   15.24527836  148.02000427    0.76999998    3.01999998
   15.24944496  146.23199463    0.75000000    3.01999998
   15.25277805  135.00999451    0.75000000    3.01999998
   15.25416660  143.59300232    0.76999998    3.01999998
   15.25638866  144.44200134    0.76999998    3.01999998
   15.25944424  148.16000366    0.76999998    3.01999998
   15.26277733  161.79699707    0.75000000    3.01999998
   15.26583290  138.91000366    0.75000000    3.01999998
   15.26916599  137.27299500    0.76999998    3.01999998
   15.27222157  154.33000183    0.76999998    3.01999998
   15.27555561  155.62899780    0.76999998    3.01999998
   15.27861118  153.24699402    0.76999998    3.01999998
   15.28194427  146.11599731    0.76999998    3.01999998
   15.28500080  148.91000366    0.76999998    3.01999998
   15.28833389  148.79800415    0.75000000    3.01999998
   15.29138947  138.67300415    0.75000000    3.01999998
   15.29666710  138.67300415    0.73000002    3.01999998
   15.30055618  119.17900085    0.75000000    3.01999998
   15.30388927  134.21600342    0.73000002    3.01999998
   15.30444431  122.72799683    0.73000002    3.01999998
   15.30749989  135.57400513    0.73000002    3.01999998
   15.31083393  133.22799683    0.73000002    3.01999998
   15.31388950  139.17500305    0.70999998    3.01999998
   15.31722260  130.62500000    0.70999998    3.03999996
   15.32027817  128.51899719    0.70999998    3.01999998
   15.32361126  144.64700317    0.70999998    3.01999998
   15.32666683  138.81300354    0.70999998    3.01999998
   15.32999992  133.77000427    0.70999998    3.03999996
   15.33305550  142.10499573    0.73000002    3.01999998
   15.33638859  151.80400085    0.70999998    3.01999998
   15.33944416  148.84500122    0.70999998    3.01999998
   15.34277725  128.24600220    0.73000002    3.01999998
   15.34777737  128.24600220    0.73000002    3.03999996
   15.35194492  135.47500610    0.70999998    3.01999998
   15.35444450  144.88499451    0.73000002    3.01999998
   15.35555553  128.68600464    0.70999998    3.01999998
   15.35888958  139.77900696    0.70999998    3.03999996
   15.36194515  144.03500366    0.70999998    3.01999998
   15.36527824  132.64500427    0.70999998    3.03999996
   15.36833382  137.41900635    0.70999998    3.01999998
   15.37166691  128.50900269    0.70999998    3.01999998
   15.37472248  132.66000366    0.70999998    3.03999996
   15.37805557  134.56599426    0.70999998    3.03999996
   15.38111115  131.95199585    0.70999998    3.03999996
   15.38444424  133.57000732    0.70999998    3.03999996
   15.38749981  121.93000031    0.70999998    3.03999996
   15.39083290  116.22100067    0.70999998    3.03999996
   15.39388847  121.58300018    0.73000002    3.03999996
   15.39888859  121.58300018    0.70999998    3.03999996
   15.40305519  140.89599609    0.73000002    3.03999996
   15.40444374  145.28199768    0.73000002    3.03999996
   15.40666676  135.37100220    0.73000002    3.03999996
   15.40999985  128.78500366    0.73000002    3.01999998
   15.41305542  135.26800537    0.73000002    3.01999998
   15.41638851  133.61199951    0.73000002    3.01999998
   15.41944504  135.29200745    0.73000002    3.03999996
   15.42277813  138.34100342    0.75000000    3.03999996
   15.42583370  133.45899963    0.75000000    3.01999998
   15.42916679  128.06700134    0.75000000    3.03999996
   15.43222237  146.98699951    0.73000002    3.01999998
   15.43555546  128.11399841    0.73000002    3.01999998
   15.43861103  126.68000031    0.70999998    3.03999996
   15.44194412  122.06500244    0.70999998    3.01999998
   15.44499969  122.60399628    0.70999998    3.03999996
   15.45027733  122.60399628    0.70999998    3.03999996
   15.45444393  137.43899536    0.69000000    3.03999996
   15.45472240  145.58799744    0.69000000    3.03999996
   15.45805550  134.12199402    0.69000000    3.03999996
   15.46111107  107.13500214    0.69000000    3.01999998
   15.46444416  130.35499573    0.69000000    3.03999996
   15.46749973  136.34599304    0.67000002    3.01999998
   15.47083282  133.13600159    0.67000002    3.03999996
   15.47388840  155.14599609    0.69000000    3.01999998
   15.47722149  117.44200134    0.69000000    3.03999996
   15.48027706  144.13499451    0.69000000    3.03999996
   15.48361111  133.56799316    0.69000000    3.03999996
   15.48666668  141.90299988    0.69000000    3.03999996
   15.49000072  139.76899719    0.69000000    3.03999996
   15.49305534  133.34399414    0.69000000    3.03999996
   15.49638939  139.61199951    0.69000000    3.03999996
   15.50138855  139.61199951    0.70999998    3.03999996
   15.50527763  137.07000732    0.69000000    3.03999996
   15.50861073  151.42199707    0.69000000    3.03999996
   15.51166630  140.37500000    0.69000000    3.01999998
   15.51500034  140.67500305    0.69000000    3.03999996
   15.51805496  132.67900085    0.69000000    3.03999996
   15.52138901  147.58299255    0.69000000    3.03999996
   15.52444458  154.63699341    0.69000000    3.01999998
   15.52777767  147.18699646    0.69000000    3.03999996
   15.53083324  150.43099976    0.69000000    3.03999996
   15.53416729  145.71400452    0.70999998    3.01999998
   15.53722286  148.84100342    0.69000000    3.03999996
   15.54055595  144.39300537    0.69000000    3.03999996
   15.54361153  148.20100403    0.70999998    3.03999996
   15.54694462  142.65899658    0.67000002    3.03999996
   15.55249977  142.65899658    0.67000002    3.01999998
   15.55666733  147.92199707    0.67000002    3.03999996
   15.55972195  108.31400299    0.67000002    3.03999996
   15.56305599  136.19900513    0.69000000    3.03999996
   15.56611156  130.25199890    0.69000000    3.03999996
   15.56944466  144.26699829    0.67000002    3.01999998
   15.57250023  135.02900696    0.67000002    3.01999998
   15.57583332  136.88600159    0.67000002    3.03999996
   15.57888889  138.12899780    0.67000002    3.03999996
   15.58222198  141.84800720    0.67000002    3.03999996
   15.58527756  133.80299377    0.67000002    3.01999998
   15.58861065  142.06900024    0.69000000    3.03999996
   15.59166622  121.12200165    0.67000002    3.03999996
   15.59499931  119.68599701    0.67000002    3.03999996
   15.59805489  141.24800110    0.67000002    3.03999996
   15.60361195  141.24800110    0.69000000    3.01999998
   15.60777855  154.02699280    0.69000000    3.03999996
   15.61083412  153.70300293    0.70999998    3.03999996
   15.61416721  139.62100220    0.70999998    3.01999998
   15.61722279  158.35899353    0.70999998    3.01999998
   15.62055588  144.06599426    0.73000002    3.01999998
   15.62361145  132.20799255    0.70999998    3.03999996
   15.62694454  140.12500000    0.70999998    3.03999996
   15.63000011  140.73899841    0.70999998    3.03999996
   15.63333321  142.46099854    0.69000000    3.03999996
   15.63638878  132.34300232    0.70999998    3.03999996
   15.63972187  126.38899994    0.69000000    3.01999998
   15.64277744  131.44799805    0.69000000    3.03999996
   15.64611053  146.10200500    0.70999998    3.03999996
   15.64916611  145.41299438    0.70999998    3.01999998
   15.65499973  145.41299438    0.69000000    3.03999996
   15.65888882  140.01400757    0.70999998    3.03999996
   15.66222191  138.17799377    0.70999998    3.01999998
   15.66527748  132.95399475    0.69000000    3.03999996
   15.66861153  132.20700073    0.70999998    3.03999996
   15.67166710  143.15600586    0.70999998    3.03999996
   15.67500019  148.21200562    0.73000002    3.03999996
   15.67805576  144.44299316    0.73000002    3.03999996
   15.68138885  126.55500031    0.73000002    3.03999996
   15.68444443  153.31700134    0.75000000    3.03999996
   15.68777752  140.52400208    0.79000002    3.01999998
   15.69083309  149.85299683    0.83999997    3.03999996
   15.69416714  149.10299683    0.94000000    3.03999996
   15.69722271  157.08500671    1.00000000    3.03999996
   15.70055580  139.28399658    1.05999994    3.03999996
   15.70611095  139.28399658    1.11000001    3.03999996
   15.71000004  138.61099243    1.13000000    3.03999996
   15.71333313  133.57699585    1.11000001    3.03999996
   15.71638870  128.99099731    1.09000003    3.01999998
   15.71972179  144.23399353    1.05999994    3.03999996
   15.72277737  120.07399750    1.03999996    3.03999996
   15.72611046  103.63700104    1.00000000    3.01999998
   15.72916603  135.61099243    1.00000000    3.03999996
   15.73249912  140.94500732    0.95999998    3.03999996
   15.73555565  125.21299744    0.94000000    3.03999996
   15.73888874  113.50800323    0.92000002    3.03999996
   15.74194431  114.81500244    0.88000000    3.05999994
   15.74527836  128.06399536    0.86000001    3.03999996
   15.74833393  118.93099976    0.81999999    3.03999996
   15.75166702  118.91600037    0.80000001    3.03999996
   15.75722218  118.91600037    0.76999998    3.03999996
   15.76138878  132.25599670    0.75000000    3.03999996
   15.76444435  128.42999268    0.70999998    3.03999996
   15.76777744  130.69099426    0.70999998    3.03999996
   15.77083302  125.27100372    0.69000000    3.03999996
   15.77416611  122.61499786    0.67000002    3.03999996
   15.77722168  124.10199738    0.63000000    3.03999996
   15.78055573  126.79599762    0.63000000    3.03999996
   15.78361130  126.05300140    0.61000001    3.03999996
   15.78694534  134.23300171    0.61000001    3.03999996
   15.79000092  126.81099701    0.61000001    3.03999996
   15.79333401  132.74499512    0.58999997    3.03999996
   15.79638958  125.36299896    0.58999997    3.03999996
   15.79972267  126.96299744    0.56999999    3.03999996
   15.80277824  128.86900330    0.56999999    3.03999996
   15.80833340  128.86900330    0.55000001    3.03999996
   15.81250000  126.08300018    0.55000001    3.05999994
   15.81555557  120.20300293    0.52999997    3.03999996
   15.81888866  123.21900177    0.51999998    3.03999996
   15.82194424  123.09100342    0.51999998    3.03999996
   15.82527733  131.97999573    0.51999998    3.03999996
   15.82833290  121.98600006    0.51999998    3.03999996
   15.83166695  126.01300049    0.50000000    3.03999996
   15.83472157  121.35700226    0.50000000    3.03999996
   15.83805561  132.82499695    0.50000000    3.03999996
   15.84111118  119.16699982    0.47999999    3.03999996
   15.84444427  126.17600250    0.47999999    3.05999994
   15.84749985  123.80599976    0.47999999    3.03999996
   15.85083389  124.54900360    0.47999999    3.03999996
   15.85388947  120.07499695    0.46000001    3.03999996
   15.85944462  120.07499695    0.46000001    3.03999996
   15.86361122  125.93399811    0.44000000    3.05999994
   15.86694431  129.06399536    0.44000000    3.03999996
   15.86999989  120.61900330    0.41999999    3.05999994
   15.87333393  133.26899719    0.41999999    3.03999996
   15.87638855  130.58700562    0.40000001    3.03999996
   15.87972260  119.33899689    0.40000001    3.05999994
   15.88277817  129.80000305    0.40000001    3.03999996
   15.88611126  138.13000488    0.40000001    3.03999996
   15.88916683  122.86199951    0.38000000    3.03999996
   15.89249992  126.41200256    0.38000000    3.03999996
   15.89555550  120.56300354    0.38000000    3.03999996
   15.89888859  134.27699280    0.38000000    3.03999996
   15.90194416  119.07199860    0.34000000    3.03999996
   15.90527725  127.63800049    0.36000001    3.03999996
   15.91083336  127.63800049    0.31999999    3.03999996
   15.91472149  131.15699768    0.30000001    3.05999994
   15.91805553  120.91500092    0.30000001    3.05999994
   15.92111111  125.79399872    0.28000000    3.05999994
   15.92444515  129.30400085    0.28000000    3.03999996
   15.92750072  114.08399963    0.25999999    3.05999994
   15.93083382  141.43899536    0.25999999    3.05999994
   15.93388939  128.99099731    0.25999999    3.03999996
   15.93722248  145.20500183    0.25999999    3.03999996
   15.94027805  129.14799500    0.25999999    3.03999996
   15.94361115  137.93099976    0.25999999    3.05999994
   15.94666672  143.15199280    0.25999999    3.03999996
   15.94999981  134.37199402    0.25999999    3.05999994
   15.95305538  140.18600464    0.25999999    3.03999996
   15.97444439  140.18600464    0.20999999    3.03999996
   15.97861099  133.59700012    0.19000000    3.05999994
   15.98194408  133.51400757    0.19000000    3.03999996
   15.98500061  140.50700378    0.17000000    3.03999996
   15.98833370  138.08500671    0.17000000    3.03999996
   15.99138927  129.08799744    0.15000001    3.03999996
   15.99472237  121.20500183    0.15000001    3.03999996
   15.99777794  133.92100525    0.15000001    3.03999996
   16.00111198  117.10600281    0.13000000    3.05999994
   16.00416756  127.38200378    0.13000000    3.03999996
   16.00749969  143.64100647    0.11000000    3.03999996
   16.01055527  142.07800293    0.11000000    3.03999996
   16.01388931  137.71200562    0.11000000    3.03999996
   16.01694489  129.14900208    0.09000000    3.05999994
   16.02027702  137.68600464    0.09000000    3.03999996
   16.02194405  137.88200378    0.09000000    3.03999996
   16.02611160  137.88200378    0.09000000    3.03999996
   16.03027725  143.86399841    0.09000000    3.05999994
   16.03333282  137.86599731    0.07000000    3.03999996
   16.03666687  150.34599304    0.07000000    3.03999996
   16.03972244  140.01899719    0.07000000    3.03999996
   16.04305458  130.47200012    0.07000000    3.03999996
   16.04611015  134.31799316    0.05000000    3.03999996
   16.04944420  135.44799805    0.07000000    3.03999996
   16.05249977  144.53100586    0.07000000    3.01999998
   16.05583191  122.87200165    0.07000000    3.03999996
   16.05888748  131.51600647    0.07000000    3.03999996
   16.06222153  138.56100464    0.07000000    3.03999996
   16.06527710  133.33000183    0.07000000    3.03999996
   16.06861115  126.70899963    0.05000000    3.01999998
   16.07166672  128.53700256    0.05000000    3.03999996
   16.07222366  137.15600586    0.05000000    3.03999996
   16.07722282  137.15600586    0.05000000    3.01999998
   16.08139038  131.50199890    0.07000000    3.03999996
   16.08472252  125.98899841    0.05000000    3.03999996
   16.08777809  139.59800720    0.05000000    3.03999996
   16.09111214  134.62600708    0.05000000    3.01999998
   16.09416771  137.39399719    0.05000000    3.01999998
   16.09749985  141.85000610    0.05000000    3.00000000
   16.10055542  150.11799622    0.05000000    3.01999998
   16.10388947  143.81500244    0.05000000    3.01999998
   16.10694504  160.07600403    0.03000000    3.01999998
   16.11027908  142.30599976    0.03000000    3.01999998
   16.11333466  138.36700439    0.03000000    3.01999998
   16.11666679  133.36300659    0.03000000    3.01999998
   16.11972237  130.25500488    0.03000000    3.01999998
   16.12222290  144.66400146    0.05000000    3.01999998
   16.12305641  125.25900269    0.05000000    3.01999998
   16.12861061  125.25900269    0.03000000    3.01999998
   16.13249969  142.93699646    0.03000000    3.01999998
   16.13583374  132.02699280    0.03000000    2.98000002
   16.13888931  136.22900391    0.03000000    2.91000009
   16.14222145  149.37300110    0.03000000    2.76999998
   16.14527702  131.81100464    0.03000000    2.61999989
   16.14861107  145.22900391    0.03000000    2.40000010
   16.15166664  140.39300537    0.03000000    2.17000008
   16.15499878  134.96699524    0.03000000    2.01999998
   16.15805435  140.57299805    0.03000000    1.71000004
   16.16138840  136.29899597    0.03000000    1.38000000
   16.16444397  135.90600586    0.03000000    1.09000003
   16.16777802  131.52299500    0.03000000    0.81999999
   16.17083359  144.21299744    0.03000000    0.56999999
   16.17222214  133.09599304    0.03000000    0.56999999
   16.17444420  129.08200073    0.03000000    0.36000001
   16.17972183  129.08200073    0.03000000    0.13000000
   16.18388748  128.17700195    0.03000000    0.03000000
   16.18694305  132.73199463    0.03000000    0.01000000
   16.19027710  128.53500366    0.03000000    0.01000000
   16.19333267  127.25599670    0.03000000    0.01000000
   16.19666672  119.79599762    0.03000000    0.01000000
   16.19972038  119.65200043    0.03000000    0.01000000
   16.20305634  134.79899597    0.03000000    0.01000000
   16.20611191  120.21600342    0.03000000    0.01000000
   16.20944595  116.94999695    0.03000000    0.01000000
   16.21250153  113.03500366    0.03000000    0.01000000
   16.21583366  113.78099823    0.03000000    0.01000000
   16.21888924  148.88299561    0.03000000    0.03000000
   16.22222328  128.28199768    0.03000000    0.03000000
   16.22249985  123.82099915    0.03000000    0.03000000
   16.22583389  142.79600525    0.03000000    0.03000000
   16.23083305  142.79600525    0.03000000    0.03000000
   16.23500061  136.75500488    0.03000000    0.03000000
   16.23805618  139.95199585    0.03000000    0.03000000
   16.24138832  145.62100220    0.03000000    0.05000000
   16.24444389  131.86000061    0.03000000    0.05000000
   16.24777794  134.74899292    0.03000000    0.05000000
   16.25083351  129.83799744    0.03000000    0.05000000
   16.25416756  136.53500366    0.03000000    0.05000000
   16.25722313  141.53500366    0.03000000    0.13000000
   16.26055527  141.74699402    0.01000000    0.03000000
   16.26361084  138.51499939    0.01000000    0.03000000
   16.26694489  138.47799683    0.01000000    0.03000000
   16.27000046  131.76400757    0.01000000    0.03000000
   16.27249908  123.51999664    0.01000000    0.03000000
   16.27361107  128.42900085    0.01000000    0.03000000
   16.27666664  128.65600586    0.01000000    0.03000000
   16.28194427  128.65600586    0.01000000    0.03000000
   16.28610992  143.05000305    0.01000000    0.03000000
   16.28944397  132.53100586    0.01000000    0.03000000
   16.29249954  107.51699829    0.01000000    0.03000000
   16.29583359  135.44000244    0.01000000    0.03000000
   16.29888916  127.12300110    0.01000000    0.03000000
   16.30222130  123.18299866    0.01000000    0.03000000
   16.30527687  133.92100525    0.01000000    0.03000000
   16.30861092  141.93800354    0.01000000    0.03000000
   16.31166649  124.67600250    0.01000000    0.03000000
   16.31499863  135.19200134    0.01000000    0.03000000
   16.31805611  144.89100647    0.01000000    0.03000000
   16.32139015  140.73300171    0.01000000    0.03000000
   16.32250023  151.86999512    0.01000000    0.03000000
   16.32472229  143.53700256    0.01000000    0.03000000
   16.32777786  142.70500183    0.01000000    0.03000000
   16.33333397  142.70500183    0.01000000    0.03000000
   16.33722305  153.20700073    0.01000000    0.03000000
   16.34055710  147.52900696    0.01000000    0.03000000
   16.34361267  154.44599915    0.01000000    0.03000000
   16.34694481  158.61199951    0.01000000    0.03000000
   16.35000038  147.13900757    0.01000000    0.03000000
   16.35333443  133.05700684    0.01000000    0.03000000
   16.35639000  147.55200195    0.01000000    0.03000000
   16.35972214  136.24699402    0.01000000    0.03000000
   16.36277771  142.88900757    0.01000000    0.03000000
   16.36611176  119.84600067    0.01000000    0.03000000
   16.36916733  127.31800079    0.01000000    0.03000000
   16.37249947  130.78500366    0.01000000    0.03000000
   16.37305641  129.92700195    0.01000000    0.03000000
   16.37611198  134.13900757    0.01000000    0.03000000
   16.37944412  132.63200378    0.01000000    0.03000000
   16.38444519  132.63200378    0.01000000    0.03000000
   16.38861084  135.16700745    0.01000000    0.03000000
   16.39166641  148.42199707    0.01000000    0.03000000
   16.39500046  131.71200562    0.01000000    0.03000000
   16.39805603  146.24600220    0.01000000    0.03000000
   16.40138817  144.44299316    0.01000000    0.03000000
   16.40444374  134.31900024    0.01000000    0.03000000
   16.40777779  131.96899414    0.01000000    0.03000000
   16.41083336  135.53500366    0.01000000    0.03000000
   16.41416550  142.14799500    0.01000000    0.03000000
   16.41722107  125.85900116    0.01000000    0.03000000
   16.42055511  130.09899902    0.01000000    0.03000000
   16.42305565  124.94000244    0.01000000    0.03000000
   16.42388916  133.11700439    0.01000000    0.03000000
   16.42694473  139.19400024    0.01000000    0.03000000
   16.43027687  137.03900146    0.01000000    0.03000000
   16.43555450  137.03900146    0.01000000    0.03000000
   16.43972206  131.59500122    0.01000000    0.03000000
   16.44277763  117.37599945    0.01000000    0.03000000
   16.44610977  145.09599304    0.01000000    0.03000000
   16.44916534  118.10700226    0.01000000    0.03000000
   16.45250130  143.42999268    0.01000000    0.03000000
   16.45555687  133.71800232    0.01000000    0.03000000
   16.45888901  134.47900391    0.01000000    0.03000000
   16.46194458  137.82000732    0.01000000    0.03000000
   16.46527863  136.10299683    0.01000000    0.03000000
   16.46833420  139.40100098    0.01000000    0.03000000
   16.47166634  151.61399841    0.01000000    0.03000000
   16.47305679  148.96400452    0.01000000    0.03000000
   16.47500038  148.15699768    0.01000000    0.03000000
   16.47833443  135.47099304    0.01000000    0.03000000
   16.48139000  128.36000061    0.01000000    0.03000000
   16.48666763  128.36000061    0.01000000    0.03000000
   16.49083328  147.60299683    0.01000000    0.03000000
   16.49416733  147.86199951    0.01000000    0.03000000
   16.49722290  155.44299316    0.01000000    0.03000000
   16.50055504  154.57699585    0.01000000    0.03000000
   16.50361061  149.04400635    0.01000000    0.03000000
   16.50694466  136.58799744    0.01000000    0.03000000
   16.51000023  140.67199707    0.01000000    0.03000000
   16.51333427  118.35900116    0.01000000    0.03000000
   16.51638794  151.05000305    0.01000000    0.03000000
   16.51972198  152.41299438    0.01000000    0.03000000
   16.52277756  158.73899841    0.01000000    0.03000000
   16.52333260  154.59100342    0.01000000    0.03000000
   16.52638817  147.10699463    0.01000000    0.03000000
   16.52972221  146.54800415    0.01000000    0.03000000
   16.53277779  138.56399536    0.01000000    0.03000000
   16.53805542  138.56399536    0.01000000    0.03000000
   16.54194450  137.03900146    0.01000000    0.03000000
   16.54527664  123.54799652    0.01000000    0.03000000
   16.54833221  133.96600342    0.01000000    0.03000000
   16.55166626  123.62699890    0.01000000    0.03000000
   16.55472183  129.24699402    0.01000000    0.03000000
   16.55805397  151.33200073    0.01000000    0.03000000
   16.56110954  129.24000549    0.01000000    0.03000000
   16.56444359  127.65100098    0.01000000    0.03000000
   16.56750107  126.23999786    0.01000000    0.03000000
   16.57083511  135.86300659    0.01000000    0.03000000
   16.57333374  142.09500122    0.01000000    0.03000000
   16.57416725  131.98399353    0.01000000    0.03000000
   16.57750130  139.30900574    0.01000000    0.03000000
   16.58055687  141.00399780    0.01000000    0.03000000
   16.58388901  139.61799622    0.01000000    0.03000000
   16.58916664  139.61799622    0.01000000    0.03000000
   16.59333420  146.39700317    0.01000000    0.03000000
   16.59638977  136.15100098    0.01000000    0.03000000
   16.59972191  137.50399780    0.01000000    0.03000000
   16.60277748  123.27300262    0.01000000    0.03000000
   16.60611153  125.65699768    0.01000000    0.03000000
   16.60916710  126.70800018    0.01000000    0.03000000
   16.61250114  108.73200226    0.01000000    0.03000000
   16.61555672  118.08699799    0.01000000    0.03000000
   16.61888885  105.62699890    0.01000000    0.03000000
   16.62194443  132.85000610    0.01000000    0.03000000
   16.62333298  134.28999329    0.01000000    0.03000000
   16.62527847  124.80500031    0.01000000    0.03000000
   16.62861061  130.26800537    0.01000000    0.03000000
   16.63166618  132.24299622    0.01000000    0.03000000
   16.63500023  142.83299255    0.01000000    0.03000000
   16.64027786  142.83299255    0.01000000    0.03000000
   16.64444351  142.98199463    0.01000000    0.03000000
   16.64749908  121.52500153    0.01000000    0.03000000
   16.65083313  111.84999847    0.01000000    0.03000000
   16.65388870  123.15799713    0.01000000    0.03000000
   16.65722275  154.36000061    0.01000000    0.03000000
   16.66027832  143.94999695    0.01000000    0.03000000
   16.66361046  133.26600647    0.01000000    0.03000000
   16.66666603  126.41799927    0.01000000    0.03000000
   16.67000008  115.34300232    0.01000000    0.03000000
   16.67305565  118.98899841    0.01000000    0.03000000
   16.67361069  123.65899658    0.01000000    0.03000000
   16.67694473  130.40499878    0.01000000    0.03000000
   16.68000031  131.63400269    0.01000000    0.03000000
   16.68333244  130.84300232    0.01000000    0.03000000
   16.68638802  124.74099731    0.01000000    0.03000000
   16.69138718  124.74099731    0.01000000    0.03000000
   16.69555473  121.68499756    0.01000000    0.03000000
   16.69861031  127.10600281    0.01000000    0.03000000
   16.70194435  123.67400360    0.01000000    0.03000000
   16.70499992  117.14099884    0.01000000    0.03000000
   16.70833397  118.80599976    0.01000000    0.03000000
   16.71138954  136.21899414    0.01000000    0.03000000
   16.71472359  128.92399597    0.01000000    0.03000000
   16.71777916  126.81199646    0.01000000    0.03000000
   16.72111130  136.51199341    0.01000000    0.03000000
   16.72361183  133.08000183    0.01000000    0.03000000
   16.72444534  136.46200562    0.01000000    0.03000000
   16.72777748  142.02799988    0.01000000    0.03000000
   16.73083305  133.69599915    0.01000000    0.03000000
   16.73416710  132.41999817    0.01000000    0.03000000
   16.73722267  120.15699768    0.01000000    0.03000000
   16.74250031  120.15699768    0.01000000    0.03000000
   16.74666786  118.86699677    0.01000000    0.03000000
   16.75000000  118.33000183    0.01000000    0.03000000
   16.75305557  125.72799683    0.01000000    0.03000000
   16.75638962  136.05099487    0.01000000    0.03000000
   16.75944519  127.76699829    0.01000000    0.03000000
   16.76277733  129.08999634    0.01000000    0.03000000
   16.76583290  138.41299438    0.01000000    0.03000000
   16.76916695  115.14399719    0.01000000    0.03000000
   16.77222252  127.31500244    0.01000000    0.03000000
   16.77361107  109.40699768    0.01000000    0.03000000
   16.77583313  138.39300537    0.01000000    0.03000000
   16.77888870  128.89599609    0.01000000    0.03000000
   16.78222275  122.69799805    0.01000000    0.03000000
   16.78527641  132.37699890    0.01000000    0.03000000
   16.78861046  113.02300262    0.01000000    0.03000000
   16.79388809  113.02300262    0.01000000    0.03000000
   16.79777718  122.27700043    0.01000000    0.03000000
   16.80111122  119.37200165    0.01000000    0.03000000
   16.80416679  119.04399872    0.01000000    0.03000000
   16.80749893  114.42800140    0.01000000    0.03000000
   16.81055450  136.13600159    0.01000000    0.03000000
   16.81388855  129.26699829    0.01000000    0.03000000
   16.81694603  128.00799561    0.01000000    0.03000000
   16.82027817  118.91999817    0.01000000    0.03000000
   16.82333374  125.58100128    0.01000000    0.03000000
   16.82389069  124.27500153    0.01000000    0.03000000
   16.82722282  134.07499695    0.01000000    0.03000000
   16.83027840  122.28199768    0.01000000    0.03000000
   16.83361244  127.89499664    0.01000000    0.03000000
   16.83666801  146.33999634    0.01000000    0.03000000
   16.84000015  121.11399841    0.01000000    0.03000000
   16.84500122  121.11399841    0.01000000    0.03000000
   16.84916687  134.55900574    0.01000000    0.03000000
   16.85222244  124.79699707    0.01000000    0.03000000
   16.85555649  132.93899536    0.01000000    0.03000000
   16.85861206  123.79199982    0.01000000    0.03000000
   16.86194420  129.81500244    0.01000000    0.03000000
   16.86499977  128.61799622    0.01000000    0.03000000
   16.86833382  127.97299957    0.01000000    0.03000000
   16.87138939  116.14499664    0.01000000    0.03000000
   16.87416649  123.92400360    0.01000000    0.03000000
   16.87500000  121.84400177    0.01000000    0.03000000
   16.87833405  126.21900177    0.01000000    0.03000000
   16.88138962  116.97100067    0.01000000    0.03000000
   16.88472176  116.95200348    0.01000000    0.03000000
   16.88777733  125.13800049    0.01000000    0.03000000
   16.89111137  136.53399658    0.01000000    0.03000000
   16.89611053  136.53399658    0.01000000    0.03000000
   16.90027809  129.67100525    0.01000000    0.03000000
   16.90333366  124.99299622    0.01000000    0.03000000
   16.90666580  127.02500153    0.01000000    0.03000000
   16.90972137  131.84300232    0.01000000    0.03000000
   16.91305542  122.53199768    0.01000000    0.03000000
   16.91611099  124.23899841    0.01000000    0.03000000
   16.91944313  118.04199982    0.01000000    0.03000000
   16.92249870  122.55999756    0.01000000    0.03000000
   16.92416573  109.90100098    0.01000000    0.03000000
   16.92611122  124.12599945    0.01000000    0.03000000
   16.92944336  112.84200287    0.01000000    0.03000000
   16.93249893  103.84700012    0.01000000    0.03000000
   16.93583298  114.70700073    0.01000000    0.03000000
   16.93888855  108.41600037    0.01000000    0.03000000
   16.94222069  105.90299988    0.01000000    0.03000000
   16.94722176  105.90299988    0.01000000    0.03000000
   16.95138931  125.05799866    0.01000000    0.03000000
   16.95472336  126.71700287    0.01000000    0.03000000
   16.95777893  114.97699738    0.01000000    0.03000000
   16.96111107  117.21099854    0.01000000    0.03000000
   16.96416664  111.31600189    0.01000000    0.03000000
   16.96750069  122.25399780    0.01000000    0.03000000
   16.97055626  121.85099792    0.01000000    0.03000000
   16.98777771  135.66099548    0.01000000    0.03000000
   16.99055672  128.86199951    0.01000000    0.03000000
   16.99361229  137.72000122    0.01000000    0.03000000
   16.99861145  137.72000122    0.01000000    0.03000000
   17.00277710  139.90299988    0.01000000    0.03000000
   17.00583267  128.58299255    0.01000000    0.03000000
   17.00916672  141.37800598    0.01000000    0.03000000
   17.01222229  138.05400085    0.01000000    0.03000000
   17.01555634  119.92800140    0.01000000    0.03000000
   17.01861000  123.34100342    0.01000000    0.03000000
   17.02194405  106.79399872    0.01000000    0.03000000
   17.02499962  116.80400085    0.01000000    0.03000000
   17.02833366  129.26199341    0.01000000    0.03000000
   17.03138924  140.23599243    0.01000000    0.03000000
   17.03472137  128.73300171    0.01000000    0.03000000
   17.03777695  123.64499664    0.01000000    0.03000000
   17.03805542  118.62899780    0.01000000    0.03000000
   17.04138756  124.15299988    0.01000000    0.03000000
   17.04444313  110.34899902    0.01000000    0.03000000
   17.04972076  110.34899902    0.01000000    0.03000000
   17.05388832  139.56799316    0.01000000    0.03000000
   17.05722237  140.50100708    0.01000000    0.03000000
   17.06027794  144.24899292    0.01000000    0.03000000
   17.06361008  137.64700317    0.01000000    0.03000000
   17.06666756  127.00000000    0.01000000    0.03000000
   17.07000160  126.04199982    0.01000000    0.03000000
   17.07305717  122.39399719    0.01000000    0.03000000
   17.07638931  131.78799438    0.01000000    0.03000000
   17.07944489  141.49699402    0.01000000    0.03000000
   17.08277893  139.42300415    0.01000000    0.03000000
   17.08583450  142.15199280    0.01000000    0.03000000
   17.08777809  124.65399933    0.01000000    0.03000000
   17.08944511  118.49700165    0.01000000    0.03000000
   17.09250069  130.22799683    0.01000000    0.03000000
   17.09583473  131.94799805    0.01000000    0.03000000
   17.10111237  131.94799805    0.01000000    0.03000000
   17.10499954  135.40899658    0.01000000    0.03000000
   17.10833359  119.18699646    0.01000000    0.03000000
   17.11138916  125.83999634    0.01000000    0.03000000
   17.11472321  125.57800293    0.01000000    0.03000000
   17.11777878  129.67799377    0.01000000    0.03000000
   17.12111092  118.16500092    0.01000000    0.03000000
   17.12416649  126.06900024    0.01000000    0.03000000
   17.12750053  128.93800354    0.01000000    0.03000000
   17.13055611  144.67599487    0.01000000    0.03000000
   17.13388824  141.81599426    0.01000000    0.03000000
   17.13694382  141.43499756    0.01000000    0.03000000
   17.13777733  140.27400208    0.01000000    0.03000000
   17.14055634  138.30400085    0.01000000    0.03000000
   17.14361191  134.77000427    0.01000000    0.03000000
   17.14694405  138.21000671    0.01000000    0.03000000
   17.15222168  138.21000671    0.01000000    0.03000000
   17.15638924  136.73199463    0.01000000    0.03000000
   17.15944481  133.68200684    0.01000000    0.03000000
   17.16277695  123.97100067    0.01000000    0.03000000
   17.16583252  131.44400024    0.01000000    0.03000000
   17.16916656  124.74500275    0.01000000    0.03000000
   17.17222214  119.76899719    0.01000000    0.03000000
   17.17555428  130.19500732    0.01000000    0.03000000
   17.17860985  126.91200256    0.01000000    0.03000000
   17.18194389  130.11599731    0.01000000    0.03000000
   17.18499947  135.70500183    0.01000000    0.03000000
   17.18777657  127.66699982    0.01000000    0.03000000
   17.18861008  139.30299377    0.01000000    0.03000000
   17.19166565  111.00499725    0.01000000    0.03000000
   17.19499969  127.45999908    0.01000000    0.03000000
   17.19805527  108.84799957    0.01000000    0.03000000
   17.20333481  108.84799957    0.01000000    0.03000000
   17.20750046  129.78999329    0.01000000    0.03000000
   17.21055603  119.99099731    0.01000000    0.03000000
   17.21389008  130.37899780    0.01000000    0.03000000
   17.21694565  130.21200562    0.01000000    0.03000000
   17.22027779  126.31199646    0.01000000    0.03000000
   17.22333336  111.85900116    0.01000000    0.03000000
   17.22666740  110.26100159    0.01000000    0.03000000
   17.22972298  123.85399628    0.01000000    0.03000000
   17.23305511  140.20399475    0.01000000    0.03000000
   17.23611069  138.14599609    0.01000000    0.03000000
   17.23777771  128.98199463    0.01000000    0.03000000
   17.23972321  116.88400269    0.01000000    0.03000000
   17.24277878  118.02200317    0.01000000    0.03000000
   17.24611092  137.45899963    0.01000000    0.03000000
   17.24916649  131.66200256    0.01000000    0.03000000
   17.25444412  131.66200256    0.01000000    0.03000000
   17.25861168  129.72399902    0.01000000    0.03000000
   17.26194382  151.02900696    0.01000000    0.03000000
   17.26499939  148.34599304    0.01000000    0.03000000
   17.26833344  125.44799805    0.01000000    0.03000000
   17.27138901  147.58000183    0.01000000    0.03000000
   17.27472115  142.23199463    0.01000000    0.03000000
   17.27777672  143.22099304    0.01000000    0.03000000
   17.28111076  123.60500336    0.01000000    0.03000000
   17.28416634  159.19500732    0.01000000    0.03000000
   17.28750038  135.77299500    0.01000000    0.03000000
   17.28805542  142.87199402    0.01000000    0.03000000
   17.29083252  130.29400635    0.01000000    0.03000000
   17.29416656  134.41299438    0.01000000    0.03000000
   17.29722214  156.20599365    0.01000000    0.03000000
   17.30055428  139.98300171    0.01000000    0.03000000
   17.30583191  139.98300171    0.01000000    0.03000000
   17.30972099  144.04699707    0.01000000    0.03000000
   17.31305504  152.92500305    0.01000000    0.03000000
   17.31611061  145.22099304    0.01000000    0.03000000
   17.31944466  141.98899841    0.01000000    0.03000000
   17.32250023  145.84100342    0.01000000    0.03000000
   17.32583427  128.66799927    0.01000000    0.03000000
   17.32888985  148.65299988    0.01000000    0.03000000
   17.33222389  138.16900635    0.01000000    0.03000000
   17.33527756  146.17799377    0.01000000    0.03000000
   17.33805656  151.30200195    0.01000000    0.03000000
   17.33889008  151.19200134    0.01000000    0.03000000
   17.34222221  145.95399475    0.01000000    0.03000000
   17.34527779  134.68299866    0.01000000    0.03000000
   17.34861183  116.34999847    0.01000000    0.03000000
   17.35166740  131.56199646    0.01000000    0.03000000
   17.35694504  131.56199646    0.01000000    0.03000000
   17.36111069  136.05000305    0.01000000    0.03000000
   17.36416626  136.24400330    0.01000000    0.03000000
   17.36750031  136.47399902    0.01000000    0.03000000
   17.37055588  136.11599731    0.01000000    0.03000000
   17.37388992  130.53100586    0.01000000    0.03000000
   17.37694550  125.18299866    0.01000000    0.03000000
   17.38027763  130.16299438    0.01000000    0.03000000
   17.38333321  127.65699768    0.01000000    0.03000000
   17.38666725  118.14800262    0.01000000    0.03000000
   17.38805580  128.46000671    0.01000000    0.03000000
   17.38999939  121.95099640    0.01000000    0.03000000
   17.39333344  127.03900146    0.01000000    0.03000000
   17.39638901  114.46499634    0.01000000    0.03000000
   17.39972115  131.10699463    0.01000000    0.03000000
   17.40305519  133.46000671    0.01000000    0.03000000
   17.40805435  133.46000671    0.01000000    0.03000000
   17.41222191  113.88700104    0.01000000    0.03000000
   17.41527748  120.73200226    0.01000000    0.03000000
   17.41860962  118.59700012    0.01000000    0.03000000
   17.42166519  126.77700043    0.01000000    0.03000000
   17.42499924  110.69499969    0.01000000    0.03000000
   17.42805481  122.39299774    0.01000000    0.03000000
   17.43138885  128.39300537    0.01000000    0.03000000
   17.43444443  125.65399933    0.01000000    0.03000000
   17.43777657  127.95300293    0.01000000    0.03000000
   17.43833160  116.32499695    0.01000000    0.03000000
   17.44138718  121.02400208    0.01000000    0.03000000
   17.44472122  121.44999695    0.01000000    0.03000000
   17.44777679  126.05000305    0.01000000    0.03000000
   17.45111275  122.77300262    0.01000000    0.03000000
   17.45416832  118.26499939    0.01000000    0.03000000
   17.45916748  118.26499939    0.01000000    0.03000000
   17.46333504  120.64099884    0.01000000    0.03000000
   17.46666718  119.14700317    0.01000000    0.03000000
   17.46972275  124.51499939    0.01000000    0.03000000
   17.47305679  111.79599762    0.01000000    0.03000000
   17.47611237  115.35600281    0.01000000    0.03000000
   17.47944450  109.34100342    0.01000000    0.03000000
   17.48250008  114.12999725    0.01000000    0.03000000
   17.48583412  111.60399628    0.01000000    0.03000000
   17.48833275  113.33399963    0.01000000    0.03000000
   17.48944473  113.98600006    0.01000000    0.03000000
   17.49250031  115.67600250    0.01000000    0.03000000
   17.49555588  115.99299622    0.01000000    0.03000000
   17.49888992  124.96199799    0.01000000    0.03000000
   17.50194359  121.39900208    0.01000000    0.03000000
   17.50527763  122.80899811    0.01000000    0.03000000
   17.51055527  122.80899811    0.01000000    0.03000000
   17.51444435  126.91600037    0.01000000    0.03000000
   17.51777840  129.40899658    0.01000000    0.03000000
   17.52083397  123.83300018    0.01000000    0.03000000
   17.52416611  125.22799683    0.01000000    0.03000000
   17.52722168  121.37400055    0.01000000    0.03000000
   17.53055573   95.24949646    0.01000000    0.03000000
   17.53361130  112.46800232    0.01000000    0.03000000
   17.53694344  117.35700226    0.01000000    0.03000000
   17.53833199  106.76100159    0.01000000    0.03000000
   17.54055595  119.59999847    0.01000000    0.03000000
   17.54361153  128.99899292    0.01000000    0.03000000
   17.54694366  113.20099640    0.01000000    0.03000000
   17.54999924  125.38600159    0.01000000    0.03000000
   17.55333328  114.50800323    0.01000000    0.03000000
   17.55638885  128.50500488    0.01000000    0.03000000
   17.56166649  128.50500488    0.01000000    0.03000000
   17.56583214  131.68499756    0.01000000    0.03000000
   17.56888962  119.11100006    0.01000000    0.03000000
   17.57222366  113.59999847    0.01000000    0.03000000
   17.57527924  124.03500366    0.01000000    0.03000000
   17.57861137  123.17900085    0.01000000    0.03000000
   17.58166695  117.06600189    0.01000000    0.03000000
   17.58500099  115.01499939    0.01000000    0.03000000
   17.58805656  123.78700256    0.01000000    0.03000000
   17.58861160  109.39099884    0.01000000    0.03000000
   17.59166718  126.88899994    0.01000000    0.03000000
   17.59500122  116.05799866    0.01000000    0.03000000
   17.59805679  125.71900177    0.01000000    0.03000000
   17.60138893  117.62599945    0.01000000    0.03000000
   17.60444450  118.41500092    0.01000000    0.03000000
   17.60777855  115.75299835    0.01000000    0.03000000
   17.61277771  115.75299835    0.01000000    0.03000000
   17.61694527  124.23400116    0.01000000    0.03000000
   17.62000084  122.43399811    0.01000000    0.03000000
   17.62333298  119.61199951    0.01000000    0.03000000
   17.62638855  111.32499695    0.01000000    0.03000000
   17.62972260  122.92099762    0.01000000    0.03000000
   17.63277817  126.75599670    0.01000000    0.03000000
   17.63611031  108.85099792    0.01000000    0.03000000
   17.63861084  123.34400177    0.01000000    0.03000000
   17.63944435  123.16500092    0.01000000    0.03000000
   17.64277840  116.44400024    0.01000000    0.03000000
   17.64583397  118.00700378    0.01000000    0.03000000
   17.64916611  117.15399933    0.01000000    0.03000000
   17.65222168  121.50000000    0.01000000    0.03000000
   17.65555573  119.53299713    0.01000000    0.03000000
   17.65861130  124.29900360    0.01000000    0.03000000
   17.66388893  124.29900360    0.01000000    0.03000000
   17.66805458  112.30200195    0.01000000    0.03000000
   17.67138863  123.83000183    0.01000000    0.03000000
   17.67444420  108.73100281    0.01000000    0.03000000
   17.67777634  112.64099884    0.01000000    0.03000000
   17.68083191  119.14299774    0.01000000    0.03000000
   17.68416595  117.15599823    0.01000000    0.03000000
   17.68722153  114.80699921    0.01000000    0.03000000
   17.68861008  121.35800171    0.01000000    0.03000000
   17.69055557  107.53199768    0.01000000    0.03000000
   17.69388771  114.42099762    0.01000000    0.03000000
   17.69694328  121.12899780    0.01000000    0.03000000
   17.70027924  103.39499664    0.01000000    0.03000000
   17.70333481  109.90599823    0.01000000    0.03000000
   17.70666695  106.23699951    0.01000000    0.03000000
   17.70972252  122.20099640    0.01000000    0.03000000
   17.71527863  122.20099640    0.01000000    0.03000000
   17.71916771  120.06800079    0.01000000    0.03000000
   17.72249985  123.19000244    0.01000000    0.03000000
   17.72555542  117.50900269    0.01000000    0.03000000
   17.72888947  113.58999634    0.01000000    0.03000000
   17.73194504  109.25399780    0.01000000    0.03000000
   17.73527718  116.27500153    0.01000000    0.03000000
   17.73833275  102.47399902    0.01000000    0.03000000
   17.73888969  100.57599640    0.01000000    0.03000000
   17.74222183  123.37999725    0.01000000    0.03000000
   17.74527740  107.25199890    0.01000000    0.03000000
   17.74861145  118.59899902    0.01000000    0.03000000
   17.75166702  115.83799744    0.01000000    0.03000000
   17.75499916  118.32399750    0.01000000    0.03000000
   17.75805473  114.24400330    0.01000000    0.03000000
   17.76138878  120.44999695    0.01000000    0.03000000
   17.76638794  120.44999695    0.01000000    0.03000000
   17.77027702  119.27500153    0.01000000    0.03000000
   17.77361107  119.28600311    0.01000000    0.03000000
   17.77666664  112.70899963    0.01000000    0.03000000
   17.78000069  109.24500275    0.01000000    0.03000000
   17.78305435  122.76999664    0.01000000    0.03000000
   17.78638840  107.99800110    0.01000000    0.03000000
   17.78888893  118.06800079    0.01000000    0.03000000
   17.78999901  112.23000336    0.01000000    0.03000000
   17.79305458  121.34999847    0.01000000    0.03000000
   17.79611015  108.29399872    0.01000000    0.03000000
   17.79944420  116.80300140    0.01000000    0.03000000
   17.80249977  112.83300018    0.01000000    0.03000000
   17.80583191  121.80100250    0.01000000    0.03000000
   17.80888748  118.50800323    0.01000000    0.03000000
   17.81222153  106.90699768    0.01000000    0.03000000
   17.81750107  106.90699768    0.01000000    0.03000000
   17.82166672  118.62200165    0.01000000    0.03000000
   17.82472229  116.31999969    0.01000000    0.03000000
   17.82805634  106.10700226    0.01000000    0.03000000
   17.83111191  114.46900177    0.01000000    0.03000000
   17.83444595  105.13899994    0.01000000    0.03000000
   17.83750153   93.73290253    0.01000000    0.03000000
   17.83889008  103.91600037    0.01000000    0.03000000
   17.84111214  108.02500153    0.01000000    0.03000000
   17.84416771  104.76799774    0.01000000    0.03000000
   17.84749985   97.33580017    0.01000000    0.03000000
   17.85055542  102.02300262    0.01000000    0.03000000
   17.85388947  108.13099670    0.01000000    0.03000000
   17.85694504   90.67199707    0.01000000    0.03000000
   17.86027908   99.71659851    0.01000000    0.03000000
   17.86333466  111.58300018    0.01000000    0.03000000
   17.86861038  111.58300018    0.01000000    0.03000000
   17.87277794  108.82900238    0.01000000    0.03000000
   17.87583351  111.18699646    0.01000000    0.03000000
   17.87916756  123.69799805    0.01000000    0.03000000
   17.88222313  108.46900177    0.01000000    0.03000000
   17.88555527  109.68800354    0.01000000    0.03000000
   17.88861084  112.82099915    0.01000000    0.03000000
   17.88916588  110.41899872    0.01000000    0.03000000
   17.89249992  108.25700378    0.01000000    0.03000000
   17.89555550  117.65000153    0.01000000    0.03000000
   17.89888954  116.81700134    0.01000000    0.03000000
   17.90194321  113.56199646    0.01000000    0.03000000
   17.90527725  114.97799683    0.01000000    0.03000000
   17.90833282  120.20700073    0.01000000    0.03000000
   17.91166687  126.44499969    0.01000000    0.03000000
   17.91472244  132.50700378    0.01000000    0.03000000
   17.92000008  132.50700378    0.01000000    0.03000000
   17.92388916  140.10499573    0.01000000    0.03000000
   17.92722130  137.89500427    0.01000000    0.03000000
   17.93027687  122.89299774    0.01000000    0.03000000
   17.93361092  114.14399719    0.01000000    0.03000000
   17.93666649  109.66999817    0.01000000    0.03000000
   17.93916512  114.56800079    0.01000000    0.03000000
   17.94027710  123.76399994    0.01000000    0.03000000
   17.94333267  113.97100067    0.01000000    0.03000000
   17.94666672  120.31099701    0.01000000    0.03000000
   17.94972038  117.22000122    0.01000000    0.03000000
   17.95305634  125.98000336    0.01000000    0.03000000
   17.95611191  117.93000031    0.01000000    0.03000000
   17.95944595  121.29399872    0.01000000    0.03000000
   17.96250153  126.32700348    0.01000000    0.03000000
   17.96583366  118.30699921    0.01000000    0.03000000
   17.97111130  118.30699921    0.01000000    0.03000000
   17.97500038  121.53700256    0.01000000    0.03000000
   17.97833443  122.94200134    0.01000000    0.03000000
   17.98139000  119.33499908    0.01000000    0.03000000
   17.98472214  114.16999817    0.01000000    0.03000000
   17.98777771  122.62200165    0.01000000    0.03000000
   18.00499916  125.98000336    0.01000000    0.03000000
   18.00777817  108.28399658    0.01000000    0.03000000
   18.01083374  106.69699860    0.01000000    0.03000000
   18.01416588  119.61599731    0.01000000    0.03000000
   18.01722145  122.73799896    0.01000000    0.03000000
   18.02222252  122.73799896    0.01000000    0.03000000
   18.02638817  114.23999786    0.01000000    0.03000000
   18.02944374  121.77799988    0.01000000    0.03000000
   18.03277779  123.96299744    0.01000000    0.03000000
   18.03583336  112.10299683    0.01000000    0.03000000
   18.03916550  115.52700043    0.01000000    0.03000000
   18.04222107  114.92700195    0.01000000    0.03000000
   18.04555511  105.23500061    0.01000000    0.03000000
   18.04861069  106.23300171    0.01000000    0.03000000
   18.05194283  116.63800049    0.01000000    0.03000000
   18.05472183  116.49299622    0.01000000    0.03000000
   18.05555534  112.81199646    0.01000000    0.03000000
   18.05861092  122.72799683    0.01000000    0.03000000
   18.06194305  116.32599640    0.01000000    0.03000000
   18.06499863  130.52000427    0.01000000    0.03000000
   18.06833458  121.46600342    0.01000000    0.03000000
   18.07333374  121.46600342    0.01000000    0.03000000
   18.07750130  130.22000122    0.01000000    0.03000000
   18.08055687  119.82800293    0.01000000    0.03000000
   18.08388901  124.99700165    0.01000000    0.03000000
   18.08694458  116.67500305    0.01000000    0.03000000
   18.09027863  122.68599701    0.01000000    0.03000000
   18.09333420  113.64399719    0.01000000    0.03000000
   18.09666824  124.01399994    0.01000000    0.03000000
   18.09972191  112.08699799    0.01000000    0.03000000
   18.10305595  119.43000031    0.01000000    0.03000000
   18.10472298  110.87000275    0.01000000    0.03000000
   18.10666656  100.66799927    0.01000000    0.03000000
   18.10972214  105.15799713    0.01000000    0.03000000
   18.11305618   89.93479919    0.01000000    0.03000000
   18.11611176  109.34999847    0.01000000    0.03000000
   18.11944389  108.79799652    0.01000000    0.03000000
   18.12472153  108.79799652    0.01000000    0.03000000
   18.12861061  118.42299652    0.01000000    0.03000000
   18.13194466  116.59600067    0.01000000    0.03000000
   18.13500023  114.02300262    0.01000000    0.03000000
   18.13833237  125.61799622    0.01000000    0.03000000
   18.14138794  115.23999786    0.01000000    0.03000000
   18.14472198  115.91400146    0.01000000    0.03000000
   18.14777756  115.30899811    0.01000000    0.03000000
   18.15111160  122.89600372    0.01000000    0.03000000
   18.15416718  120.41600037    0.01000000    0.03000000
   18.15472221  134.82600403    0.01000000    0.03000000
   18.15777779  122.76200104    0.01000000    0.03000000
   18.16083336  114.10099792    0.01000000    0.03000000
   18.16416550  117.51399994    0.01000000    0.03000000
   18.16722107  118.04399872    0.01000000    0.03000000
   18.17055511  127.59500122    0.01000000    0.03000000
   18.17583275  127.59500122    0.01000000    0.03000000
   18.18000031  131.63499451    0.01000000    0.03000000
   18.18305397  116.09300232    0.01000000    0.03000000
   18.18638802  114.91300201    0.01000000    0.03000000
   18.18944359  106.55599976    0.01000000    0.03000000
   18.19277763  118.43599701    0.01000000    0.03000000
   18.19583321  119.26200104    0.01000000    0.03000000
   18.19916534  118.03900146    0.01000000    0.03000000
   18.20222282  115.01999664    0.01000000    0.03000000
   18.20499992  119.05000305    0.01000000    0.03000000
   18.20583344  116.08300018    0.01000000    0.03000000
   18.20916748  122.33799744    0.01000000    0.03000000
