    HOUR (UT)   FLARE FACTOR    SKY TESTER    SUN TESTER
   11.28083324   -1.00000000   -1.00000000   -1.00000000
   11.30111122   79.94100189    3.25000000    2.39000010
   11.30694485   80.87439728    3.25000000    2.39000010
   11.31000042   76.37039948    3.23000002    2.39000010
   11.31333351   79.81950378    3.23000002    2.39000010
   11.31638908   77.83930206    3.23000002    2.39000010
   11.31972218   75.75260162    3.21000004    2.39000010
   11.32277775   84.49040222    3.21000004    2.39000010
   11.32611084   82.24890137    3.21000004    2.40000010
   11.32916641   79.80130005    3.21000004    2.40000010
   11.33249950   80.98449707    3.21000004    2.40000010
   11.33444405   81.09760284    3.21000004    2.40000010
   11.33611107   83.46980286    3.21000004    2.40000010
   11.33916664   79.39669800    3.20000005    2.40000010
   11.34249973   84.78980255    3.20000005    2.40000010
   11.34555531   84.60510254    3.18000007    2.40000010
   11.34888840   79.37239838    3.18000007    2.42000008
   11.35194492   79.39219666    3.16000009    2.40000010
   11.35527802   78.80329895    3.14000010    2.40000010
   11.35833359   81.48509979    3.14000010    2.40000010
   11.36166668   83.67400360    3.14000010    2.40000010
   11.36472225   79.84410095    3.14000010    2.40000010
   11.36805534   82.07790375    3.14000010    2.42000008
   11.37111092   82.27519989    3.11999989    2.42000008
   11.37444496   81.86830139    3.11999989    2.42000008
   11.37750053   79.95400238    3.11999989    2.42000008
   11.38083363   80.22239685    3.11999989    2.42000008
   11.38388920   84.38379669    3.09999990    2.42000008
   11.38444424   86.36019897    3.09999990    2.42000008
   11.38749981   80.08789825    3.09999990    2.44000006
   11.39055538   80.31790161    3.07999992    2.44000006
   11.39388847   81.78119659    3.07999992    2.44000006
   11.39694405   82.35780334    3.05999994    2.44000006
   11.40027714   84.19750214    3.03999996    2.42000008
   11.40361118   81.73989868    3.03999996    2.42000008
   11.40694427   80.25240326    3.01999998    2.42000008
   11.40999985   84.75710297    3.00000000    2.42000008
   11.41333294   79.53849792    3.00000000    2.46000004
   11.41638851   79.41329956    2.98000002    2.46000004
   11.41972256   82.87390137    2.98000002    2.46000004
   11.42277813   82.10659790    2.98000002    2.46000004
   11.42611122   82.37249756    2.96000004    2.46000004
   11.42916679   79.20680237    2.96000004    2.46000004
   11.43249989   77.46980286    2.96000004    2.46000004
   11.43472195   80.00469971    2.94000006    2.46000004
   11.43611145   77.21700287    2.94000006    2.46000004
   11.43944454   80.91539764    2.94000006    2.46000004
   11.44250011   79.48310089    2.93000007    2.46000004
   11.44583321   79.90090179    2.93000007    2.46000004
   11.44888878   76.29149628    2.93000007    2.46000004
   11.45222187   77.34239960    2.91000009    2.46000004
   11.45527744   83.28970337    2.91000009    2.48000002
   11.45861053   78.43460083    2.91000009    2.46000004
   11.46166611   82.40409851    2.91000009    2.48000002
   11.46500015   78.05069733    2.89000010    2.48000002
   11.46805477   82.55249786    2.91000009    2.46000004
   11.47138882   79.03199768    2.89000010    2.46000004
   11.47444439   83.84220123    2.89000010    2.46000004
   11.47777748   83.25430298    2.89000010    2.48000002
   11.48083305   80.42120361    2.89000010    2.46000004
   11.48388958   82.78649902    2.89000010    2.48000002
   11.48444462   88.36519623    2.89000010    2.48000002
   11.48750019   78.58190155    2.89000010    2.48000002
   11.49055576   88.96829987    2.89000010    2.46000004
   11.49388885   80.04049683    2.89000010    2.46000004
   11.49694443   83.34210205    2.89000010    2.48000002
   11.50027752   82.88130188    2.89000010    2.48000002
   11.50333309   85.11540222    2.89000010    2.48000002
   11.50666714   82.14959717    2.86999989    2.48000002
   11.50972176   81.41919708    2.86999989    2.48000002
   11.51305580   82.04450226    2.86999989    2.48000002
   11.51611137   79.85119629    2.84999990    2.48000002
   11.51944447   79.44750214    2.86999989    2.48000002
   11.52250004   86.04170227    2.84999990    2.48000002
   11.52583313   85.07700348    2.84999990    2.48000002
   11.52888870   90.41410065    2.84999990    2.48000002
   11.53222179   89.35099792    2.84999990    2.48000002
   11.53444481   89.83170319    2.84999990    2.48000002
   11.53583336   84.58509827    2.82999992    2.50000000
   11.53888893   83.31700134    2.84999990    2.48000002
   11.54222298   82.02189636    2.84999990    2.48000002
   11.54527855   81.24389648    2.82999992    2.50000000
   11.54861164   84.27649689    2.82999992    2.50000000
   11.55166721   82.36689758    2.84999990    2.48000002
   11.55500031   84.77380371    2.84999990    2.48000002
   11.55805588   87.43319702    2.84999990    2.48000002
   11.56138897   81.10759735    2.84999990    2.48000002
   11.56444454   86.03659821    2.84999990    2.50000000
   11.56777763   78.70870209    2.84999990    2.48000002
   11.57083321   79.78359985    2.86999989    2.48000002
   11.57416630   82.54299927    2.84999990    2.48000002
   11.57722187   84.68090057    2.84999990    2.50000000
   11.58055592   81.34950256    2.84999990    2.48000002
   11.58361053   79.08679962    2.84999990    2.48000002
   11.58444405   79.68049622    2.84999990    2.48000002
   11.58722210   79.96389771    2.82999992    2.50000000
   11.59027767   81.53970337    2.80999994    2.50000000
   11.59361076   87.57099915    2.80999994    2.50000000
   11.59666634   85.05429840    2.78999996    2.50000000
   11.60000038   76.57550049    2.76999998    2.50000000
   11.60305595   92.50910187    2.76999998    2.51999998
   11.60638905   83.27100372    2.75000000    2.51999998
   11.60944462   84.21640015    2.73000002    2.51999998
   11.61277771   81.76879883    2.73000002    2.50000000
   11.61583328   88.36409760    2.73000002    2.51999998
   11.61916637   84.68379974    2.71000004    2.51999998
   11.62222195   88.93000031    2.71000004    2.51999998
   11.62555599   85.81759644    2.71000004    2.53999996
   11.62861156   85.39040375    2.69000006    2.53999996
   11.63194466   92.21320343    2.69000006    2.51999998
   11.63472176   84.53820038    2.67000008    2.51999998
   11.63555527   82.09989929    2.67000008    2.51999998
   11.63861084   85.18759918    2.67000008    2.51999998
   11.64194393   81.64910126    2.69000006    2.51999998
   11.64499950   78.09690094    2.69000006    2.51999998
   11.64833355   83.90699768    2.69000006    2.51999998
   11.65138817   88.07730103    2.69000006    2.51999998
   11.65472221   79.61029816    2.69000006    2.51999998
   11.65777779   78.52320099    2.69000006    2.51999998
   11.66111088   83.53459930    2.69000006    2.53999996
   11.66416645   83.19580078    2.69000006    2.51999998
   11.66750050   84.04419708    2.69000006    2.51999998
   11.67055607   83.18710327    2.69000006    2.51999998
   11.67388916   88.09829712    2.69000006    2.51999998
   11.67694473   78.99890137    2.69000006    2.51999998
   11.68027782   84.07469940    2.69000006    2.53999996
   11.68333340   89.90460205    2.69000006    2.51999998
   11.68472195   82.20860291    2.69000006    2.51999998
   11.68694496   76.96920013    2.69000006    2.51999998
   11.69027805   85.93080139    2.69000006    2.51999998
   11.69333363   82.39270020    2.69000006    2.51999998
   11.69666672   86.38040161    2.69000006    2.51999998
   11.69972229   78.91339874    2.69000006    2.51999998
   11.70305538   83.05690002    2.69000006    2.53999996
   11.70611095   87.26290131    2.67000008    2.51999998
   11.70944405   90.23639679    2.67000008    2.51999998
   11.71249962   88.82710266    2.69000006    2.53999996
   11.71583271   85.01550293    2.67000008    2.53999996
   11.71888828   91.70249939    2.67000008    2.53999996
   11.72222137   83.82089996    2.66000009    2.51999998
   11.72527695   82.55419922    2.66000009    2.53999996
   11.72861099   89.13430023    2.66000009    2.53999996
   11.73166656   84.57070160    2.66000009    2.53999996
   11.73472214   88.85359955    2.66000009    2.51999998
   11.73527813   83.67400360    2.66000009    2.51999998
   11.73861122   87.42790222    2.66000009    2.53999996
   11.74166679   81.52110291    2.64000010    2.53999996
   11.74499989   82.99520111    2.64000010    2.53999996
   11.74805546   95.75099945    2.64000010    2.53999996
   11.75138855   92.77980042    2.64000010    2.55999994
   11.75444412   87.34870148    2.61999989    2.55999994
   11.75777817   82.38259888    2.64000010    2.53999996
   11.76083374   90.04270172    2.64000010    2.51999998
   11.76416683   83.28589630    2.64000010    2.53999996
   11.76722240   91.96679688    2.61999989    2.55999994
   11.77055550   81.90519714    2.61999989    2.55999994
   11.77361107   90.73259735    2.61999989    2.55999994
   11.77694416   82.63169861    2.59999990    2.55999994
   11.77999973   85.98899841    2.59999990    2.55999994
   11.78333378   82.33540344    2.57999992    2.55999994
   11.78472233   94.58630371    2.57999992    2.55999994
   11.78666687   92.25330353    2.57999992    2.55999994
   11.79000092   90.17859650    2.55999994    2.55999994
   11.79305553   85.18419647    2.55999994    2.55999994
   11.79638958   93.49680328    2.55999994    2.55999994
   11.79944515   80.66619873    2.55999994    2.55999994
   11.80277824   82.42340088    2.53999996    2.55999994
   11.80583382   81.65350342    2.51999998    2.55999994
   11.80916691   83.12619781    2.53999996    2.55999994
   11.81222248   84.65670013    2.51999998    2.55999994
   11.81555557   86.91339874    2.51999998    2.57999992
   11.81861115   92.84429932    2.51999998    2.57999992
   11.82194424   85.99739838    2.51999998    2.57999992
   11.82499981   81.20890045    2.50000000    2.55999994
   11.82833290   91.46620178    2.50000000    2.57999992
   11.83138847   83.54769897    2.50000000    2.57999992
   11.83472157   77.55719757    2.53999996    2.59999990
   11.83500004   85.17769623    2.53999996    2.59999990
   11.83833313   87.42590332    2.51999998    2.57999992
   11.84138870   89.96749878    2.51999998    2.57999992
   11.84472179   83.29160309    2.53999996    2.55999994
   11.84777737   80.45980072    2.53999996    2.57999992
   11.85111141   87.23439789    2.53999996    2.59999990
   11.85416698   89.62139893    2.53999996    2.57999992
   11.85750008   89.72329712    2.53999996    2.55999994
   11.86055565   85.24729919    2.51999998    2.57999992
   11.86388969   81.81310272    2.51999998    2.57999992
   11.86694431   88.50420380    2.51999998    2.55999994
   11.87027836   85.84480286    2.53999996    2.57999992
   11.87333393   81.10019684    2.51999998    2.57999992
   11.87666702   81.21959686    2.51999998    2.57999992
   11.87972260   88.34040070    2.50000000    2.59999990
   11.88305569   84.76679993    2.50000000    2.57999992
   11.88472176   84.68319702    2.50000000    2.59999990
   11.88638878   80.22859955    2.48000002    2.59999990
   11.88972187   77.36620331    2.50000000    2.59999990
   11.89277744   86.70559692    2.48000002    2.59999990
   11.89611053   85.97709656    2.48000002    2.59999990
   11.89916611   84.91139984    2.50000000    2.59999990
   11.90249920   87.33029938    2.50000000    2.59999990
   11.90555477   88.26450348    2.51999998    2.59999990
   11.90888882   89.38490295    2.53999996    2.59999990
   11.91194439   81.81600189    2.55999994    2.59999990
   11.91527748   83.93019867    2.55999994    2.59999990
   11.91833401   88.79429626    2.57999992    2.57999992
   11.92166710   92.03379822    2.57999992    2.59999990
   11.92472267   85.06880188    2.59999990    2.59999990
   11.92805576   88.30819702    2.59999990    2.59999990
   11.93111134   90.27510071    2.59999990    2.59999990
   11.93444443   87.02010345    2.61999989    2.59999990
   11.93500042   89.16840363    2.61999989    2.59999990
   11.93805599   86.54470062    2.59999990    2.59999990
   11.94138908   86.02380371    2.59999990    2.57999992
   11.94444466   81.12960052    2.59999990    2.59999990
   11.94777775   91.63719940    2.57999992    2.59999990
   11.95083332   90.09660339    2.57999992    2.59999990
   11.95416641   91.53060150    2.57999992    2.59999990
   11.95722198   94.29389954    2.57999992    2.59999990
   11.96055508   88.53589630    2.57999992    2.59999990
   11.96361065   85.65650177    2.57999992    2.59999990
   11.96694374   82.56970215    2.55999994    2.59999990
   11.96999931   88.30940247    2.55999994    2.61999989
   11.97333336   87.15840149    2.55999994    2.59999990
   11.97638798   86.50689697    2.55999994    2.59999990
   11.97972202   84.65899658    2.53999996    2.59999990
   11.98277760   84.98780060    2.53999996    2.59999990
   11.98500061   82.22429657    2.53999996    2.61999989
   11.98638916   79.58239746    2.53999996    2.61999989
   11.98972225   92.55619812    2.51999998    2.59999990
   11.99277782   87.67590332    2.51999998    2.59999990
   11.99611092   82.67600250    2.53999996    2.61999989
   11.99916649   83.76419830    2.51999998    2.59999990
   12.00249958   82.48410034    2.53999996    2.59999990
   12.00555515   81.02279663    2.55999994    2.59999990
   12.00861073   84.74230194    2.55999994    2.57999992
   12.01194477   78.06590271    2.57999992    2.59999990
   12.01500034   87.68669891    2.57999992    2.57999992
   12.01833344   90.22959900    2.57999992    2.59999990
   12.02138901   87.09590149    2.57999992    2.59999990
   12.02499962   90.23419952    2.57999992    2.59999990
   12.02861118   87.36869812    2.57999992    2.59999990
   12.03194427   83.65090179    2.57999992    2.59999990
   12.03500080   87.62220001    2.59999990    2.59999990
   12.03555584   90.88140106    2.59999990    2.59999990
   12.04027843   85.81819916    2.59999990    2.59999990
   12.04444504   87.14859772    2.57999992    2.59999990
   12.04833412   82.81279755    2.59999990    2.59999990
   12.05194473   83.70819855    2.59999990    2.59999990
   12.05611134   90.67189789    2.59999990    2.59999990
   12.05972195   85.23090363    2.57999992    2.61999989
   12.06361103   96.25140381    2.55999994    2.59999990
   12.06750011   86.97070313    2.53999996    2.59999990
   12.07111073   83.63220215    2.53999996    2.59999990
   12.07444477   84.20610046    2.51999998    2.59999990
   12.07833290   91.07420349    2.50000000    2.59999990
   12.08194447   89.87239838    2.50000000    2.59999990
   12.08527756   94.52089691    2.50000000    2.61999989
   12.08555508   90.39409637    2.50000000    2.61999989
   12.08888817   86.64540100    2.48000002    2.61999989
   12.09194374   85.43309784    2.50000000    2.59999990
   12.09527779   89.46839905    2.48000002    2.61999989
   12.09833336   82.94760132    2.48000002    2.61999989
   12.10166740   88.64720154    2.48000002    2.64000010
   12.10500050   81.01730347    2.46000004    2.64000010
   12.10805607   87.60420227    2.46000004    2.64000010
   12.11138916   88.96499634    2.46000004    2.61999989
   12.11472225   87.14679718    2.46000004    2.64000010
   12.11805534   90.62770081    2.46000004    2.61999989
   12.12138939   83.85949707    2.46000004    2.64000010
   12.12444496   86.78919983    2.46000004    2.64000010
   12.12777805   86.64779663    2.46000004    2.61999989
   12.13111115   81.47109985    2.44000006    2.64000010
   12.13444424   88.39929962    2.42000008    2.64000010
   12.13527775   83.65499878    2.42000008    2.64000010
   12.13833332   81.12999725    2.44000006    2.64000010
   12.14138889   86.53399658    2.42000008    2.61999989
   12.14472198   87.99060059    2.44000006    2.64000010
   12.14777756   78.26290131    2.40000010    2.64000010
   12.15111065   94.10800171    2.40000010    2.64000010
   12.15444374   87.60880280    2.39000010    2.64000010
   12.15749931   80.65260315    2.39000010    2.61999989
   12.16111088   75.19760132    2.36999989    2.64000010
   12.16583252   78.58380127    2.36999989    2.64000010
   12.17000008   76.98850250    2.34999990    2.66000009
   12.17388916   80.28679657    2.34999990    2.66000009
   12.17722225   89.63009644    2.36999989    2.67000008
   12.18055630   87.28669739    2.34999990    2.64000010
   12.18388939   82.08650208    2.32999992    2.66000009
   12.18527794   82.48130035    2.36999989    2.64000010
   12.18750000   78.67400360    2.34999990    2.66000009
   12.19083309   79.43820190    2.36999989    2.66000009
   12.19416714   78.56179810    2.34999990    2.66000009
   12.19722271   84.80719757    2.34999990    2.66000009
   12.20055580   83.52179718    2.34999990    2.66000009
   12.20361137   80.51740265    2.34999990    2.66000009
   12.20694447   84.50370026    2.34999990    2.66000009
   12.21000004   82.97789764    2.32999992    2.67000008
   12.21333313   79.76219940    2.32999992    2.67000008
   12.21638870   80.87390137    2.34999990    2.67000008
   12.21972179   81.44480133    2.32999992    2.67000008
   12.22277737   82.13400269    2.32999992    2.66000009
   12.22611046   78.75140381    2.34999990    2.67000008
   12.22916603   83.33460236    2.36999989    2.66000009
   12.23249912   78.87229919    2.36999989    2.67000008
   12.23527813   78.71640015    2.34999990    2.67000008
   12.23611164   78.57730103    2.34999990    2.67000008
   12.23944473   77.61530304    2.30999994    2.67000008
   12.24250031   82.76190186    2.32999992    2.67000008
   12.24583340   80.86229706    2.30999994    2.67000008
   12.24888897   78.60479736    2.28999996    2.67000008
   12.25222206   84.80159760    2.26999998    2.67000008
   12.25527763   89.24569702    2.26999998    2.67000008
   12.25861073   86.16210175    2.28999996    2.67000008
   12.26166630   84.24240112    2.28999996    2.69000006
   12.26500034   78.54799652    2.28999996    2.67000008
   12.26805496   84.93740082    2.28999996    2.69000006
   12.27138901   80.20809937    2.28999996    2.67000008
   12.27444458   75.24839783    2.30999994    2.67000008
   12.27777767   79.21350098    2.30999994    2.69000006
   12.28083324   75.54010010    2.28999996    2.69000006
   12.28416729   82.83979797    2.30999994    2.69000006
   12.28527832   83.60849762    2.28999996    2.69000006
   12.28750038   77.36370087    2.30999994    2.67000008
   12.29083347   84.73750305    2.28999996    2.69000006
   12.29388905   79.42400360    2.28999996    2.69000006
   12.29722309   87.06849670    2.28999996    2.69000006
   12.30027771   83.53910065    2.28999996    2.69000006
   12.31999969   84.58059692    2.23000002    2.69000006
   12.32305527   79.05719757    2.25000000    2.69000006
   12.32638836   83.20169830    2.25000000    2.69000006
   12.32944393   82.82849884    2.23000002    2.69000006
   12.33277798   81.43129730    2.23000002    2.69000006
   12.33527756   81.04309845    2.21000004    2.69000006
   12.33638859   79.59279633    2.23000002    2.71000004
   12.33944416   81.84809875    2.25000000    2.69000006
   12.34277725   84.55460358    2.21000004    2.69000006
   12.34583282   82.59100342    2.23000002    2.69000006
   12.34916592   79.24520111    2.23000002    2.69000006
   12.35222244   79.24210358    2.25000000    2.71000004
   12.35555553   80.11509705    2.23000002    2.71000004
   12.35861111   79.95890045    2.25000000    2.69000006
   12.36194515   79.29799652    2.25000000    2.69000006
   12.36500072   82.63310242    2.25000000    2.69000006
   12.36833382   81.67929840    2.23000002    2.71000004
   12.37138939   74.64569855    2.26999998    2.69000006
   12.37472248   78.68099976    2.26999998    2.71000004
   12.37777805   80.13539886    2.25000000    2.71000004
   12.38111115   82.92549896    2.26999998    2.69000006
   12.38416672   80.90260315    2.28999996    2.71000004
   12.38527775   80.10849762    2.25000000    2.71000004
   12.38777733   86.45809937    2.26999998    2.71000004
   12.39083290   80.93840027    2.26999998    2.71000004
   12.39416695   82.74620056    2.25000000    2.71000004
   12.39722252   88.63040161    2.25000000    2.71000004
   12.40055561   79.99349976    2.25000000    2.71000004
   12.40361118   86.16649628    2.25000000    2.71000004
   12.40694427   80.04540253    2.23000002    2.71000004
   12.40999985   87.46790314    2.21000004    2.71000004
   12.41333294   90.12789917    2.21000004    2.71000004
   12.41638851   80.92639923    2.19000006    2.71000004
   12.41972256   80.63899994    2.17000008    2.71000004
   12.42277813   84.79100037    2.19000006    2.71000004
   12.42611122   79.13980103    2.17000008    2.71000004
   12.42916679   83.05310059    2.19000006    2.71000004
   12.43249989   85.57679749    2.15000010    2.71000004
   12.43527794   86.82299805    2.15000010    2.73000002
   12.43611145   81.76699829    2.15000010    2.73000002
   12.43916702   82.37139893    2.15000010    2.73000002
   12.44250011   86.05190277    2.15000010    2.73000002
   12.44555569   76.73010254    2.17000008    2.73000002
   12.44888878   83.53469849    2.17000008    2.71000004
   12.45194435   84.59870148    2.17000008    2.71000004
   12.45527744   83.48580170    2.17000008    2.73000002
   12.45833302   83.07350159    2.21000004    2.71000004
   12.46166611   82.23660278    2.17000008    2.73000002
   12.46472168   84.61550140    2.21000004    2.71000004
   12.46805477   85.95269775    2.19000006    2.73000002
   12.47111034   85.26850128    2.23000002    2.71000004
   12.47444439   84.56780243    2.21000004    2.71000004
   12.47749996   88.76850128    2.21000004    2.71000004
   12.48083305   85.65720367    2.21000004    2.73000002
   12.48388958   81.64900208    2.21000004    2.71000004
   12.48527813   81.60289764    2.19000006    2.73000002
   12.48750019   84.86530304    2.21000004    2.75000000
   12.49055576   81.69940186    2.19000006    2.73000002
   12.49388885   80.54560089    2.21000004    2.75000000
   12.49694443   82.62110138    2.21000004    2.71000004
   12.50027752   77.77780151    2.17000008    2.73000002
   12.50333309   83.94110107    2.17000008    2.73000002
   12.50666714   81.75640106    2.15000010    2.73000002
   12.50972176   82.25270081    2.15000010    2.71000004
   12.51305580   82.53350067    2.13000011    2.73000002
   12.51611137   83.43959808    2.13000011    2.75000000
   12.51944447   83.07929993    2.13000011    2.73000002
   12.52250004   77.29170227    2.13000011    2.75000000
   12.52583313   86.85780334    2.15000010    2.73000002
   12.52888870   76.97409821    2.13000011    2.73000002
   12.53222179   84.42240143    2.15000010    2.73000002
   12.53527832   80.29350281    2.13000011    2.75000000
   12.53583336   80.07070160    2.13000011    2.73000002
   12.53888893   84.46630096    2.15000010    2.75000000
   12.54222298   85.85959625    2.13000011    2.71000004
   12.54527855   82.36019897    2.13000011    2.76999998
   12.54861164   79.67030334    2.17000008    2.73000002
   12.55166721   83.40149689    2.17000008    2.73000002
   12.55500031   82.99919891    2.17000008    2.71000004
   12.55805588   80.17289734    2.19000006    2.75000000
   12.56138897   82.54630280    2.21000004    2.75000000
   12.56444454   86.43920135    2.23000002    2.73000002
   12.56777763   78.11810303    2.21000004    2.75000000
   12.57083321   77.65409851    2.23000002    2.73000002
   12.57416630   86.57980347    2.25000000    2.71000004
   12.57750034   79.52610016    2.23000002    2.73000002
   12.58055592   81.32859802    2.21000004    2.73000002
   12.58388901   81.90309906    2.23000002    2.73000002
   12.58555508   82.27330017    2.21000004    2.73000002
   12.58722210   81.98889923    2.23000002    2.73000002
   12.59027767   82.25939941    2.21000004    2.73000002
   12.59361076   78.16339874    2.21000004    2.71000004
   12.59666634   79.46070099    2.19000006    2.73000002
   12.60000038   81.89689636    2.19000006    2.73000002
   12.60305595   80.30470276    2.19000006    2.73000002
   12.60638905   76.40550232    2.21000004    2.73000002
   12.60944462   83.38089752    2.19000006    2.73000002
   12.61277771   79.70999908    2.21000004    2.73000002
   12.61583328   77.40460205    2.23000002    2.73000002
   12.61916637   76.47190094    2.21000004    2.73000002
   12.62222195   81.17220306    2.19000006    2.73000002
   12.62555599   77.04910278    2.23000002    2.73000002
   12.62861156   76.23339844    2.23000002    2.73000002
   12.63194466   79.02100372    2.25000000    2.73000002
   12.63500023   76.28980255    2.23000002    2.75000000
   12.63555527   80.34049988    2.23000002    2.75000000
   12.63888836   77.12979889    2.26999998    2.73000002
   12.64194393   76.10980225    2.26999998    2.75000000
   12.64527798   76.80390167    2.26999998    2.75000000
   12.64833355   76.66690063    2.26999998    2.73000002
   12.65166664   80.90489960    2.26999998    2.75000000
   12.65472221   74.95330048    2.26999998    2.73000002
   12.65805531   83.51119995    2.23000002    2.75000000
   12.66111088   79.56960297    2.25000000    2.75000000
   12.66444397   79.13790131    2.26999998    2.71000004
   12.66750050   88.34400177    2.25000000    2.75000000
   12.67083359   83.02619934    2.23000002    2.73000002
   12.67388916   84.08239746    2.26999998    2.73000002
   12.67722225   81.82640076    2.26999998    2.73000002
   12.68027782   75.54350281    2.21000004    2.75000000
   12.68361092   78.70120239    2.21000004    2.73000002
   12.68555546   81.92330170    2.21000004    2.73000002
   12.68722248   81.59609985    2.19000006    2.75000000
   12.69027805   83.11080170    2.21000004    2.75000000
   12.69361115   76.71820068    2.19000006    2.76999998
   12.69666672   80.29190063    2.15000010    2.75000000
   12.69999981   78.60340118    2.17000008    2.76999998
   12.70305538   78.03510284    2.17000008    2.75000000
   12.70638847   77.44609833    2.17000008    2.76999998
   12.70944405   79.15219879    2.15000010    2.75000000
   12.71277714   83.03780365    2.19000006    2.76999998
   12.71583271   86.11180115    2.17000008    2.76999998
   12.71916580   84.17839813    2.19000006    2.75000000
   12.72222137   82.65209961    2.17000008    2.75000000
   12.72555542   86.21009827    2.21000004    2.75000000
   12.72861099   81.76889801    2.17000008    2.76999998
   12.73194408   82.45700073    2.19000006    2.75000000
   12.73500061   85.41220093    2.17000008    2.75000000
   12.73555565   84.29579926    2.17000008    2.75000000
   12.73861122   91.13670349    2.19000006    2.76999998
   12.74166679   92.45580292    2.19000006    2.76999998
   12.74499989   83.07779694    2.15000010    2.76999998
   12.74805546   91.56819916    2.21000004    2.76999998
   12.75138855   88.19219971    2.17000008    2.76999998
   12.75444412   88.97000122    2.21000004    2.76999998
   12.75777817   95.10140228    2.19000006    2.76999998
   12.76083374   76.19860077    2.17000008    2.78999996
   12.76416683   83.62400055    2.15000010    2.76999998
   12.76722240   81.85679626    2.15000010    2.76999998
   12.77055550   76.40619659    2.11999989    2.75000000
   12.77361107   83.37989807    2.11999989    2.76999998
   12.77694416   88.96499634    2.11999989    2.76999998
   12.77999973   85.07219696    2.09999990    2.76999998
   12.78333378   78.75740051    2.09999990    2.78999996
   12.78555584   94.52929688    2.07999992    2.78999996
   12.78694534   82.74960327    2.09999990    2.76999998
   12.79000092   82.14070129    2.09999990    2.78999996
   12.79333401   80.39129639    2.07999992    2.78999996
   12.79638958   82.57270050    2.07999992    2.78999996
   12.79972267   94.96829987    2.09999990    2.78999996
   12.80277824   85.38680267    2.07999992    2.78999996
   12.80611134   81.78430176    2.09999990    2.78999996
   12.80916691   83.82099915    2.13000011    2.78999996
   12.81250000   82.95330048    2.11999989    2.76999998
   12.81555557   78.18789673    2.13000011    2.78999996
   12.81888866   81.44069672    2.15000010    2.78999996
   12.82194424   81.92780304    2.15000010    2.78999996
   12.82527733   88.14009857    2.17000008    2.76999998
   12.82833290   79.67530060    2.19000006    2.78999996
   12.83166695   79.98570251    2.17000008    2.78999996
   12.83472157   81.97389984    2.17000008    2.76999998
   12.83555508   86.52559662    2.19000006    2.76999998
   12.83833313   85.34500122    2.17000008    2.78999996
   12.84138870   86.68800354    2.19000006    2.78999996
   12.84472179   82.23560333    2.17000008    2.76999998
   12.84777737   82.83390045    2.19000006    2.78999996
   12.85111141   85.00520325    2.15000010    2.76999998
   12.85416698   86.53810120    2.17000008    2.78999996
   12.85750008   82.75769806    2.15000010    2.78999996
   12.86055565   81.42929840    2.15000010    2.78999996
   12.86388969   79.14430237    2.11999989    2.78999996
   12.86694431   88.08940125    2.09999990    2.78999996
   12.87027836   85.45999908    2.09999990    2.78999996
   12.87333393   82.83460236    2.07999992    2.78999996
   12.87666702   81.59960175    2.09999990    2.78999996
   12.87972260   80.12760162    2.05999994    2.78999996
   12.88305569   81.14340210    2.05999994    2.78999996
   12.88555527   85.59470367    2.07999992    2.78999996
   12.88666630   83.30079651    2.07999992    2.78999996
   12.88972187   90.94570160    2.05999994    2.80999994
   12.89305496   90.73989868    2.07999992    2.80999994
   12.89611053   94.96769714    2.11999989    2.78999996
   12.89944458   81.28119659    2.09999990    2.80999994
   12.90249920   81.01879883    2.11999989    2.80999994
   12.90583324   81.44059753    2.13000011    2.80999994
   12.90888882   88.92590332    2.09999990    2.80999994
   12.91222191   80.01029968    2.15000010    2.80999994
   12.91527748   82.01390076    2.13000011    2.80999994
   12.91861153   82.31980133    2.13000011    2.78999996
   12.92166710   82.72519684    2.15000010    2.78999996
   12.92500019   79.81330109    2.13000011    2.78999996
   12.92805576   79.42870331    2.15000010    2.80999994
   12.93138885   81.69730377    2.17000008    2.80999994
   12.93444443   76.27670288    2.17000008    2.80999994
   12.93555546   84.68800354    2.17000008    2.80999994
   12.93805599   78.24520111    2.19000006    2.80999994
   12.94111156   80.42070007    2.15000010    2.78999996
   12.94444466   79.03939819    2.15000010    2.80999994
   12.94750023   75.46959686    2.15000010    2.78999996
   12.95083332   74.40270233    2.09999990    2.80999994
   12.95388889   81.10700226    2.09999990    2.80999994
   12.95722198   79.72930145    2.11999989    2.78999996
   12.96027756   82.12960052    2.11999989    2.80999994
   12.96361065   79.45680237    2.09999990    2.80999994
   12.96666622   81.71060181    2.09999990    2.80999994
   12.96999931   79.87449646    2.09999990    2.80999994
   12.97305489   88.44249725    2.07999992    2.80999994
   12.97638798   78.29489899    2.05999994    2.80999994
   12.97944355   78.92150116    2.07999992    2.80999994
   12.98277760   78.18859863    2.05999994    2.82999992
   12.98555565   76.87999725    2.07999992    2.82999992
   12.98638916   81.36799622    2.07999992    2.80999994
   12.98972225   84.10729980    2.09999990    2.80999994
   12.99277782   78.79519653    2.07999992    2.80999994
   12.99611092   78.96099854    2.07999992    2.80999994
   12.99916649   78.26200104    2.09999990    2.82999992
   13.00249958   79.50900269    2.11999989    2.82999992
   13.00555515   79.01090240    2.11999989    2.80999994
   13.00861073   83.09590149    2.11999989    2.80999994
   13.01194477   82.18509674    2.13000011    2.80999994
   13.01500034   85.60340118    2.11999989    2.80999994
   13.01833344   80.41960144    2.13000011    2.82999992
   13.02138901   76.31359863    2.11999989    2.82999992
   13.02472210   74.97419739    2.09999990    2.82999992
   13.02777767   82.34670258    2.11999989    2.82999992
   13.03111076   87.30490112    2.07999992    2.82999992
   13.03416729   80.95230103    2.07999992    2.82999992
   13.03555584   84.90100098    2.05999994    2.82999992
   13.03777790   80.71869659    2.05999994    2.80999994
   13.04083347   79.28399658    2.05999994    2.82999992
   13.04416752   80.12460327    2.01999998    2.80999994
   13.04722309   79.77130127    2.05999994    2.82999992
   13.05055618   76.67379761    2.00000000    2.82999992
   13.05361176   83.49040222    2.03999996    2.82999992
   13.05694485   78.89810181    2.03999996    2.82999992
   13.06000042   77.35130310    2.01999998    2.82999992
   13.06333351   78.94080353    2.05999994    2.82999992
   13.06638908   77.21600342    2.01999998    2.82999992
   13.06972218   79.95359802    2.01999998    2.82999992
   13.07277775   81.96620178    2.03999996    2.82999992
   13.07611084   77.84850311    2.09999990    2.82999992
   13.07916641   79.92919922    2.07999992    2.82999992
   13.08249950   79.02919769    2.11999989    2.82999992
   13.08555508   75.90339661    2.09999990    2.82999992
   13.08611107   77.03949738    2.09999990    2.82999992
   13.08916664   81.10130310    2.09999990    2.82999992
   13.09249973   78.87300110    2.11999989    2.82999992
   13.09555531   81.09470367    2.09999990    2.84999990
   13.09888840   79.65930176    2.11999989    2.84999990
   13.10194492   77.84230042    2.11999989    2.82999992
   13.10527802   79.60839844    2.07999992    2.82999992
   13.10833359   78.82969666    2.07999992    2.84999990
   13.11166668   79.09970093    2.09999990    2.82999992
   13.11472225   82.13469696    2.11999989    2.82999992
   13.11805534   77.37270355    2.07999992    2.84999990
   13.12111092   78.73660278    2.09999990    2.82999992
   13.12444496   86.02089691    2.07999992    2.82999992
   13.12750053   76.62149811    2.05999994    2.82999992
   13.13083363   76.69069672    2.03999996    2.82999992
   13.13388920   79.08989716    2.03999996    2.84999990
   13.13583279   78.20890045    2.03999996    2.84999990
   13.13749981   78.39820099    2.05999994    2.82999992
   13.14055538   78.53109741    2.00000000    2.82999992
   13.14388847   76.84069824    2.05999994    2.82999992
   13.14694405   81.21600342    2.07999992    2.82999992
   13.15027714   80.77410126    2.03999996    2.84999990
   13.15361118   81.67040253    2.05999994    2.82999992
   13.15666676   83.01380157    2.09999990    2.82999992
   13.15972137   80.94349670    2.07999992    2.82999992
   13.16305542   78.96569824    2.11999989    2.82999992
   13.16611099   78.99160004    2.13000011    2.84999990
   13.16944504   82.49449921    2.15000010    2.84999990
   13.17250061   80.44779968    2.15000010    2.82999992
   13.17583370   73.49610138    2.15000010    2.82999992
   13.17888927   79.51969910    2.17000008    2.84999990
   13.18222237   78.86199951    2.11999989    2.84999990
   13.18527794   78.66750336    2.17000008    2.82999992
   13.18583298   81.04070282    2.17000008    2.82999992
   13.18916702   77.87719727    2.17000008    2.82999992
   13.19222260   81.36350250    2.15000010    2.82999992
   13.19555569   82.66030121    2.15000010    2.82999992
   13.19861126   77.91470337    2.15000010    2.82999992
   13.20194435   80.41210175    2.17000008    2.84999990
   13.20499992   76.62359619    2.19000006    2.82999992
   13.20833302   78.85119629    2.15000010    2.84999990
   13.21138859   78.08280182    2.15000010    2.84999990
   13.21472168   75.91059875    2.13000011    2.84999990
   13.21777725   81.61139679    2.09999990    2.84999990
   13.22111034   78.30269623    2.07999992    2.82999992
   13.22416592   75.18569946    2.03999996    2.84999990
   13.22749996   79.97149658    2.07999992    2.84999990
   13.23055553   76.25980377    2.05999994    2.84999990
   13.23388958   78.65129852    2.09999990    2.82999992
   13.23583317   76.89600372    2.05999994    2.84999990
   13.23750019   80.26370239    2.07999992    2.86999989
   13.24055576   77.43190002    2.05999994    2.84999990
   13.24388885   77.99269867    2.07999992    2.84999990
   13.24694443   79.05770111    2.07999992    2.84999990
   13.25027752   80.05970001    2.09999990    2.84999990
   13.25333309   79.18689728    2.13000011    2.84999990
   13.25666714   85.97709656    2.11999989    2.84999990
   13.25972176   77.82080078    2.11999989    2.84999990
   13.26305580   77.49279785    2.13000011    2.84999990
   13.26611137   75.94560242    2.09999990    2.84999990
   13.26944447   75.80840302    2.13000011    2.86999989
   13.27250004   78.10040283    2.09999990    2.86999989
   13.27583313   82.19010162    2.07999992    2.86999989
   13.27888870   79.99720001    2.09999990    2.86999989
   13.28222179   75.90850067    2.11999989    2.84999990
   13.28527832   79.49870300    2.11999989    2.86999989
   13.28583336   75.95449829    2.11999989    2.86999989
   13.28888893   74.68620300    2.07999992    2.84999990
   13.29194450   78.03279877    2.11999989    2.86999989
   13.29527855   73.72699738    2.07999992    2.86999989
   13.29833412   79.13780212    2.09999990    2.86999989
   13.30166721   76.49220276    2.03999996    2.86999989
   13.30472279   76.16999817    2.07999992    2.86999989
   13.30805588   73.69190216    2.03999996    2.86999989
   13.31111145   76.29570007    2.05999994    2.86999989
   13.31444454   75.84449768    2.00000000    2.86999989
   13.31750011   78.40339661    2.03999996    2.89000010
   13.33611107   78.35579681    2.05999994    2.86999989
   13.33722210   75.09020233    2.03999996    2.89000010
   13.34055519   79.72760010    2.01999998    2.86999989
   13.34361076   77.61620331    2.07999992    2.86999989
   13.34694386   77.91970062    2.07999992    2.86999989
   13.35000038   75.08059692    2.07999992    2.86999989
   13.35333347   80.43779755    2.05999994    2.89000010
   13.35638905   78.28359985    2.09999990    2.86999989
   13.35972214   80.19239807    2.09999990    2.89000010
   13.36277771   75.50180054    2.07999992    2.89000010
   13.36611176   79.08249664    2.11999989    2.89000010
   13.36916637   78.81870270    2.11999989    2.89000010
   13.37250042   77.42330170    3.73000002    2.89000010
   13.37555599   82.74019623    4.90999985    2.91000009
   13.37888908   78.48200226    2.13000011    2.89000010
   13.38194466   79.13749695    2.09999990    2.89000010
   13.38527775   79.13140106    2.09999990    2.91000009
   13.38611126   79.08270264    2.09999990    2.91000009
   13.38888836   79.84919739    2.13000011    2.89000010
   13.39194393   81.86689758    2.66000009    2.91000009
   13.39527798   82.87480164    4.90999985    2.94000006
   13.39833355   -1.00000000    4.90999985    2.64000010
   13.40166664   -1.00000000    4.90999985    0.56999999
   13.40472221   95.05740356    4.90999985    0.47999999
   13.40805531  124.11599731    4.90999985    2.28999996
   13.41111088   72.63510132    4.90999985    1.80999994
   13.41444397   74.02870178    4.90999985    2.91000009
   13.41750050   76.15249634    4.46999979    2.91000009
   13.42083359   79.16970062    2.15000010    2.86999989
   13.42388916   80.86440277    2.13000011    2.86999989
   13.42722225   78.99839783    2.19000006    2.86999989
   13.43027782   81.80979919    2.21000004    2.86999989
   13.43361092   81.12439728    2.23000002    2.89000010
   13.43611145   75.77459717    2.26999998    2.86999989
   13.43722248   80.77390289    2.26999998    2.86999989
   13.44027805   78.39929962    2.26999998    2.86999989
   13.44361115   78.93699646    2.26999998    2.86999989
   13.44666672   74.65650177    2.28999996    2.86999989
   13.44999981   75.98419952    2.32999992    2.89000010
   13.45305538   78.43389893    2.28999996    2.86999989
   13.45638847   78.52549744    2.30999994    2.86999989
   13.45944405   88.03369904    2.34999990    2.86999989
   13.46277714   78.56520081    2.28999996    2.89000010
   13.46583271   76.62359619    2.32999992    2.86999989
   13.46916580   73.54260254    2.34999990    2.86999989
   13.47222137   76.01110077    2.32999992    2.86999989
   13.47555542   78.85440063    2.34999990    2.86999989
   13.47861099   78.50530243    2.32999992    2.86999989
   13.48194408   79.13009644    2.26999998    2.86999989
   13.48500061   71.68009949    2.28999996    2.86999989
   13.48611164   74.54920197    2.28999996    2.89000010
   13.48861122   76.17500305    2.23000002    2.86999989
   13.49194431   77.51119995    2.23000002    2.89000010
   13.49499989   79.25900269    2.25000000    2.89000010
   13.49833393   76.82810211    2.23000002    2.89000010
   13.50138855   75.02400208    2.23000002    2.89000010
   13.50472260   75.22530365    2.19000006    2.89000010
   13.50777817   74.50009918    2.15000010    2.91000009
   13.51111126   74.92330170    2.25000000    2.89000010
   13.51416683   73.85569763    2.23000002    2.89000010
   13.51749992   78.13040161    2.25000000    2.91000009
   13.52055550   81.15529633    2.23000002    2.89000010
   13.52388859   78.65869904    2.25000000    2.91000009
   13.52694416   76.25250244    2.23000002    2.89000010
   13.53027725   72.26029968    2.32999992    2.89000010
   13.53333378   78.57460022    2.32999992    2.89000010
   13.53611183   77.76439667    2.32999992    2.91000009
   13.53694534   77.56659698    2.32999992    2.89000010
   13.54000092   75.16230011    2.30999994    2.89000010
   13.54333401   76.83730316    2.36999989    2.89000010
   13.54638958   78.28910065    2.32999992    2.91000009
   13.54972267   76.25060272    2.32999992    2.91000009
   13.55277824   78.19259644    2.28999996    2.91000009
   13.55611134   77.58010101    2.30999994    2.91000009
   13.55916691   80.78070068    2.32999992    2.89000010
   13.56250000   77.13269806    2.34999990    2.89000010
   13.56555557   81.86340332    2.30999994    2.89000010
   13.56888866   77.62380219    2.32999992    2.91000009
   13.57194424   78.81819916    2.30999994    2.89000010
   13.57527733   82.15709686    2.32999992    2.89000010
   13.57833290   77.83679962    2.30999994    2.89000010
   13.58166695   80.48789978    2.28999996    2.89000010
   13.58472157   76.98020172    2.30999994    2.89000010
   13.58611107   79.82879639    2.21000004    2.91000009
   13.58833313   78.40670013    2.28999996    2.89000010
   13.59166622   75.20839691    2.26999998    2.86999989
   13.59472179   80.29109955    2.28999996    2.89000010
   13.59805489   80.11710358    2.30999994    2.91000009
   13.60111141   77.77349854    2.36999989    2.91000009
   13.60444450   77.10099792    2.34999990    2.91000009
   13.60750008   78.71710205    2.39000010    2.89000010
   13.61083412   78.42420197    2.42000008    2.91000009
   13.61388969   75.31099701    2.36999989    2.91000009
   13.61722279   80.03130341    2.39000010    2.89000010
   13.62027836   78.95989990    2.40000010    2.91000009
   13.62361145   78.46910095    2.40000010    2.91000009
   13.62666702   78.78579712    2.44000006    2.91000009
   13.63000011   76.66960144    2.44000006    2.91000009
   13.63305569   76.01190186    2.44000006    2.91000009
   13.63611126   78.28520203    2.40000010    2.89000010
   13.63666630   79.46910095    2.44000006    2.89000010
   13.64000034   74.26850128    2.44000006    2.89000010
   13.64305496   75.81349945    2.39000010    2.91000009
   13.64638901   80.23650360    2.44000006    2.91000009
   13.64944458   79.03399658    2.46000004    2.89000010
   13.65277767   78.59580231    2.39000010    2.89000010
   13.65583324   74.55529785    2.39000010    2.89000010
   13.65916634   77.15560150    2.34999990    2.91000009
   13.66222191   77.45539856    2.39000010    2.91000009
   13.66555500   81.85949707    2.39000010    2.89000010
   13.66861153   78.38659668    2.39000010    2.89000010
   13.67194462   77.05329895    2.39000010    2.89000010
   13.67500019   78.32779694    2.36999989    2.89000010
   13.67833328   76.06410217    2.36999989    2.91000009
   13.68138885   74.88729858    2.40000010    2.91000009
   13.68472195   80.32260132    2.40000010    2.91000009
   13.68611145   76.40589905    2.40000010    2.91000009
   13.68805599   72.95659637    2.40000010    2.89000010
   13.69138908   77.06400299    2.53999996    2.89000010
   13.69444466   76.92949677    2.40000010    2.91000009
   13.69777775   76.14649963    2.48000002    2.91000009
   13.70083332   76.98889923    2.46000004    2.91000009
   13.70416641   78.26609802    2.53999996    2.91000009
   13.70722198   77.91519928    2.51999998    2.89000010
   13.71055508   78.10489655    2.59999990    2.91000009
   13.71361065   77.05539703    2.51999998    2.91000009
   13.82222176   -1.00000000   -1.00000000   -1.00000000
   13.91944504   -1.00000000   -1.00000000   -1.00000000
   14.01944447   -1.00000000   -1.00000000   -1.00000000
   14.10194492   65.14649963    0.41999999    0.03000000
   14.10500050   73.42469788    0.41999999    0.03000000
   14.10833359   75.24790192    0.41999999    0.03000000
   14.11138916   76.19400024    0.41999999    0.03000000
   14.11472225   78.77690125    0.41999999    0.03000000
   14.11777782   83.30680084    0.41999999    0.03000000
   14.12111092   74.43309784    0.41999999    0.03000000
   14.12416649   75.42659760    0.41999999    0.03000000
   14.13055611   75.42659760    0.41999999    0.03000000
   14.13444424   77.01550293    0.41999999    0.03000000
   14.13777733   75.95659637    0.41999999    0.03000000
   14.14083290   76.80940247    0.41999999    0.03000000
   14.14416695   79.49659729    0.41999999    0.03000000
   14.14722252   77.37210083    0.41999999    0.03000000
   14.15055561   75.54689789    0.41999999    0.03000000
   14.15194416   76.55789948    0.41999999    0.03000000
   14.15388870   76.81849670    0.41999999    0.03000000
   14.15722179   74.08540344    0.41999999    0.03000000
   14.16027737   73.23020172    0.41999999    0.03000000
   14.16361046   74.57450104    0.41999999    0.03000000
   14.16666698   78.04090118    0.41999999    0.03000000
   14.17000008   75.72440338    0.41999999    0.03000000
   14.17305565   80.04689789    0.41999999    0.03000000
   14.17638874   74.70089722    0.41999999    0.03000000
   14.18166733   74.70089722    0.41999999    0.03000000
   14.18583298   75.25990295    0.41999999    0.03000000
   14.18888855   74.37079620    0.41999999    0.03000000
   14.19222260   75.04949951    0.41999999    0.03000000
   14.19527817   75.99859619    0.41999999    0.03000000
   14.19861126   80.61620331    0.41999999    0.03000000
   14.20166683   75.86689758    0.41999999    0.03000000
   14.20222187   75.57289886    0.41999999    0.03000000
   14.20527744   77.12789917    0.41999999    0.03000000
   14.20861053   76.64579773    0.41999999    0.03000000
   14.21166611   81.07489777    0.41999999    0.03000000
   14.21500015   77.55629730    0.41999999    0.03000000
   14.21805477   76.44280243    0.41999999    0.03000000
   14.22138882   77.93779755    0.41999999    0.03000000
   14.22444439   75.51879883    0.41999999    0.03000000
   14.22777748   73.25060272    0.41999999    0.03000000
   14.23277760   73.25060272    0.41999999    0.03000000
   14.23694515   86.98799896    0.41999999    0.03000000
   14.24000072   85.97550201    0.41999999    0.03000000
   14.24333382   76.06330109    0.41999999    0.03000000
   14.24638939   77.59510040    0.41999999    0.03000000
   14.24972248   78.98699951    0.41999999    0.03000000
   14.25222206   75.72109985    0.41999999    0.03000000
   14.25305557   80.90720367    0.41999999    0.03000000
   14.25638866   76.27729797    0.41999999    0.03000000
   14.25944424   80.84200287    0.41999999    0.03000000
   14.26277733   75.90850067    0.41999999    0.03000000
   14.26583290   85.18109894    0.41999999    0.03000000
   14.26916599   80.05660248    0.41999999    0.03000000
   14.27222157   80.03089905    0.41999999    0.03000000
   14.27555561   82.48459625    0.41999999    0.03000000
   14.27861118   77.42720032    0.41999999    0.03000000
   14.28388977   77.42720032    0.41999999    0.03000000
   14.28805637   79.59999847    0.41999999    0.03000000
   14.29138947   75.01270294    0.41999999    0.03000000
   14.29444504   82.62449646    0.41999999    0.03000000
   14.29777813   79.84049988    0.41999999    0.03000000
   14.30305576   78.22820282    0.41999999    0.03000000
   14.30333328   76.90959930    0.41999999    0.03000000
   14.30666733   77.59570313    0.41999999    0.03000000
   14.31138897   77.59310150    0.41999999    0.03000000
   14.31583309   85.59130096    0.41999999    0.03000000
   14.31972218   79.38079834    0.41999999    0.03000000
   14.32305527   84.75859833    0.41999999    0.03000000
   14.32611084   79.22609711    0.41999999    0.03000000
   14.32944393   76.58180237    0.41999999    0.03000000
   14.33527756   76.58180237    0.41999999    0.03000000
   14.33916664   77.41390228    0.41999999    0.03000000
   14.34249973   77.39309692    0.41999999    0.03000000
   14.34555531   86.04119873    0.41999999    0.03000000
   14.34888840   80.18800354    0.41999999    0.03000000
   14.35194492   74.49980164    0.41999999    0.03000000
   14.35333347   81.61450195    0.41999999    0.03000000
   14.35555553   82.72530365    0.41999999    0.03000000
   14.35861111   82.57990265    0.41999999    0.03000000
   14.36194515   79.41049957    0.41999999    0.03000000
   14.36527824   79.58439636    0.41999999    0.03000000
   14.36833382   77.41329956    0.41999999    0.03000000
   14.37166691   78.35230255    0.41999999    0.03000000
   14.37472248   83.50930023    0.41999999    0.03000000
   14.37805557   77.54679871    0.41999999    0.03000000
   14.38111115   77.30010223    0.41999999    0.03000000
   14.38638878   77.30010223    0.41999999    0.03000000
   14.39055538   77.36319733    0.41999999    0.03000000
   14.39361095   74.94589996    0.41999999    0.03000000
   14.39694405   75.66719818    0.41999999    0.03000000
   14.39999962   80.28459930    0.41999999    0.03000000
   14.40333271   76.86710358    0.41999999    0.03000000
   14.40361118   79.08830261    0.41999999    0.03000000
   14.40694427   78.97820282    0.41999999    0.03000000
   14.40999985   85.15129852    0.41999999    0.03000000
   14.41333294   75.72399902    0.41999999    0.03000000
   14.41638851   82.65889740    0.41999999    0.03000000
   14.41972256   77.79219818    0.41999999    0.03000000
   14.42277813   77.02549744    0.41999999    0.03000000
   14.42611122   79.44570160    0.41999999    0.03000000
   14.42916679   74.18150330    0.41999999    0.03000000
   14.43249989   76.45300293    0.41999999    0.03000000
   14.43750000   76.45300293    0.41999999    0.03000000
   14.44166660   81.07109833    0.41999999    0.03000000
   14.44472218   78.36049652    0.41999999    0.03000000
   14.44805527   78.64150238    0.41999999    0.03000000
   14.45111084   80.00170135    0.41999999    0.03000000
   14.45361137   77.21929932    0.41999999    0.03000000
   14.45472240   86.92980194    0.41999999    0.03000000
   14.45777798   81.18569946    0.41999999    0.03000000
   14.46111107   78.91339874    0.41999999    0.03000000
   14.46416664   81.63009644    0.41999999    0.03000000
   14.46888828   80.58650208    0.41999999    0.03000000
   14.47222137   82.63980103    0.41999999    0.03000000
   14.47611046   76.51260376    0.41999999    0.03000000
   14.52250004   76.51260376    0.41999999    0.03000000
   14.52666664   78.12889862    0.41999999    0.03000000
   14.52972221   80.26049805    0.41999999    0.03000000
   14.53305531   75.04160309    0.41999999    0.03000000
   14.53611183   72.01249695    0.41999999    0.03000000
   14.53944492   81.50550079    0.41999999    0.03000000
   14.54250050   78.83020020    0.41999999    0.03000000
   14.54583359   81.72489929    0.41999999    0.03000000
   14.54888916   77.13700104    0.41999999    0.03000000
   14.55222225   83.79560089    0.41999999    0.03000000
   14.55555534   78.89779663    0.41999999    0.03000000
   14.55861092   79.15200043    0.41999999    0.03000000
   14.56194496   83.68000031    0.41999999    0.03000000
   14.56500053   75.04609680    0.41999999    0.03000000
   14.56833363   82.32029724    0.41999999    0.03000000
   14.56999969   76.94080353    0.41999999    0.03000000
   14.57416630   76.94080353    0.41999999    0.03000000
   14.57833290   82.97000122    0.41999999    0.03000000
   14.58138847   80.94670105    0.41999999    0.03000000
   14.58472157   80.08029938    0.41999999    0.03000000
   14.58777714   81.65260315    0.41999999    0.03000000
   14.59111118   84.45520020    0.41999999    0.03000000
   14.59416676   86.34680176    0.41999999    0.03000000
   14.59749985   74.09439850    0.41999999    0.03000000
   14.60055637   78.00980377    0.41999999    0.03000000
   14.60388947   78.00559998    0.41999999    0.03000000
   14.60694504   76.48899841    0.41999999    0.03000000
   14.61027813   73.94080353    0.41999999    0.03000000
   14.61333370   77.57080078    0.41999999    0.03000000
   14.61666679   74.17130280    0.41999999    0.03000000
   14.61972237   74.57279968    0.41999999    0.03000000
   14.62027836   75.37680054    0.41999999    0.03000000
   14.62527752   75.37680054    0.41999999    0.03000000
   14.62944412   75.60320282    0.41999999    0.03000000
   14.63277817   75.01380157    0.41999999    0.03000000
   14.63583279   74.92949677    0.41999999    0.03000000
   14.63916683   74.05979919    0.41999999    0.03000000
   14.64222240   75.10639954    0.41999999    0.03000000
   14.64555550   73.64859772    0.41999999    0.03000000
   14.64861107   74.26200104    0.41999999    0.03000000
   14.65194416   73.86540222    0.41999999    0.03000000
   14.65499973   75.25859833    0.41999999    0.03000000
   14.65833282   73.40930176    0.41999999    0.03000000
   14.66138840   74.34559631    0.41999999    0.03000000
   14.66472149   72.28150177    0.41999999    0.03000000
   14.66777802   75.27549744    0.41999999    0.03000000
   14.67027855   77.32160187    0.41999999    0.03000000
   14.67166710   79.10350037    0.41999999    0.03000000
   14.67666721   79.10350037    0.41999999    0.03000000
   14.68055630   77.51300049    0.41999999    0.03000000
   14.68388939   76.46369934    0.41999999    0.03000000
   14.68694496   75.05079651    0.41999999    0.03000000
   14.69027805   74.90270233    0.41999999    0.03000000
   14.69333363   75.53379822    0.41999999    0.03000000
   14.69666672   74.22299957    0.41999999    0.03000000
   14.69972229   75.00509644    0.41999999    0.03000000
   14.70305538   76.81050110    0.41999999    0.03000000
   14.70611095   74.83370209    0.41999999    0.03000000
   14.70944405   75.00340271    0.41999999    0.03000000
   14.71249962   78.25939941    0.41999999    0.03000000
   14.71583271   79.61789703    0.41999999    0.03000000
   14.71916580   78.58149719    0.41999999    0.03000000
   14.72027779   82.26560211    0.41999999    0.03000000
   14.72277737   78.69290161    0.41999999    0.03000000
   14.72777748   78.69290161    0.41999999    0.03000000
   14.73194408   75.74469757    0.41999999    0.03000000
   14.73500061   77.58660126    0.41999999    0.03000000
   14.73833370   78.32900238    0.41999999    0.03000000
   14.74138927   78.50630188    0.41999999    0.03000000
   14.74472237   74.04350281    0.41999999    0.03000000
   14.74777794   84.24849701    0.41999999    0.03000000
   14.75111103   78.40249634    0.41999999    0.03000000
   14.75416660   77.94779968    0.41999999    0.03000000
   14.75749969   73.68759918    0.41999999    0.03000000
   14.76055527   80.43910217    0.41999999    0.03000000
   14.76388931   81.62719727    0.41999999    0.03000000
   14.76694393   75.69670105    0.41999999    0.03000000
   14.77027798   82.13880157    0.41999999    0.03000000
   14.77055550   75.52660370    0.41999999    0.03000000
   14.77388859   74.06390381    0.41999999    0.03000000
   14.77888870   74.06390381    0.41999999    0.03000000
   14.78305531   78.58519745    0.41999999    0.03000000
   14.78611183   77.73989868    0.41999999    0.03000000
   14.78944492   79.01069641    0.41999999    0.03000000
   14.79250050   76.64610291    0.41999999    0.03000000
   14.79583359   75.39140320    0.41999999    0.03000000
   14.79888916   79.28399658    0.41999999    0.03000000
   14.80222225   78.46630096    0.41999999    0.03000000
   14.80555534   76.39109802    0.41999999    0.03000000
   14.80861092   82.23339844    0.41999999    0.03000000
   14.81194496   82.98020172    0.41999999    0.03000000
   14.81500053   77.19090271    0.41999999    0.03000000
   14.81833363   76.82559967    0.41999999    0.03000000
   14.82055569   79.34790039    0.41999999    0.03000000
   14.82194424   81.48560333    0.41999999    0.03000000
   14.82499981   83.22720337    0.41999999    0.03000000
   14.82999992   83.22720337    0.41999999    0.03000000
   14.83416653   82.93810272    0.41999999    0.03000000
   14.83749962   83.97019958    0.41999999    0.03000000
   14.84055519   77.49060059    0.41999999    0.03000000
   14.84388828   81.02100372    0.41999999    0.03000000
   14.84694386   83.78009796    0.41999999    0.03000000
   14.85027790   78.54530334    0.41999999    0.03000000
   14.85333347   85.97350311    0.41999999    0.03000000
   14.85666752   78.15270233    0.41999999    0.03000000
   14.85972214   80.95729828    0.41999999    0.03000000
   14.86305618   75.38839722    0.41999999    0.03000000
   14.86611176   76.20880127    0.41999999    0.03000000
   14.86944485   77.36289978    0.41999999    0.03000000
   14.87055588   73.29129791    0.41999999    0.03000000
   14.87277794   72.67720032    0.41999999    0.03000000
   14.87583351   79.06179810    0.41999999    0.03000000
   14.88138866   79.06179810    0.41999999    0.03000000
   14.88527775   78.04229736    0.41999999    0.03000000
   14.88861084   74.73570251    0.41999999    0.03000000
   14.89166641   74.09870148    0.41999999    0.03000000
   14.89499950   73.39140320    0.41999999    0.03000000
   14.89805508   76.35700226    0.41999999    0.03000000
   14.90138817   74.00360107    0.41999999    0.03000000
   14.90444374   79.37180328    0.41999999    0.03000000
   14.90777779   74.07350159    0.41999999    0.03000000
   14.91083336   75.61199951    0.41999999    0.03000000
   14.91416645   77.84210205    0.41999999    0.03000000
   14.91722298   75.58709717    0.41999999    0.03000000
   14.92055607   73.56900024    0.41999999    0.03000000
   14.92111111   75.85890198    0.41999999    0.03000000
   14.92416668   81.17749786    0.41999999    0.03000000
   14.92750072   79.47669983    0.41999999    0.03000000
   14.93249989   79.47669983    0.41999999    0.03000000
   14.93666649   79.57969666    0.41999999    0.03000000
   14.93972206  114.49900055    0.41999999    0.03000000
