    HOUR (UT)   FLARE FACTOR    SKY TESTER    SUN TESTER
   11.36527824   -1.00000000   -1.00000000   -1.00000000
   11.44722271  112.85600281    4.48999977    2.48000002
   11.45222187  104.56199646    4.46999979    2.48000002
   11.45555496  113.58999634    4.46999979    2.51999998
   11.45861053   84.84300232    4.44999981    2.50000000
   11.46194458  109.53099823    4.44999981    2.50000000
   11.46500015   90.77760315    4.42999983    2.48000002
   11.46833324  120.16400146    4.42999983    2.50000000
   11.47138882  103.92500305    4.42999983    2.48000002
   11.47472191  108.14199829    4.42999983    2.50000000
   11.47777748  108.47699738    4.40999985    2.50000000
   11.48055553  105.48600006    4.40999985    2.48000002
   11.48138809  100.69499969    4.40999985    2.50000000
   11.48472214  115.51899719    4.38999987    2.50000000
   11.48777771  100.17099762    4.38999987    2.50000000
   11.49111176  123.32399750    4.38999987    2.50000000
   11.49416733  108.50499725    4.36999989    2.50000000
   11.49750042  103.30999756    4.36999989    2.50000000
   11.50083351  111.26999664    4.38999987    2.50000000
   11.50416660  128.43400574    4.36999989    2.50000000
   11.50722218  117.46099854    4.34999990    2.50000000
   11.51055527  122.97299957    4.34999990    2.50000000
   11.51361084  119.86799622    4.36999989    2.50000000
   11.51694393  115.50199890    4.34999990    2.50000000
   11.51999950  113.23899841    4.34999990    2.51999998
   11.52333355  119.72699738    4.34999990    2.51999998
   11.52638817  103.66799927    4.34999990    2.48000002
   11.52972221  112.93800354    4.32999992    2.51999998
   11.53055573  117.04000092    4.32999992    2.51999998
   11.53305531  113.56199646    4.32999992    2.51999998
   11.53638935   91.68419647    4.32999992    2.50000000
   11.53944492  112.66300201    4.32999992    2.51999998
   11.54277802  115.64900208    4.32999992    2.50000000
   11.54583359  113.91899872    4.32999992    2.51999998
   11.54916668  108.09300232    4.30999994    2.51999998
   11.55222225  112.98500061    4.30999994    2.51999998
   11.55555534  104.04599762    4.30999994    2.51999998
   11.55861092  106.06700134    4.30999994    2.51999998
   11.56194496  104.73200226    4.30999994    2.51999998
   11.56500053  118.97899628    4.28999996    2.51999998
   11.56833363  112.08999634    4.28999996    2.51999998
   11.57138920  111.35199738    4.28999996    2.51999998
   11.57472229  122.40299988    4.28999996    2.51999998
   11.57777786  101.94699860    4.28999996    2.51999998
   11.58055592  101.13700104    4.26999998    2.51999998
   11.58166695  112.73400116    4.28999996    2.51999998
   11.58472157  119.47699738    4.26999998    2.51999998
   11.58777714   94.33920288    4.26999998    2.51999998
   11.59111118  100.17500305    4.26000023    2.53999996
   11.59416676  114.34100342    4.26000023    2.53999996
   11.59749985  111.20500183    4.21999979    2.53999996
   11.60055637  108.27500153    4.21999979    2.53999996
   11.60388947  118.85199738    4.21999979    2.51999998
   11.60694504  120.12899780    4.19999981    2.53999996
   11.61027813  109.89299774    4.19999981    2.53999996
   11.61333370  120.19899750    4.19999981    2.53999996
   11.61666679  118.71800232    4.19999981    2.55999994
   11.61972237  117.11100006    4.19999981    2.53999996
   11.62305546  106.78900146    4.17999983    2.53999996
   11.62611103  102.09700012    4.17999983    2.53999996
   11.62944412  109.70099640    4.15999985    2.53999996
   11.63055611   93.15129852    4.15999985    2.53999996
   11.63305569  113.56500244    4.15999985    2.53999996
   11.63611126  113.56999969    4.13999987    2.53999996
   11.63944435  101.65499878    4.13999987    2.53999996
   11.64249992   98.31790161    4.13999987    2.53999996
   11.64583302  107.59300232    4.11999989    2.53999996
   11.64888859   97.42870331    4.11999989    2.53999996
   11.65222168  122.60900116    4.11999989    2.55999994
   11.65527725   96.72550201    4.11999989    2.55999994
   11.65861034  112.83999634    4.09999990    2.53999996
   11.66166592  103.68599701    4.09999990    2.53999996
   11.66499996  124.73699951    4.09999990    2.55999994
   11.66805553  100.69400024    4.07999992    2.53999996
   11.67138958  104.85399628    4.09999990    2.55999994
   11.67444515  103.32499695    4.07999992    2.55999994
   11.67777824  103.23999786    4.07999992    2.55999994
   11.68055630   99.46920013    4.05999994    2.55999994
   11.68138885  100.51000214    4.07999992    2.55999994
   11.68444443  109.23100281    4.05999994    2.55999994
   11.68777752  106.14399719    4.03999996    2.55999994
   11.69083309  112.72799683    4.03999996    2.53999996
   11.69416714  109.60700226    4.03999996    2.55999994
   11.69722271  112.26999664    4.03999996    2.57999992
   11.70055580  113.04000092    4.01999998    2.55999994
   11.70361137   95.99210358    4.01999998    2.55999994
   11.70694447  116.98400116    4.01999998    2.55999994
   11.71000004  104.34999847    4.01999998    2.55999994
   11.71333313  116.30999756    4.01999998    2.55999994
   11.71638870   86.58460236    4.01999998    2.55999994
   11.71972179   92.69719696    4.00000000    2.55999994
   11.72277737  100.52100372    4.00000000    2.55999994
   11.72611046   97.12110138    4.00000000    2.57999992
   11.72916603  107.98600006    4.00000000    2.55999994
   11.73055553   94.11229706    4.00000000    2.55999994
   11.73277760   93.63259888    3.99000001    2.57999992
   11.73583317   85.84639740    3.99000001    2.57999992
   11.73916721   85.16380310    3.99000001    2.55999994
   11.74222279  105.06600189    3.97000003    2.55999994
   11.74555588   92.16329956    3.99000001    2.57999992
   11.74861145   96.39250183    3.97000003    2.57999992
   11.75194454   92.13289642    3.97000003    2.57999992
   11.75500011  101.11299896    3.95000005    2.57999992
   11.75833321  102.02700043    3.95000005    2.57999992
   11.76138878   99.38200378    3.95000005    2.57999992
   11.76472187   99.42240143    3.95000005    2.55999994
   11.76777744   94.19439697    3.95000005    2.57999992
   11.77111053   89.89199829    3.93000007    2.57999992
   11.77416611  101.91799927    3.91000009    2.59999990
   11.77750015   96.07740021    3.91000009    2.57999992
   11.78055573   88.00019836    3.91000009    2.57999992
   11.78111076  105.13500214    3.91000009    2.57999992
   11.78416729  104.68000031    3.89000010    2.57999992
   11.78750038   87.23719788    3.89000010    2.57999992
   11.79055595   77.03739929    3.89000010    2.59999990
   11.79388905  106.02899933    3.86999989    2.59999990
   11.79694462  102.05300140    3.84999990    2.57999992
   11.80027771   99.53810120    3.84999990    2.57999992
   11.80333328  110.79100037    3.82999992    2.57999992
   11.80666733   88.14520264    3.82999992    2.59999990
   11.80972195   95.73400116    3.82999992    2.59999990
   11.81305599   97.53769684    3.80999994    2.59999990
   11.81611156   95.67379761    3.80999994    2.59999990
   11.81944466   96.49510193    3.78999996    2.59999990
   11.82250023   95.75340271    3.78999996    2.59999990
   11.82583332   93.58550262    3.78999996    2.59999990
   11.82888889   92.94499969    3.78999996    2.59999990
   11.83055592   87.60959625    3.78999996    2.59999990
   11.83249950   90.63700104    3.76999998    2.59999990
   11.83555508  109.43599701    3.76999998    2.59999990
   11.83888817   90.20169830    3.75000000    2.59999990
   11.84194374   91.95439911    3.75000000    2.59999990
   11.84527779   90.28269958    3.73000002    2.59999990
   11.84833336   96.63439941    3.73000002    2.59999990
   11.85166740   95.99310303    3.73000002    2.61999989
   11.85472298  102.66500092    3.73000002    2.59999990
   11.85805607   94.35440063    3.72000003    2.61999989
   11.86111164   95.18509674    3.72000003    2.59999990
   11.86444473   95.27570343    3.70000005    2.61999989
   11.86750031   92.99259949    3.70000005    2.59999990
   11.87083340   96.02110291    3.70000005    2.61999989
   11.87388897   96.18499756    3.68000007    2.59999990
   11.87722206   91.72480011    3.68000007    2.61999989
   11.88027763   89.71659851    3.66000009    2.61999989
   11.88083363   97.36170197    3.66000009    2.61999989
   11.88388920  100.33699799    3.66000009    2.61999989
   11.88722229   92.34339905    3.66000009    2.64000010
   11.89027786   88.86080170    3.64000010    2.61999989
   11.89361095   92.95800018    3.64000010    2.61999989
   11.89666653   89.07559967    3.64000010    2.61999989
   11.89999962   91.11019897    3.61999989    2.61999989
   11.90333271   93.61350250    3.59999990    2.61999989
   11.90638828   91.91110229    3.59999990    2.61999989
   11.90972137   87.68199921    3.57999992    2.61999989
   11.91277695   83.39990234    3.57999992    2.61999989
   11.91611099   94.77429962    3.57999992    2.61999989
   11.91916656   93.51000214    3.57999992    2.64000010
   11.92250061   90.01629639    3.55999994    2.61999989
   11.92555618   93.29049683    3.55999994    2.64000010
   11.92888927  131.50199890    3.53999996    2.61999989
   11.93083382  123.49500275    3.53999996    2.64000010
   11.93222237  160.12100220    3.53999996    2.64000010
   11.93555546  211.31700134    3.51999998    2.64000010
   11.93861103  170.72500610    3.51999998    2.64000010
   11.94194412  182.70100403    3.51999998    2.64000010
   11.94499969  171.47099304    3.51999998    2.66000009
   11.94833374  203.65400696    3.50000000    2.64000010
   11.95138836  195.31500244    3.50000000    2.64000010
   11.95472240  143.38400269    3.48000002    2.64000010
   11.95777798  157.89799500    3.48000002    2.64000010
   11.96083355  151.59199524    3.48000002    2.64000010
   11.96416664  165.90499878    3.46000004    2.64000010
   11.96722221  180.41000366    3.45000005    2.64000010
   11.97055531  169.93600464    3.45000005    2.64000010
   11.97361088  142.72399902    3.45000005    2.64000010
   11.97694397  160.85000610    3.43000007    2.64000010
   11.97999954  122.25399780    3.41000009    2.64000010
   11.98083305  142.94700623    3.43000007    2.66000009
   11.98361111  148.36799622    3.41000009    2.64000010
   11.98694515  155.09599304    3.39000010    2.66000009
   11.99000072  116.46700287    3.39000010    2.66000009
   11.99333382  120.29000092    3.36999989    2.64000010
   11.99638939  128.78199768    3.36999989    2.64000010
   11.99972248  102.59100342    3.34999990    2.66000009
   12.00277805  109.05899811    3.34999990    2.66000009
   12.00611115  122.11399841    3.34999990    2.66000009
   12.00916672  142.99899292    3.32999992    2.66000009
   12.01249981  105.98500061    3.32999992    2.66000009
   12.01555538  115.85199738    3.30999994    2.66000009
   12.01861095  107.28199768    3.30999994    2.66000009
   12.02194405  101.90399933    3.28999996    2.66000009
   12.02499962  106.31300354    3.28999996    2.67000008
   12.02833271  130.21299744    3.28999996    2.66000009
   12.03111076   87.26779938    3.28999996    2.66000009
   12.03249931  101.92400360    3.28999996    2.67000008
   12.03555584  118.04799652    3.28999996    2.67000008
   12.03888893  100.44000244    3.26999998    2.67000008
   12.04194450   94.33049774    3.26999998    2.67000008
   12.04638958  115.65799713    3.26999998    2.66000009
   12.05000019  101.73999786    3.25000000    2.66000009
   12.05333328  113.55200195    3.25000000    2.67000008
   12.05638885  118.61599731    3.25000000    2.66000009
   12.05972195  104.42199707    3.25000000    2.67000008
   12.06277752  115.47200012    3.23000002    2.69000006
   12.06611156  107.96499634    3.23000002    2.67000008
   12.06916618  122.76799774    3.23000002    2.67000008
   12.07250023  105.74800110    3.25000000    2.67000008
   12.07555580   94.36959839    3.23000002    2.67000008
   12.07888889  108.01399994    3.23000002    2.67000008
   12.08083344   90.69539642    3.23000002    2.67000008
   12.08249950  102.73500061    3.23000002    2.67000008
   12.08555508   93.30259705    3.23000002    2.67000008
   12.08888817  102.24500275    3.23000002    2.67000008
   12.09194374  103.88899994    3.21000004    2.67000008
   12.09527779   88.23310089    3.21000004    2.67000008
   12.09833336   93.78189850    3.21000004    2.67000008
   12.10166740  102.48500061    3.21000004    2.67000008
   12.10472298   98.00140381    3.21000004    2.67000008
   12.10777855  116.40100098    3.21000004    2.67000008
   12.11111164  108.58799744    3.21000004    2.67000008
   12.11416721  103.30500031    3.21000004    2.67000008
   12.11750031  113.31999969    3.21000004    2.67000008
   12.12055588  107.55100250    3.20000005    2.67000008
   12.12388897  106.64199829    3.20000005    2.67000008
   12.12694454  113.95200348    3.20000005    2.67000008
   12.13027763   92.11990356    3.20000005    2.67000008
   12.13083363  108.69899750    3.20000005    2.67000008
   12.13388920   94.60240173    3.18000007    2.69000006
   12.13694477   97.71050262    3.18000007    2.67000008
   12.14027786   99.02439880    3.16000009    2.69000006
   12.14333344  100.96199799    3.16000009    2.69000006
   12.14666653  104.06999969    3.14000010    2.69000006
   12.14972210  111.66799927    3.14000010    2.69000006
   12.15305519   90.24069977    3.14000010    2.69000006
   12.15611076  111.30200195    3.14000010    2.69000006
   12.15944386  104.45899963    3.11999989    2.69000006
   12.16249943  109.58100128    3.11999989    2.69000006
   12.16583252  114.31600189    3.11999989    2.69000006
   12.16888905  104.82399750    3.09999990    2.69000006
   12.17222214   92.97239685    3.09999990    2.69000006
   12.17527771  111.00099945    3.09999990    2.71000004
   12.17861176   94.91000366    3.09999990    2.69000006
   12.18083382   99.55899811    3.07999992    2.69000006
   12.18222237   97.07180023    3.07999992    2.69000006
   12.18527794   86.86009979    3.07999992    2.69000006
   12.18861103   96.57620239    3.07999992    2.69000006
   12.19166660  112.44799805    3.05999994    2.71000004
   12.19499969   82.24250031    3.03999996    2.69000006
   12.19805527   83.93710327    3.03999996    2.69000006
   12.20138836  107.20899963    3.01999998    2.71000004
   12.20444393  113.35199738    3.01999998    2.69000006
   12.20777798   93.53910065    3.01999998    2.71000004
   12.21083355  106.63899994    3.01999998    2.71000004
   12.21416664  115.39299774    3.01999998    2.71000004
   12.21722221  106.02200317    3.01999998    2.71000004
   12.22055531  105.17400360    3.01999998    2.69000006
   12.22361088  108.60099792    3.01999998    2.71000004
   12.22694397  103.01000214    3.01999998    2.71000004
   12.22999954  113.52400208    3.01999998    2.71000004
   12.23083305  119.65399933    3.01999998    2.71000004
   12.23361111  108.34300232    3.01999998    2.71000004
   12.23666668   98.08110046    3.05999994    2.73000002
   12.24000072  100.62599945    3.07999992    2.71000004
   12.24305534  113.06099701    3.07999992    2.69000006
   12.24638939  106.48899841    3.07999992    2.71000004
   12.24944496  117.21399689    3.07999992    2.71000004
   12.25277805  108.88400269    3.09999990    2.69000006
   12.25583363  102.88300323    3.11999989    2.69000006
   12.25916672  121.08599854    3.14000010    2.69000006
   12.26222229  104.95600128    3.16000009    2.71000004
   12.26555538  105.04599762    3.20000005    2.69000006
   12.26861095  111.77300262    3.21000004    2.71000004
   12.27194405   94.42579651    3.21000004    2.71000004
   12.27499962  104.37500000    3.21000004    2.71000004
   12.27833271  104.69300079    3.21000004    2.71000004
   12.28083324  113.62799835    3.20000005    2.69000006
   12.28194427  110.52400208    3.20000005    2.71000004
   12.28500080  117.23899841    3.20000005    2.69000006
   12.28833389  108.82800293    3.20000005    2.71000004
   12.29138947  109.86900330    3.20000005    2.71000004
   12.29500008  109.27999878    3.21000004    2.71000004
   12.29805565  124.94699860    3.23000002    2.71000004
   12.30138874  120.95600128    3.25000000    2.73000002
   12.30444431  110.35299683    3.23000002    2.71000004
   12.30777836  119.60199738    3.21000004    2.71000004
   12.31083393  108.45500183    3.20000005    2.71000004
   12.31416702  102.66300201    3.18000007    2.71000004
   12.31722260  116.37500000    3.16000009    2.71000004
   12.32055569  116.57199860    3.14000010    2.71000004
   12.32361126  119.65899658    3.14000010    2.71000004
   12.32694435  105.25000000    3.14000010    2.71000004
   12.32999992  111.03800201    3.14000010    2.71000004
   12.33083344  109.67500305    3.14000010    2.71000004
   12.33361053  114.48200226    3.14000010    2.71000004
   12.33666611  113.15799713    3.14000010    2.71000004
   12.34000015  116.21600342    3.14000010    2.71000004
   12.34305477  107.02100372    3.14000010    2.71000004
   12.34611034  109.99900055    3.09999990    2.73000002
   12.34944439  127.53600311    3.07999992    2.73000002
   12.35249996  115.30500031    3.09999990    2.71000004
   12.35583401  111.48799896    3.05999994    2.73000002
   12.35888958  121.75499725    3.03999996    2.71000004
   12.36222267  123.00299835    3.01999998    2.71000004
   12.36527824  125.53800201    3.00000000    2.71000004
   12.36861134  122.12400055    2.98000002    2.71000004
   12.37166691  137.63900757    2.96000004    2.71000004
   12.37500000  116.29199982    2.94000006    2.73000002
   12.37805557  122.42900085    2.91000009    2.75000000
   12.38083363  124.28299713    2.86999989    2.73000002
   12.38166714  123.98100281    2.86999989    2.75000000
   12.38472176  125.97000122    2.84999990    2.75000000
   12.38805580  115.34600067    2.82999992    2.73000002
   12.39111137  115.39800262    2.82999992    2.75000000
   12.39444447  111.19999695    2.80999994    2.73000002
   12.39750004  117.74299622    2.78999996    2.73000002
   12.40083313  127.32099915    2.78999996    2.73000002
   12.40388870  120.88999939    2.75000000    2.75000000
   12.40722179  120.77200317    2.75000000    2.73000002
   12.41027737  126.51300049    2.73000002    2.75000000
   12.41361046  122.98799896    2.73000002    2.75000000
   12.41666698  108.72100067    2.73000002    2.75000000
   12.42000008  116.38300323    2.71000004    2.75000000
   12.42305565  110.23400116    2.71000004    2.75000000
   12.42638874  117.07900238    2.71000004    2.75000000
   12.42944431  102.91799927    2.71000004    2.76999998
   12.43083382  128.83399963    2.69000006    2.75000000
   12.43305588  112.84799957    2.69000006    2.76999998
   12.43611145  108.05300140    2.69000006    2.75000000
   12.43944454  117.85500336    2.67000008    2.75000000
   12.44250011  109.37400055    2.67000008    2.75000000
   12.44583321  109.88700104    2.67000008    2.76999998
   12.46527767   99.34380341    2.66000009    2.75000000
   12.46833324  102.82800293    2.66000009    2.75000000
   12.47166634  118.13700104    2.66000009    2.75000000
   12.47472191   94.14589691    2.66000009    2.75000000
   12.47805500  111.63700104    2.66000009    2.75000000
   12.48111057   93.66259766    2.66000009    2.75000000
   12.48138809  109.28399658    2.66000009    2.75000000
   12.48472214  106.74800110    2.66000009    2.75000000
   12.48777771  111.67299652    2.67000008    2.75000000
   12.49111176  105.68199921    2.66000009    2.75000000
   12.49416733  119.35500336    2.66000009    2.75000000
   12.49750042  102.22899628    2.66000009    2.75000000
   12.50055599  112.10800171    2.66000009    2.76999998
   12.50388908  106.85299683    2.64000010    2.76999998
   12.50694466  101.29799652    2.64000010    2.75000000
   12.51027775  103.59300232    2.61999989    2.75000000
   12.51333332   94.95960236    2.61999989    2.76999998
   12.51666641  101.32099915    2.61999989    2.75000000
   12.51972198  105.48500061    2.59999990    2.76999998
   12.52305508  104.80300140    2.57999992    2.76999998
   12.52611065  101.90699768    2.57999992    2.78999996
   12.52944374  107.50599670    2.57999992    2.76999998
   12.53111076  119.40399933    2.55999994    2.78999996
   12.53277779  105.57700348    2.55999994    2.75000000
   12.53611183   98.05280304    2.55999994    2.76999998
   12.53916740  106.53399658    2.57999992    2.76999998
   12.54250050  109.64600372    2.53999996    2.78999996
   12.54555607   97.05439758    2.53999996    2.76999998
   12.54888916  104.85800171    2.53999996    2.76999998
   12.55194473   99.58860016    2.51999998    2.76999998
   12.55527782   99.78739929    2.51999998    2.76999998
   12.55833340   93.44390106    2.51999998    2.78999996
   12.56166649   99.30290222    2.51999998    2.78999996
   12.56472206  107.33200073    2.50000000    2.76999998
   12.56805515   98.46130371    2.50000000    2.78999996
   12.57111073  100.81099701    2.50000000    2.78999996
   12.57416630   99.91040039    2.50000000    2.78999996
   12.57750034  105.87599945    2.50000000    2.76999998
   12.58055592  109.27100372    2.50000000    2.76999998
   12.58111095  108.26300049    2.50000000    2.76999998
   12.58388901   99.62319946    2.51999998    2.76999998
   12.58722210  103.24700165    2.50000000    2.76999998
   12.59027767  100.76899719    2.51999998    2.76999998
   12.59361076  107.81199646    2.51999998    2.78999996
   12.59666634   95.55560303    2.53999996    2.76999998
   12.59972191   93.35269928    2.53999996    2.76999998
   12.60305595  102.97499847    2.53999996    2.76999998
   12.60611153   94.10810089    2.53999996    2.76999998
   12.60944462   97.21630096    2.53999996    2.76999998
   12.61250019  103.90200043    2.53999996    2.78999996
   12.61583328   96.36679840    2.55999994    2.78999996
   12.61888885  110.17600250    2.55999994    2.76999998
   12.62194443   94.34799957    2.57999992    2.78999996
   12.62527752   99.08540344    2.57999992    2.78999996
   12.62833309   87.64710236    2.57999992    2.78999996
   12.63111115  101.82800293    2.57999992    2.78999996
   12.63166714   92.72129822    2.57999992    2.78999996
   12.63500023  113.11499786    2.59999990    2.76999998
   12.63805580   98.96209717    2.57999992    2.76999998
   12.64138889  102.25800323    2.57999992    2.76999998
   12.64444447  107.31099701    2.57999992    2.76999998
   12.64750004  106.93199921    2.57999992    2.76999998
   12.65083313  105.81099701    2.57999992    2.76999998
   12.65388870  107.82399750    2.57999992    2.76999998
   12.65722179  114.29799652    2.55999994    2.76999998
   12.66027737  108.16200256    2.53999996    2.76999998
   12.66361046  106.23300171    2.53999996    2.76999998
   12.66666698  104.82299805    2.51999998    2.78999996
   12.67000008  116.23300171    2.48000002    2.78999996
   12.67305565   97.08889771    2.46000004    2.78999996
   12.67611122  103.75700378    2.44000006    2.78999996
   12.67944431  104.26300049    2.42000008    2.78999996
   12.68111134   90.47070313    2.42000008    2.78999996
   12.68277836  105.87000275    2.42000008    2.78999996
   12.68611145  114.23899841    2.40000010    2.78999996
   12.68916702  105.00199890    2.39000010    2.80999994
   12.69250011  119.92099762    2.36999989    2.80999994
   12.69555569  113.95500183    2.34999990    2.78999996
   12.69861126  106.98600006    2.34999990    2.80999994
   12.70194435  103.72599792    2.30999994    2.80999994
   12.70499992  111.67099762    2.28999996    2.80999994
   12.70833302  102.74099731    2.26999998    2.80999994
   12.71138859  110.14299774    2.26999998    2.80999994
   12.71472168  102.94200134    2.25000000    2.80999994
   12.71777725   96.21029663    2.23000002    2.80999994
   12.72083282   90.58219910    2.23000002    2.80999994
   12.72416592  110.99299622    2.23000002    2.80999994
   12.72722149  115.76999664    2.23000002    2.80999994
   12.73055553  112.44300079    2.25000000    2.82999992
   12.73111057  114.49600220    2.25000000    2.82999992
   12.73388958  112.56999969    2.23000002    2.80999994
   12.73722267  105.63899994    2.32999992    2.80999994
   12.74027824  117.03399658    2.32999992    2.80999994
   12.74361134  106.63400269    2.28999996    2.80999994
   12.74666691  125.80300140    2.25000000    2.80999994
   12.75000000  120.08699799    2.25000000    2.80999994
   12.75305557  107.09300232    2.25000000    2.80999994
   12.75611115  107.52799988    2.23000002    2.80999994
   12.75944424   95.01689911    2.21000004    2.80999994
   12.76249981  113.93000031    2.21000004    2.82999992
   12.76583290  104.89399719    2.21000004    2.80999994
   12.76888847   97.56210327    2.23000002    2.82999992
   12.77222157  109.98100281    2.23000002    2.82999992
   12.77527714  101.79000092    2.23000002    2.80999994
   12.77861118  114.78600311    2.21000004    2.82999992
   12.78111076   98.07350159    2.23000002    2.80999994
   12.78194427  101.55500031    2.25000000    2.80999994
   12.78527832  121.04499817    2.23000002    2.82999992
   12.78833389  110.09200287    2.25000000    2.80999994
   12.79166698  105.65000153    2.26999998    2.80999994
   12.79472256  105.83899689    2.23000002    2.80999994
   12.79805565  101.98899841    2.28999996    2.80999994
   12.80111122  115.35299683    2.28999996    2.80999994
   12.80444431  108.66100311    2.28999996    2.80999994
   12.80749989   92.58450317    2.21000004    2.82999992
   12.81083393   97.66339874    2.23000002    2.82999992
   12.81388950  100.08699799    2.19000006    2.82999992
   12.81722260   97.98090363    2.19000006    2.80999994
   12.82027817  109.34500122    2.19000006    2.80999994
   12.82361126  102.17600250    2.19000006    2.80999994
   12.82666683  105.80000305    2.17000008    2.82999992
   12.82999992   97.74870300    2.17000008    2.82999992
   12.83111095  100.48600006    2.17000008    2.82999992
   12.83361053   97.88590240    2.15000010    2.82999992
   12.83666611  103.51100159    2.13000011    2.82999992
   12.84000015  108.98400116    2.15000010    2.82999992
   12.84305477  108.15799713    2.13000011    2.82999992
   12.84638882   94.45279694    2.13000011    2.84999990
   12.84944439   90.81990051    2.13000011    2.82999992
   12.85277843  111.73500061    2.13000011    2.82999992
   12.85583401  108.38800049    2.11999989    2.82999992
   12.85916710  112.44799805    2.13000011    2.82999992
   12.86222267  114.50199890    2.11999989    2.82999992
   12.86555576  109.26799774    2.11999989    2.82999992
   12.86861134  106.82900238    2.11999989    2.82999992
   12.87194443  111.01699829    2.13000011    2.82999992
   12.87500000   98.95390320    2.11999989    2.82999992
   12.87833309  107.74900055    2.11999989    2.82999992
   12.88111115  112.19400024    2.13000011    2.82999992
   12.88194466   95.40879822    2.13000011    2.82999992
   12.88500023   97.14040375    2.13000011    2.82999992
   12.88805580  106.10900116    2.11999989    2.82999992
   12.89138889  108.05799866    2.11999989    2.82999992
   12.89444447  100.36299896    2.11999989    2.82999992
   12.89777756   95.21219635    2.13000011    2.82999992
   12.90083313  102.71299744    2.11999989    2.84999990
   12.90416622  106.04499817    2.13000011    2.82999992
   12.90722179  117.83300018    2.11999989    2.82999992
   12.91055489  103.43800354    2.11999989    2.82999992
   12.91361046  111.26699829    2.09999990    2.82999992
   12.91694450  112.80100250    2.11999989    2.82999992
   12.92027855  106.80400085    2.09999990    2.82999992
   12.92333412   97.75039673    2.09999990    2.84999990
   12.92666721   98.82949829    2.05999994    2.84999990
   12.92972279  104.13400269    2.05999994    2.84999990
   12.93111134   95.44940186    2.05999994    2.84999990
   12.93333340  113.70099640    2.05999994    2.84999990
   12.93638897   93.16580200    2.03999996    2.84999990
   12.93972206  101.26599884    2.05999994    2.82999992
   12.94277763   98.62039948    2.05999994    2.84999990
   12.94611073  102.02200317    2.07999992    2.82999992
   12.94916630  100.69200134    2.05999994    2.84999990
   12.95249939   98.60320282    2.05999994    2.82999992
   12.95555496   92.49870300    2.05999994    2.82999992
   12.95888901   88.60820007    2.05999994    2.82999992
   12.96194458   89.56950378    2.05999994    2.84999990
   12.96527767   98.63169861    2.03999996    2.84999990
   12.96833324  102.55899811    2.05999994    2.84999990
   12.97166634   94.90950012    2.05999994    2.84999990
   12.97472191  105.01000214    2.05999994    2.82999992
   12.97805500   96.14579773    2.07999992    2.84999990
   12.98111057   98.23770142    2.09999990    2.82999992
   12.98166656  105.50299835    2.09999990    2.82999992
   12.98472214  112.26499939    2.09999990    2.84999990
   12.98805618   95.92520142    2.09999990    2.82999992
   12.99111176  110.33200073    2.09999990    2.84999990
   12.99444485  102.11000061    2.07999992    2.84999990
   12.99750042  104.35700226    2.05999994    2.84999990
   13.00083351  105.87300110    2.03999996    2.84999990
   13.00388908   90.52780151    2.03999996    2.84999990
   13.00722218   90.95529938    2.03999996    2.82999992
   13.01027775  109.94499969    2.01999998    2.84999990
   13.01361084  107.45300293    2.00000000    2.84999990
   13.01666641  100.93599701    2.00000000    2.86999989
   13.01999950  103.84700012    1.98000002    2.84999990
   13.02305508  109.81700134    1.98000002    2.84999990
   13.02638817  104.35800171    1.98000002    2.82999992
   13.02944374   96.51840210    2.01999998    2.84999990
   13.03111076   79.37249756    2.01999998    2.84999990
   13.03305531  103.16300201    2.03999996    2.84999990
   13.03611183  105.19599915    2.03999996    2.84999990
   13.03944492  102.52500153    2.05999994    2.84999990
   13.04250050   91.37830353    2.05999994    2.84999990
   13.04583359  104.48100281    2.05999994    2.84999990
   13.04888916  102.50299835    2.05999994    2.82999992
   13.05222225  111.91400146    2.05999994    2.84999990
   13.05527782   97.56500244    2.05999994    2.84999990
   13.05861092   95.91729736    2.05999994    2.84999990
   13.06166649  113.19000244    2.05999994    2.84999990
   13.06500053  102.46700287    2.05999994    2.84999990
   13.06805515  118.44100189    2.05999994    2.84999990
   13.07138920   98.90720367    2.05999994    2.84999990
   13.07444477  109.98400116    2.03999996    2.84999990
   13.07777786  113.38600159    2.03999996    2.84999990
   13.08083344  102.54000092    2.03999996    2.84999990
   13.08138847  109.35199738    2.05999994    2.84999990
   13.08472157  105.02300262    2.00000000    2.84999990
   13.08777714  110.24500275    2.00000000    2.84999990
   13.09111118   92.87069702    1.98000002    2.86999989
   13.09416676  108.22699738    1.94000006    2.86999989
   13.09749985   97.45320129    1.94000006    2.86999989
   13.10055637   95.56610107    1.86000001    2.84999990
   13.10388947   87.30619812    1.86000001    2.86999989
   13.10694504  106.02899933    1.86000001    2.86999989
   13.11027813   96.43959808    1.83000004    2.84999990
   13.11333370   99.99240112    1.83000004    2.84999990
   13.11666679   96.64900208    1.78999996    2.86999989
   13.11972237   81.50090027    1.80999994    2.86999989
   13.12305546  109.93499756    1.85000002    2.86999989
   13.12611103   93.76560211    1.83000004    2.89000010
   13.12944412   85.74019623    1.85000002    2.86999989
   13.13138866  104.36199951    1.85000002    2.86999989
   13.13277817  102.80500031    1.85000002    2.86999989
   13.13611126   90.00260162    1.83000004    2.86999989
   13.13916683  102.20099640    1.85000002    2.86999989
   13.14249992  104.01100159    1.85000002    2.86999989
   13.14555550   90.85410309    1.80999994    2.86999989
   13.14888859  112.07700348    1.80999994    2.89000010
   13.15194416  109.06900024    1.80999994    2.86999989
   13.15527725  116.88999939    1.78999996    2.86999989
   13.15833282  124.10199738    1.78999996    2.86999989
   13.16166592  116.86799622    1.80999994    2.89000010
   13.16472149  120.85399628    1.78999996    2.86999989
   13.16805553  130.53399658    1.78999996    2.86999989
   13.17111111  117.91999817    1.78999996    2.86999989
   13.17444515  131.85299683    1.78999996    2.86999989
   13.17750072  109.67700195    1.76999998    2.89000010
   13.18083382  124.65599823    1.78999996    2.86999989
   13.18138885   97.80780029    1.76999998    2.86999989
   13.18416691   98.26730347    1.76999998    2.86999989
   13.18750000  128.36099243    1.75000000    2.89000010
   13.19055557  101.41400146    1.78999996    2.86999989
   13.19388866  115.43000031    1.76999998    2.89000010
   13.19694424  100.33599854    1.76999998    2.89000010
   13.20027733  105.98699951    1.78999996    2.86999989
   13.20333290  118.43699646    1.78999996    2.86999989
   13.20666695  109.19000244    1.80999994    2.89000010
   13.20972157   96.47810364    1.80999994    2.89000010
   13.21305561  117.61199951    1.80999994    2.86999989
   13.21611118  125.91500092    1.85000002    2.86999989
   13.21944427  126.03800201    1.86000001    2.89000010
   13.22249985   98.79129791    1.86000001    2.89000010
   13.22583294  120.48500061    1.86000001    2.86999989
   13.22888851  126.78099823    1.91999996    2.89000010
   13.23138809  104.41699982    1.85000002    2.86999989
   13.23249912  117.90200043    1.86000001    2.89000010
   13.23583317  105.10299683    1.85000002    2.86999989
   13.23888874  128.33900452    1.85000002    2.86999989
   13.24222279  122.53700256    1.85000002    2.86999989
   13.24527836  132.86099243    1.83000004    2.86999989
   13.24861145  121.69999695    1.80999994    2.86999989
   13.25194454  103.20600128    1.83000004    2.86999989
   13.25500011   97.59130096    1.80999994    2.89000010
   13.25833321  132.93099976    1.76999998    2.89000010
   13.26138878  118.38200378    1.75000000    2.89000010
   13.26472187  110.66200256    1.73000002    2.89000010
   13.26777744  117.79799652    1.73000002    2.86999989
   13.27111053  117.61100006    1.73000002    2.89000010
   13.27416611  106.21800232    1.73000002    2.89000010
   13.27750015  116.04000092    1.71000004    2.89000010
   13.28055573  119.88700104    1.71000004    2.89000010
   13.28138828  112.92500305    1.71000004    2.89000010
   13.28416729  110.54199982    1.69000006    2.89000010
   13.28722286  122.99800110    1.66999996    2.91000009
   13.29055595  117.56400299    1.66999996    2.89000010
   13.29361153  110.35600281    1.64999998    2.89000010
   13.29694462  114.63999939    1.64999998    2.91000009
   13.30000019  103.17600250    1.63000000    2.91000009
   13.30333328  130.64199829    1.63000000    2.89000010
   13.30638885  111.16500092    1.63000000    2.91000009
   13.30972195  113.01499939    1.63000000    2.91000009
   13.31277752  123.43399811    1.63000000    2.91000009
   13.31611156  126.46499634    1.63000000    2.89000010
   13.31916618  126.66999817    1.64999998    2.91000009
   13.32250023  110.26499939    1.66999996    2.89000010
   13.32555580  127.55999756    1.66999996    2.89000010
   13.32888889  108.56700134    1.66999996    2.89000010
   13.33138847  119.47799683    1.66999996    2.89000010
   13.33249950  126.95500183    1.66999996    2.89000010
   13.33555508  116.95999908    1.66999996    2.91000009
   13.33888817  124.71299744    1.69000006    2.89000010
   13.34194374  121.72000122    1.66999996    2.89000010
   13.34527779  123.65799713    1.66999996    2.91000009
   13.34833336  123.01999664    1.69000006    2.89000010
   13.35166740  119.13700104    1.69000006    2.89000010
   13.35472298  114.20899963    1.69000006    2.89000010
   13.35805607  109.44699860    1.69000006    2.89000010
   13.36111164  119.09999847    1.69000006    2.89000010
   13.36444473  130.06599426    1.66999996    2.89000010
   13.36750031  127.97499847    1.66999996    2.89000010
   13.37083340  114.41500092    1.66999996    2.89000010
   13.37388897  137.00599670    1.66999996    2.91000009
   13.37722206  113.60900116    1.64999998    2.91000009
   13.38027763  128.94099426    1.66999996    2.91000009
   13.38138866  115.36799622    1.66999996    2.91000009
   13.38388920  133.72599792    1.66999996    2.91000009
   13.38694477  117.35900116    1.66999996    2.91000009
   13.39027786  121.30500031    1.66999996    2.89000010
   13.39333344  118.23600006    1.64999998    2.89000010
   13.39666653  131.90899658    1.64999998    2.89000010
   13.39972210  114.87000275    1.64999998    2.89000010
   13.40305519  111.26899719    1.66999996    2.89000010
   13.40611076  122.65599823    1.66999996    2.91000009
   13.40944386  105.78900146    1.66999996    2.89000010
   13.41249943  113.24199677    1.66999996    2.91000009
   13.41583252  119.70700073    1.66999996    2.91000009
   13.41888905  110.63999939    1.61000001    2.89000010
   13.42222214  109.79499817    1.60000002    2.91000009
   13.42527771  120.66200256    1.60000002    2.91000009
   13.42861176  128.31300354    1.58000004    2.91000009
   13.43138885  118.79000092    1.58000004    2.91000009
   13.43222237  116.66200256    1.55999994    2.91000009
   13.43527794  101.16400146    1.55999994    2.91000009
   13.43861103  119.02100372    1.53999996    2.91000009
   13.44166660  118.35700226    1.53999996    2.93000007
   13.44499969  116.76799774    1.53999996    2.91000009
   13.44805527  139.98500061    1.50000000    2.93000007
   13.45138836  125.86399841    1.48000002    2.93000007
   13.45444393  117.96900177    1.48000002    2.91000009
   13.45777798  109.69799805    1.48000002    2.91000009
   13.46083355  112.93099976    1.48000002    2.91000009
   13.48027706  103.32499695    1.44000006    2.91000009
   13.48166656  112.84799957    1.44000006    2.91000009
   13.48388958  119.42099762    1.46000004    2.93000007
   13.48722267  112.37000275    1.44000006    2.93000007
   13.49027824  114.67299652    1.44000006    2.91000009
   13.49361134  107.54599762    1.44000006    2.93000007
   13.49666691  111.70200348    1.44000006    2.93000007
   13.50000000  118.79499817    1.44000006    2.93000007
   13.50305557  106.81999969    1.44000006    2.93000007
   13.50638866  106.68099976    1.48000002    2.93000007
   13.50944424  107.59600067    1.44000006    2.93000007
   13.51277733  117.17400360    1.44000006    2.93000007
   13.51583290  123.61699677    1.46000004    2.93000007
   13.51916599  111.77999878    1.44000006    2.91000009
   13.52222157  114.82399750    1.44000006    2.93000007
   13.52555561  115.40699768    1.44000006    2.93000007
   13.52861118   99.16220093    1.44000006    2.93000007
   13.53166676  113.72899628    1.46000004    2.91000009
   13.53222179  111.99400330    1.53999996    2.91000009
   13.53555584  115.82800293    1.58000004    2.91000009
   13.53861141  106.71499634    1.61000001    2.91000009
   13.54194450  116.02999878    1.60000002    2.91000009
   13.54500008  105.69200134    1.63000000    2.91000009
   13.54833412  117.47899628    1.63000000    2.91000009
   13.55138874  107.90100098    1.61000001    2.91000009
   13.55472279  107.03199768    1.63000000    2.91000009
   13.55777836  115.82499695    1.63000000    2.91000009
   13.56111145  107.54100037    1.63000000    2.91000009
   13.56416702  109.62000275    1.63000000    2.91000009
   13.56750011  113.34200287    1.63000000    2.91000009
   13.57055569  112.06099701    1.61000001    2.91000009
   13.57388878  113.41799927    1.61000001    2.93000007
   13.57694435  111.75299835    1.61000001    2.91000009
   13.58027744   97.79399872    1.61000001    2.91000009
   13.58166695  102.23799896    1.61000001    2.91000009
   13.58361053  121.14199829    1.61000001    2.91000009
   13.58694458  116.28399658    1.61000001    2.91000009
   13.59000015  106.55300140    1.60000002    2.91000009
   13.59333324  108.63899994    1.58000004    2.93000007
   13.59638882  110.00900269    1.55999994    2.93000007
   13.59972191  115.85299683    1.55999994    2.93000007
   13.60277843  115.11900330    1.55999994    2.91000009
   13.60611153  114.30699921    1.51999998    2.91000009
   13.60916710   97.32749939    1.51999998    2.93000007
   13.61250019  110.47599792    1.51999998    2.93000007
   13.61555576  105.20800018    1.44000006    2.93000007
   13.61888885  100.12300110    1.41999996    2.93000007
   13.62194443  100.99400330    1.41999996    2.94000006
   13.62527752  110.41600037    1.39999998    2.93000007
   13.62833309  113.49500275    1.39999998    2.93000007
   13.63166714  112.92400360    1.39999998    2.93000007
   13.63194466  116.84799957    1.39999998    2.93000007
   13.63527775  117.79599762    1.39999998    2.93000007
   13.63861084  101.19400024    1.39999998    2.93000007
   13.64166641  113.00700378    1.38000000    2.93000007
   13.64499950   98.37840271    1.36000001    2.94000006
   13.64805508  102.75000000    1.36000001    2.94000006
   13.65138817  114.18599701    1.38000000    2.93000007
   13.65444374  104.74500275    1.38000000    2.93000007
   13.65777779  117.76399994    1.38000000    2.94000006
   13.66083336  120.81600189    1.38000000    2.93000007
   13.66416645  127.88700104    1.38000000    2.93000007
   13.66722298  142.50000000    1.38000000    2.93000007
   13.67055607  126.44999695    1.38000000    2.94000006
   13.67361164  109.24800110    1.38000000    2.93000007
   13.67694473  119.72299957    1.38000000    2.93000007
   13.68000031  132.30000305    1.38000000    2.93000007
   13.68166733  129.42399597    1.38000000    2.93000007
   13.68333340  163.78199768    1.38000000    2.93000007
   13.68666649  144.48100281    1.39999998    2.93000007
   13.68972206  163.31900024    1.41999996    2.93000007
   13.69305515  141.13499451    1.41999996    2.93000007
   13.69611073  172.56199646    1.41999996    2.93000007
   13.69944477  163.16799927    1.50000000    2.93000007
   13.70249939  142.53799438    1.44000006    2.91000009
   13.70583344  157.16400146    1.46000004    2.94000006
   13.70888901  124.99900055    1.48000002    2.93000007
   13.71222210  146.75999451    1.46000004    2.94000006
   13.71527767  145.99699402    1.46000004    2.93000007
   13.71861076  127.19000244    1.46000004    2.91000009
   13.72166634  153.60200500    1.46000004    2.93000007
   13.72499943  173.51400757    1.46000004    2.93000007
   13.72805500  152.46299744    1.46000004    2.93000007
   13.73138809  169.81599426    1.46000004    2.94000006
   13.73194408  160.48500061    1.46000004    2.94000006
   13.76944447   -1.00000000    1.44000006    2.93000007
   13.77250004   -1.00000000    1.46000004    2.93000007
   13.77583313   -1.00000000    1.41999996    2.94000006
   13.77888870   -1.00000000    1.38000000    2.94000006
   13.78222179   -1.00000000    1.39999998    2.94000006
   13.78555584   -1.00000000    1.44000006    2.94000006
   13.78861141   -1.00000000    1.41999996    2.93000007
   13.79916668   -1.00000000    1.36000001    2.94000006
   13.80222225   -1.00000000    1.38000000    2.94000006
   13.80555534   -1.00000000    1.38000000    2.94000006
   13.80861092   -1.00000000    1.36000001    2.94000006
   13.81166649   -1.00000000    1.36000001    2.94000006
   13.90166664   -1.00000000   -1.00000000   -1.00000000
   13.99972248   -1.00000000   -1.00000000   -1.00000000
   14.10638905   -1.00000000   -1.00000000   -1.00000000
   14.14833355   61.46469879    1.34000003    2.96000004
   14.15166664   95.35939789    1.34000003    2.96000004
   14.15472221   86.98549652    1.33000004    2.96000004
   14.15805531   98.64029694    1.33000004    2.94000006
   14.16111088   86.86940002    1.33000004    2.94000006
   14.16444397   97.20780182    1.33000004    2.96000004
   14.16777802   89.21289825    1.33000004    2.94000006
   14.17083359   91.13849640    1.33000004    2.94000006
   14.17694473   91.13849640    1.30999994    2.94000006
   14.18111134   91.23040009    1.28999996    2.96000004
   14.18444443  106.54599762    1.28999996    2.94000006
   14.18750000   99.02649689    1.25000000    2.96000004
   14.19083309   98.06909943    1.25000000    2.94000006
   14.19388866  101.02799988    1.25000000    2.94000006
   14.19722271  100.50700378    1.25000000    2.96000004
   14.19833374  108.18900299    1.26999998    2.94000006
   14.20055580   97.85359955    1.25000000    2.96000004
   14.20361137   79.67780304    1.26999998    2.96000004
   14.20694447   97.04640198    1.25000000    2.96000004
   14.21000004   90.26519775    1.26999998    2.96000004
   14.21333313  107.45200348    1.25000000    2.96000004
   14.21638870   95.78900146    1.25000000    2.96000004
   14.21972179   95.21749878    1.25000000    2.96000004
   14.22277737   97.39350128    1.25000000    2.96000004
   14.22833252   97.39350128    1.25000000    2.96000004
   14.23222160   97.94149780    1.25000000    2.98000002
   14.23555565   91.56620026    1.21000004    2.96000004
   14.23861122   97.69730377    1.23000002    2.98000002
   14.24194431   82.25299835    1.23000002    2.98000002
   14.24499989  102.41600037    1.26999998    2.94000006
   14.24833393   94.53009796    1.26999998    2.96000004
   14.24861145   97.25959778    1.26999998    2.96000004
   14.25194454   84.23049927    1.26999998    2.94000006
   14.25527763   95.15419769    1.26999998    2.94000006
   14.25833321   85.52700043    1.28999996    2.96000004
   14.26166630  102.05799866    1.30999994    2.96000004
   14.26472187   99.07360077    1.30999994    2.98000002
   14.26805496  105.89299774    1.30999994    2.96000004
   14.27111053   84.46710205    1.30999994    2.96000004
   14.27444458   88.01039886    1.30999994    2.96000004
   14.27944374   88.01039886    1.30999994    2.96000004
   14.28361130   93.49649811    1.28999996    2.96000004
   14.28666687   95.39459991    1.26999998    2.96000004
   14.29000092   94.52439880    1.23000002    2.96000004
   14.29305553   92.74299622    1.25000000    2.96000004
   14.29638958   97.16929626    1.25000000    2.96000004
   14.29888916   96.08339691    1.26999998    2.96000004
   14.29972267   84.60230255    1.30999994    2.96000004
   14.30277824   99.58159637    1.26999998    2.96000004
   14.30611134   91.21649933    1.26999998    2.96000004
   14.30916691   94.24220276    1.26999998    2.96000004
   14.31250000  100.93399811    1.26999998    2.98000002
   14.31555557   98.47440338    1.25000000    2.96000004
   14.31888866  107.21600342    1.26999998    2.96000004
   14.32194424   93.60890198    1.26999998    2.96000004
   14.32527733  101.03800201    1.26999998    2.96000004
   14.33055592  101.03800201    1.28999996    2.96000004
   14.33472157   99.13040161    1.26999998    2.98000002
   14.33777714  105.33399963    1.26999998    2.98000002
   14.34111118  106.09700012    1.26999998    2.96000004
   14.34416676  102.34100342    1.28999996    2.96000004
   14.34749985   99.41159821    1.28999996    2.96000004
   14.34888840   92.60150146    1.26999998    2.96000004
   14.35111141  107.02799988    1.26999998    2.96000004
   14.35444450   92.02729797    1.26999998    2.96000004
   14.35750008  102.07199860    1.26999998    2.96000004
   14.36083412  107.19999695    1.28999996    2.96000004
   14.36388969   90.37539673    1.28999996    2.96000004
   14.36722279  103.93800354    1.25000000    2.96000004
   14.37027836   82.34529877    1.25000000    2.96000004
   14.37333393   91.10119629    1.25000000    2.98000002
   14.37666702   98.73459625    1.21000004    2.96000004
   14.38166714   98.73459625    1.19000006    2.98000002
   14.38583279  103.85800171    1.21000004    2.96000004
   14.38916683  102.75299835    1.19000006    2.98000002
   14.39222240   95.04350281    1.19000006    2.96000004
   14.39555550  104.90100098    1.16999996    2.96000004
   14.39861107   98.44509888    1.19000006    2.96000004
   14.39916611   96.70359802    1.19000006    2.96000004
   14.40222168   97.47969818    1.16999996    2.98000002
   14.40555477   95.96949768    1.14999998    2.96000004
   14.40861034  103.60199738    1.14999998    2.96000004
   14.41194439   97.71479797    1.16999996    2.96000004
   14.41499996   94.32330322    1.14999998    2.98000002
   14.41833401   87.44860077    1.14999998    2.98000002
   14.42138958   91.40920258    1.13000000    2.98000002
   14.42472267  103.21299744    1.11000001    2.98000002
   14.42777824   92.08740234    1.11000001    2.98000002
   14.43305588   92.08740234    1.11000001    2.98000002
   14.43694496   99.57599640    1.07000005    2.98000002
   14.44027805   84.67900085    1.05999994    2.98000002
   14.44333363  101.76999664    1.01999998    2.98000002
   14.44666672   93.74929810    1.01999998    2.98000002
   14.44916630   99.41400146    1.00000000    3.00000000
   14.44999981  103.45899963    1.00000000    3.00000000
   14.45333290  104.95800018    0.95999998    3.00000000
   14.45638847  116.57700348    0.95999998    3.00000000
   14.45972157  104.86799622    0.95999998    2.98000002
   14.46277714  108.60399628    0.95999998    3.00000000
   14.46611118   92.42070007    0.98000002    3.00000000
   14.46916580   95.83059692    1.00000000    2.98000002
   14.47249985  101.36100006    1.00000000    3.00000000
   14.47555542   99.37619781    0.98000002    2.98000002
   14.47888851  106.69799805    0.98000002    2.98000002
   14.48416710  106.69799805    0.98000002    3.00000000
   14.48833370  107.97699738    1.00000000    3.00000000
   14.49138927  112.60099792    1.00000000    2.98000002
   14.49472237  107.21900177    1.01999998    2.98000002
   14.49777794  108.15799713    1.03999996    2.98000002
   14.49944496  104.32700348    1.01999998    2.98000002
   14.50138855  106.51999664    1.03999996    3.00000000
   14.50472260  107.06500244    1.03999996    2.98000002
   14.50777817  116.61499786    1.03999996    2.98000002
   14.51111126  105.32099915    1.03999996    3.00000000
   14.51416683  111.60399628    1.03999996    2.98000002
   14.51749992  102.77999878    1.03999996    2.98000002
   14.52055550   99.94650269    1.05999994    2.98000002
   14.52388859  106.23600006    1.05999994    2.98000002
   14.52694416  104.93099976    1.05999994    2.98000002
   14.53027725  110.16200256    1.05999994    2.98000002
   14.53527832  110.16200256    1.03999996    3.00000000
   14.53944492   95.12870026    1.03999996    2.98000002
   14.54250050  101.47799683    1.03999996    3.00000000
   14.54583359  104.28199768    1.05999994    2.98000002
   14.54888916  121.30100250    1.05999994    2.98000002
   14.54972267  111.50599670    1.07000005    2.98000002
   14.55249977  102.63700104    1.05999994    3.00000000
   14.55583382  108.86100006    1.05999994    2.98000002
   14.55888939   88.10369873    1.03999996    2.98000002
   14.56222248  102.56999969    1.05999994    3.00000000
   14.56527805   95.19570160    1.05999994    2.96000004
   14.56861115   96.99669647    1.01999998    2.98000002
   14.57166672  105.75299835    1.01999998    2.98000002
   14.57499981  106.00099945    1.01999998    2.98000002
   14.57805538  104.62899780    1.00000000    3.00000000
   14.58138847   93.34120178    0.98000002    3.00000000
   14.58638859   93.34120178    0.92000002    3.00000000
   14.59055519  109.16100311    0.94000000    3.00000000
   14.59361076  104.60800171    0.94000000    3.00000000
   14.59694386   99.47689819    0.98000002    3.00000000
   14.59972191  108.93499756    0.98000002    3.00000000
   14.60027790  109.63300323    0.95999998    3.00000000
   14.60361195  105.12599945    0.95999998    3.00000000
   14.60666752   94.32890320    1.01999998    2.98000002
   14.61000061   94.50569916    1.01999998    3.00000000
   14.61305618   95.04139709    1.01999998    3.00000000
   14.61638927   97.56950378    1.01999998    2.98000002
   14.61944485  108.68199921    1.01999998    2.98000002
   14.62277794  103.25700378    1.01999998    2.98000002
   14.62583351  101.96299744    1.00000000    3.00000000
   14.62916660  100.78299713    1.01999998    2.98000002
   14.63222218  104.11799622    0.98000002    3.01999998
   14.63749981  104.11799622    1.00000000    2.98000002
   14.64166641  103.32399750    1.00000000    3.00000000
   14.64499950  112.22100067    0.98000002    3.00000000
   14.64805508  110.90799713    0.95999998    3.00000000
   14.64972210  111.24900055    0.95999998    3.00000000
   14.65166664  101.11599731    0.94000000    3.00000000
   14.65499973  102.25800323    0.94000000    2.98000002
   14.65805531  115.00299835    0.94000000    3.00000000
   14.66138840  106.28199768    0.94000000    3.00000000
   14.66444397  105.38999939    0.94000000    3.00000000
   14.66777802  107.76399994    0.94000000    3.00000000
   14.67083359  107.16300201    0.95999998    3.00000000
   14.67416668   99.06520081    0.94000000    3.00000000
   14.67722225  116.20600128    0.94000000    3.00000000
   14.68055630  104.51599884    0.94000000    2.98000002
   14.68361092  110.81700134    0.94000000    3.00000000
   14.68888855  110.81700134    0.94000000    3.00000000
   14.69277763   95.61460114    0.88000000    3.00000000
   14.69611073   89.42780304    0.89999998    3.01999998
   14.69916630   95.93769836    0.88000000    3.00000000
   14.69972229  103.87899780    0.88000000    3.00000000
   14.70277786   88.82810211    0.89999998    3.00000000
   14.70583344   97.82610321    0.86000001    3.00000000
   14.70916653  109.39800262    0.80000001    3.01999998
   14.71222210  115.20600128    0.81999999    3.00000000
   14.71555519  109.74199677    0.76999998    3.01999998
   14.71861076  102.02700043    0.76999998    3.01999998
   14.72194386  121.17900085    0.73000002    3.01999998
   14.72499943  104.22299957    0.73000002    3.01999998
   14.72833252   93.92289734    0.69000000    3.01999998
   14.73138809  104.53700256    0.67000002    3.01999998
   14.73472214  111.97299957    0.63000000    3.01999998
   14.74000072  111.97299957    0.63000000    3.03999996
   14.74416733  114.25000000    0.61000001    3.01999998
   14.74722290  108.57199860    0.58999997    3.01999998
   14.74972248  128.87100220    0.61000001    3.01999998
   14.75083351  127.74299622    0.58999997    3.01999998
   14.75388908  113.57499695    0.56999999    3.03999996
   14.75722218  135.49600220    0.56999999    3.01999998
   14.76027775   91.49530029    0.56999999    3.03999996
   14.76361084  120.78600311    0.56999999    3.03999996
   14.76666641  115.49500275    0.58999997    3.01999998
   14.76999950  111.02999878    0.61000001    3.03999996
   14.77305508  118.25199890    0.61000001    3.01999998
   14.77638817  130.35499573    0.61000001    3.01999998
   14.77944374   98.97160339    0.61000001    3.01999998
   14.78277779  112.17800140    0.61000001    3.01999998
   14.78583336  105.78199768    0.61000001    3.01999998
   14.79111195  105.78199768    0.64999998    3.01999998
   14.79527855  106.14399719    0.64999998    3.01999998
   14.79833412  103.05200195    0.69000000    3.01999998
   14.79972267  100.67500305    0.69000000    3.01999998
   14.80194473  109.44400024    0.69000000    3.01999998
   14.80500031  107.44999695    0.69000000    3.01999998
   14.80833340  100.17700195    0.69000000    3.01999998
   14.81138897  118.76000214    0.67000002    3.01999998
   14.81472206   97.00240326    0.69000000    3.01999998
   14.81777763  111.89600372    0.67000002    3.03999996
   14.82111073  108.96600342    0.67000002    3.01999998
   14.82416630  108.80799866    0.67000002    3.01999998
   14.82750034  117.51899719    0.67000002    3.01999998
   14.83055592  118.48600006    0.64999998    3.01999998
   14.83388901   96.81960297    0.64999998    3.01999998
   14.83694458  112.65200043    0.61000001    3.03999996
   14.84222221  112.65200043    0.58999997    3.03999996
   14.84638882  112.26999664    0.58999997    3.01999998
   14.84972191  104.06099701    0.58999997    3.03999996
   14.85000038  117.54000092    0.58999997    3.03999996
   14.85333347  103.01300049    0.56999999    3.03999996
   14.85638905  123.81600189    0.58999997    3.01999998
   14.85972214  113.80000305    0.58999997    3.01999998
   14.86277771  116.48799896    0.56999999    3.01999998
   14.86611176  111.34700012    0.55000001    3.03999996
   14.86916637  122.90799713    0.51999998    3.03999996
   14.87250042  111.26899719    0.51999998    3.03999996
   14.87555599  106.58799744    0.51999998    3.03999996
   14.87888908  106.06600189    0.52999997    3.03999996
   14.88194466  109.35600281    0.52999997    3.03999996
   14.88527775   97.83309937    0.55000001    3.03999996
   14.88833332  106.20600128    0.55000001    3.03999996
   14.89361095  106.20600128    0.55000001    3.03999996
   14.89750004  115.92099762    0.56999999    3.03999996
   14.89999962  105.33300018    0.58999997    3.03999996
   14.90111065  100.95500183    0.58999997    3.03999996
   14.90416622  108.77600098    0.61000001    3.03999996
   14.90749931  115.90100098    0.63000000    3.03999996
   14.91055489  112.21099854    0.61000001    3.05999994
   14.91388893   86.54530334    0.58999997    3.03999996
   14.91694450   91.21109772    0.63000000    3.03999996
   14.92027855   96.42379761    0.63000000    3.03999996
   14.92333412  109.46700287    0.63000000    3.01999998
   14.92666721   99.72750092    0.64999998    3.01999998
   14.92972279  106.75399780    0.64999998    3.01999998
   14.93305588  124.96900177    0.64999998    3.03999996
   14.93611145  103.05699921    0.64999998    3.03999996
   14.93944454  114.20600128    0.63000000    3.03999996
   14.94472218  114.20600128    0.61000001    3.05999994
   14.94888878  113.38200378    0.61000001    3.03999996
   14.94999981  109.33200073    0.61000001    3.03999996
   14.95222187  117.65399933    0.61000001    3.05999994
   14.95527744  137.27099609    0.61000001    3.03999996
   14.95861053  121.90699768    0.58999997    3.03999996
   14.96166611  130.13000488    0.58999997    3.03999996
   14.96500015  133.04299927    0.63000000    3.03999996
   14.96805477  109.28299713    0.58999997    3.03999996
   14.97138882  123.72399902    0.61000001    3.03999996
   14.97444439  113.90399933    0.58999997    3.03999996
   14.97777748  130.89700317    0.58999997    3.03999996
   14.98083305  122.18399811    0.58999997    3.03999996
   14.98416710  128.92399597    0.58999997    3.01999998
   14.98722267  114.55699921    0.61000001    3.03999996
   14.99055576  109.67900085    0.61000001    3.03999996
   14.99583340  109.67900085    0.64999998    3.03999996
   15.00000000  129.25100708    0.69000000    3.03999996
   15.00055599  126.37999725    0.69000000    3.03999996
   15.00361156  121.12899780    0.70999998    3.01999998
   15.00694466  119.99700165    0.70999998    3.03999996
   15.01000023  139.95100403    0.73000002    3.03999996
   15.01333332  138.36500549    0.70999998    3.01999998
   15.01638889  131.01300049    0.70999998    3.01999998
   15.01944447  125.57199860    0.73000002    3.01999998
   15.02277756  133.73899841    0.70999998    3.01999998
   15.02583313  114.32499695    0.70999998    3.03999996
   15.02916622  110.65499878    0.70999998    3.03999996
   15.03222179  119.68699646    0.70999998    3.01999998
   15.03555584  128.27200317    0.70999998    3.01999998
   15.03861141  126.20300293    0.75000000    3.03999996
   15.04166698  107.67299652    0.79000002    3.03999996
   15.04694462  107.67299652    0.81999999    3.01999998
   15.05111122  122.36799622    0.81999999    3.01999998
   15.05444431  131.48399353    0.86000001    3.00000000
   15.05749989  135.58399963    0.86000001    3.01999998
   15.06083393  132.14199829    0.88000000    3.01999998
   15.06388950  141.99099731    0.92000002    3.01999998
   15.06722260  128.36099243    0.92000002    3.01999998
   15.07055569  116.79100037    0.94000000    3.01999998
   15.07361126  142.75399780    0.94000000    3.01999998
   15.07694435  152.41499329    1.01999998    3.01999998
   15.07999992  146.07800293    1.01999998    3.00000000
   15.08333302  111.12899780    1.01999998    3.00000000
   15.08638859  117.01899719    1.00000000    3.01999998
   15.08944416  138.55099487    1.00000000    3.01999998
   15.09277725  139.50900269    0.98000002    3.01999998
   15.09833336  139.50900269    0.98000002    3.01999998
   15.10222244  139.55700684    0.98000002    3.01999998
   15.10555553  154.85200500    1.00000000    3.01999998
   15.10861111  157.60099792    1.01999998    3.01999998
   15.11194515  181.94900513    1.00000000    3.00000000
   15.11500072  107.55599976    1.05999994    3.00000000
   15.11833382  149.28399658    1.03999996    3.01999998
   15.12138939  139.28500366    1.01999998    3.01999998
   15.12472248  141.00700378    1.03999996    3.00000000
   15.12777805  124.11199951    1.01999998    3.00000000
   15.13111115  165.23300171    1.01999998    3.01999998
   15.13416672  120.08899689    1.01999998    3.00000000
   15.13749981  120.63800049    1.01999998    3.00000000
   15.14055538  147.75399780    0.98000002    3.01999998
   15.14361095  168.38400269    1.00000000    3.00000000
   15.16583252  166.53799438    0.92000002    3.01999998
   15.16638851  168.52000427    0.92000002    3.01999998
   15.16944504  150.81900024    0.92000002    3.01999998
   15.17250061  133.39100647    0.94000000    3.00000000
   15.17583370  152.85899353    0.92000002    3.00000000
   15.17888927  145.39500427    0.95999998    3.00000000
   15.18222237  130.38699341    0.94000000    3.01999998
   15.18527794  162.21000671    0.94000000    3.00000000
   15.18861103  161.92599487    1.00000000    3.01999998
   15.19166660  176.68299866    0.95999998    3.00000000
   15.19499969  211.60400391    0.95999998    3.00000000
   15.20083332  211.60400391    0.94000000    3.01999998
   15.20499992  216.13999939    0.95999998    3.01999998
   15.20805550  250.50999451    0.94000000    3.01999998
   15.21111107  218.41299438    0.95999998    3.01999998
   15.21444416  190.59800720    0.95999998    3.00000000
   15.21555519  184.35499573    0.95999998    3.00000000
   15.21777725  239.10899353    0.95999998    3.01999998
   15.22111034  204.18899536    0.95999998    3.00000000
   15.22416592  200.20399475    0.98000002    3.01999998
   15.22749996  225.33700562    1.00000000    3.00000000
   15.23055553  197.07699585    1.00000000    3.00000000
   15.23388958  149.08999634    1.00000000    3.00000000
   15.23694515  171.26499939    0.98000002    3.00000000
   15.24000072  166.59700012    1.00000000    3.01999998
   15.24333382  172.77600098    1.00000000    3.01999998
   15.24638939  154.95300293    1.03999996    3.00000000
   15.25194454  154.95300293    1.05999994    3.00000000
   15.25611115  178.12899780    1.03999996    3.00000000
   15.25916672  145.52200317    1.05999994    3.00000000
   15.26249981  159.47000122    1.03999996    3.00000000
   15.26555538  154.11300659    1.01999998    3.00000000
   15.26583290  147.27900696    1.01999998    3.00000000
   15.26916599  145.71899414    1.01999998    3.01999998
   15.27222157  160.71299744    1.01999998    3.01999998
   15.27555561  158.82299805    1.05999994    3.00000000
   15.27861118  151.10200500    1.07000005    3.00000000
   15.28194427  178.92300415    1.09000003    3.00000000
   15.28500080  166.82699585    1.09000003    3.01999998
   15.28833389  172.63200378    1.09000003    3.00000000
   15.29138947  155.29100037    1.07000005    3.00000000
   15.29472256  173.32299805    1.05999994    3.00000000
   15.29777813  158.08500671    1.05999994    3.00000000
   15.30305576  158.08500671    1.00000000    3.01999998
   15.30722237  130.53799438    0.95999998    3.00000000
   15.31055546  145.06700134    0.95999998    3.01999998
   15.31361103  152.74800110    0.95999998    3.01999998
   15.31555557  173.85699463    0.98000002    3.01999998
   15.31722260  149.97200012    0.98000002    3.01999998
   15.32055569  137.55400085    0.98000002    3.01999998
   15.32361126  152.59599304    1.03999996    3.01999998
   15.32694435  166.41099548    1.01999998    3.01999998
   15.32999992  137.16700745    1.01999998    3.00000000
   15.33333302  164.31300354    0.95999998    3.00000000
   15.33638859  153.39900208    0.95999998    3.01999998
   15.33972168  183.30799866    0.95999998    3.00000000
   15.34277725  138.81799316    0.95999998    3.01999998
   15.34611034  139.57800293    0.94000000    3.01999998
   15.34916592  172.64999390    0.94000000    3.01999998
   15.35444450  172.64999390    0.92000002    3.01999998
   15.35833359  175.34599304    0.92000002    3.01999998
   15.36166668  140.72599792    0.92000002    3.01999998
   15.36472225  167.64700317    0.89999998    3.01999998
   15.36555576  171.98199463    0.89999998    3.01999998
   15.36833382  145.96400452    0.92000002    3.01999998
   15.37166691  171.92500305    0.92000002    3.01999998
   15.37472248  168.62399292    0.95999998    3.01999998
   15.37805557  177.33900452    0.95999998    3.01999998
   15.38111115  137.81399536    0.94000000    3.01999998
   15.38444424  149.27600098    0.95999998    3.01999998
   15.38749981  134.39900208    1.00000000    3.01999998
   15.39083290  156.29100037    0.98000002    3.01999998
   15.39388847  141.79299927    1.01999998    3.01999998
   15.39722252  148.13699341    1.03999996    3.01999998
   15.40027714  147.75300598    1.05999994    3.01999998
   15.40555477  147.75300598    1.13000000    3.00000000
   15.40972137  130.61900330    1.11000001    3.01999998
   15.41277695  138.32000732    1.11000001    3.00000000
   15.41555500  123.79699707    1.11000001    3.00000000
   15.41638851  152.15299988    1.13000000    3.01999998
   15.41972256  132.74400330    1.14999998    3.00000000
   15.42277813  145.39999390    1.19000006    3.00000000
   15.42611122  131.75700378    1.19000006    3.00000000
   15.42916679  147.70599365    1.21000004    3.00000000
   15.43249989  140.00000000    1.21000004    3.00000000
   15.43555546  145.15699768    1.19000006    3.00000000
   15.43888855  130.34500122    1.21000004    3.00000000
   15.44194412  139.08999634    1.21000004    3.00000000
   15.44527817  116.14499664    1.19000006    3.00000000
   15.44833374  134.66099548    1.19000006    3.00000000
   15.45166683  136.99800110    1.16999996    3.00000000
   15.45666695  136.99800110    1.07000005    3.00000000
   15.46083355  141.65400696    1.07000005    3.01999998
   15.46388912  126.11000061    1.07000005    3.01999998
   15.46555519  144.09199524    1.09000003    3.00000000
   15.46749973  124.68299866    1.09000003    3.00000000
   15.47083282  140.73500061    1.09000003    3.00000000
   15.47388840  129.48300171    1.05999994    3.00000000
   15.47722149  151.64999390    1.01999998    3.00000000
   15.48027706  139.30200195    1.03999996    3.00000000
   15.48361111  130.79699707    0.98000002    3.01999998
   15.48666668  118.76000214    0.95999998    3.01999998
   15.49000072  137.69700623    0.94000000    3.01999998
   15.49305534  147.81500244    0.92000002    3.01999998
   15.49638939  136.16900635    0.92000002    3.01999998
   15.49944496  146.74099731    0.88000000    3.01999998
   15.50277805  137.25399780    0.86000001    3.01999998
   15.50777817  137.25399780    0.88000000    3.01999998
   15.51194477  123.90799713    0.89999998    3.03999996
   15.51527786  126.67900085    0.89999998    3.00000000
   15.51555538  114.49600220    0.89999998    3.00000000
   15.51861095  133.18200684    0.89999998    3.01999998
   15.52166653  122.09799957    0.88000000    3.01999998
   15.52499962  132.52600098    0.89999998    3.01999998
   15.52805519  137.97599792    0.92000002    3.01999998
   15.53138828  120.98600006    0.94000000    3.01999998
   15.53444481  122.63600159    0.92000002    3.03999996
   15.53777790  120.32700348    0.94000000    3.01999998
   15.54083347  121.11499786    0.92000002    3.03999996
   15.54416752  129.43200684    0.89999998    3.01999998
   15.54722309  128.69200134    0.88000000    3.01999998
   15.55055618  112.46299744    0.89999998    3.01999998
   15.55361176  127.69599915    0.88000000    3.01999998
   15.55916691  127.69599915    0.86000001    3.01999998
   15.56305599  124.62300110    0.88000000    3.03999996
   15.56555557  113.66200256    0.92000002    3.01999998
   15.56666660  106.97399902    0.94000000    3.03999996
   15.56972218  110.23400116    0.94000000    3.01999998
   15.57305527  115.39499664    0.95999998    3.01999998
   15.57611084  112.51799774    0.98000002    3.03999996
   15.57944393  119.88400269    1.00000000    3.01999998
   15.58249950  120.56500244    1.01999998    3.01999998
   15.58583260  134.30700684    1.01999998    3.01999998
   15.58888817  125.98300171    1.00000000    3.01999998
   15.59222221   87.57839966    1.01999998    3.01999998
   15.59527779  126.84600067    0.98000002    3.01999998
   15.59861088  119.13999939    0.98000002    3.01999998
   15.60166740  118.11000061    0.98000002    3.01999998
   15.60500050  112.50000000    0.98000002    3.01999998
   15.61027813  112.50000000    0.98000002    3.01999998
   15.61444473  133.30099487    0.94000000    3.01999998
   15.61555576  113.03600311    0.94000000    3.01999998
   15.61777782  104.66000366    0.94000000    3.01999998
   15.62083340  124.90000153    0.89999998    3.01999998
   15.62416649  110.08599854    0.88000000    3.03999996
   15.62750053  120.52600098    0.88000000    3.01999998
   15.63055611  123.10099792    0.89999998    3.01999998
   15.63388920  119.10399628    0.88000000    3.03999996
   15.63694477  106.99099731    0.92000002    3.03999996
   15.64027786  104.75800323    0.89999998    3.01999998
   15.64333344  117.53800201    0.94000000    3.01999998
   15.64666653  114.38999939    0.92000002    3.01999998
   15.64972210  101.84200287    0.92000002    3.01999998
   15.65305519  106.08399963    0.92000002    3.03999996
   15.65611076  110.37899780    0.89999998    3.03999996
   15.66138840  110.37899780    0.89999998    3.03999996
   15.66555500  103.73799896    0.92000002    3.03999996
   15.66611099  105.42500305    0.92000002    3.03999996
   15.66916656   93.38230133    0.98000002    3.01999998
   15.67250061   92.54029846    0.98000002    3.01999998
   15.67555618   98.59020233    0.98000002    3.01999998
   15.67888927  112.95600128    1.00000000    3.01999998
   15.68194485  102.29100037    1.00000000    3.01999998
   15.68527794  107.63500214    1.01999998    3.01999998
   15.68833351  106.85099792    0.98000002    3.01999998
   15.69166660  122.75700378    1.00000000    3.01999998
   15.69472218  101.98200226    1.00000000    3.01999998
   15.69805527  115.38400269    1.00000000    3.01999998
   15.70111084  106.76000214    1.00000000    3.01999998
   15.70444393  115.44400024    0.98000002    3.01999998
   15.70749950  103.75099945    0.98000002    3.01999998
   15.71277714  103.75099945    0.92000002    3.01999998
   15.71666622  102.41799927    0.88000000    3.01999998
   15.71999931  108.57399750    0.88000000    3.03999996
   15.72305489  112.27799988    0.88000000    3.03999996
   15.72638798  113.01399994    0.86000001    3.03999996
   15.72944355  104.94599915    0.83999997    3.03999996
   15.73277760  113.01899719    0.80000001    3.01999998
   15.73583317  113.37899780    0.80000001    3.01999998
   15.73916721  101.93000031    0.79000002    3.03999996
   15.74222279  100.55799866    0.80000001    3.03999996
   15.74555588  107.60700226    0.79000002    3.05999994
   15.74861145  105.21099854    0.81999999    3.03999996
   15.75194454   98.43489838    0.81999999    3.03999996
   15.75500011  101.31400299    0.81999999    3.03999996
   15.75833321   88.29820251    0.83999997    3.03999996
   15.76388931   88.29820251    0.81999999    3.03999996
   15.76805496  112.36399841    0.81999999    3.03999996
   15.77111053  104.85600281    0.81999999    3.03999996
   15.77444458  120.65399933    0.81999999    3.01999998
   15.77750015   98.63829803    0.83999997    3.01999998
   15.78083324  108.45400238    0.81999999    3.03999996
   15.78388977  116.73300171    0.83999997    3.03999996
   15.78722286  106.77400208    0.81999999    3.03999996
   15.79027843  104.60700226    0.81999999    3.03999996
   15.79361153  108.44400024    0.83999997    3.03999996
   15.79666710  104.41200256    0.81999999    3.01999998
   15.80000019  104.86499786    0.83999997    3.05999994
   15.80305576  108.47200012    0.81999999    3.03999996
   15.80638885  112.17199707    0.81999999    3.03999996
   15.80944443  101.95700073    0.81999999    3.01999998
   15.81500053  101.95700073    0.80000001    3.01999998
   15.81916618  108.77600098    0.81999999    3.03999996
   15.82222176  100.56800079    0.81999999    3.05999994
   15.82555580   99.26260376    0.81999999    3.03999996
   15.82861137  104.91400146    0.83999997    3.03999996
   15.83194447  106.15000153    0.80000001    3.03999996
   15.83500004  105.94200134    0.80000001    3.03999996
   15.83833313  105.58399963    0.80000001    3.03999996
   15.84138870  100.37200165    0.80000001    3.05999994
   15.84472179   97.19560242    0.80000001    3.05999994
   15.84777737  112.99600220    0.81999999    3.03999996
   15.85111141  107.91600037    0.81999999    3.03999996
   15.85416698  108.87899780    0.83999997    3.03999996
   15.85750008  113.94799805    0.81999999    3.05999994
   15.86055565  118.85099792    0.80000001    3.03999996
   15.86611176  118.85099792    0.83999997    3.03999996
   15.87027836  107.00299835    0.86000001    3.03999996
   15.87333393  117.56099701    0.83999997    3.03999996
   15.87666702  117.19300079    0.86000001    3.05999994
   15.87972260  117.30100250    0.83999997    3.03999996
   15.88305569  117.66600037    0.83999997    3.03999996
   15.88611126  110.46499634    0.83999997    3.03999996
   15.88944435  105.59999847    0.83999997    3.01999998
   15.89249992  111.59100342    0.88000000    3.03999996
   15.89583302  104.37699890    0.88000000    3.01999998
   15.89888859   98.60959625    0.86000001    3.03999996
   15.90222168  107.05999756    0.86000001    3.03999996
   15.90527725  104.06400299    0.83999997    3.03999996
   15.90861034  109.41400146    0.83999997    3.03999996
   15.91166592   91.96330261    0.80000001    3.03999996
   15.91750050   91.96330261    0.76999998    3.05999994
   15.92138958  116.69599915    0.75000000    3.03999996
   15.92472267  109.34899902    0.76999998    3.03999996
   15.92777824   94.51229858    0.73000002    3.03999996
   15.93111134  101.83499908    0.73000002    3.03999996
   15.93416691  103.16999817    0.70999998    3.03999996
   15.93750000  103.47200012    0.70999998    3.03999996
   15.94055557  113.83000183    0.70999998    3.05999994
   15.94388866  118.16200256    0.73000002    3.03999996
   15.94694424  111.30899811    0.73000002    3.03999996
   15.95027733  117.60600281    0.69000000    3.03999996
   15.95333290  117.72000122    0.70999998    3.03999996
   15.95666695  127.58300018    0.69000000    3.05999994
   15.95972157  135.79200745    0.69000000    3.05999994
   15.96305561  135.01199341    0.69000000    3.05999994
   15.96861076  135.01199341    0.64999998    3.05999994
   15.97249985  116.09799957    0.64999998    3.05999994
   15.97583294  102.31800079    0.64999998    3.07999992
   15.97888851  123.59400177    0.63000000    3.07999992
   15.98222160  125.31300354    0.64999998    3.05999994
   15.98527813  128.70500183    0.63000000    3.05999994
   15.98861122  132.34199524    0.64999998    3.05999994
   15.99166679  118.26200104    0.64999998    3.05999994
   15.99499989  112.18299866    0.67000002    3.05999994
   15.99805546  121.34100342    0.67000002    3.05999994
   16.00138855  119.77300262    0.67000002    3.03999996
   16.00444412  121.78900146    0.67000002    3.05999994
   16.00777817  107.11199951    0.67000002    3.05999994
   16.01083374  133.56599426    0.69000000    3.05999994
   16.01416588  116.65000153    0.67000002    3.05999994
   16.01972198  116.65000153    0.69000000    3.05999994
   16.02388954  132.42599487    0.69000000    3.05999994
   16.02694511  107.93199921    0.67000002    3.05999994
   16.03027725  128.58099365    0.67000002    3.05999994
   16.03333282   99.41629791    0.67000002    3.05999994
   16.03666687  104.63500214    0.70999998    3.03999996
   16.03972244  112.96800232    0.73000002    3.03999996
   16.04305458  107.08899689    0.73000002    3.03999996
   16.04638863  128.51300049    0.73000002    3.05999994
   16.04944420  116.72799683    0.73000002    3.03999996
   16.05277634  115.02899933    0.73000002    3.03999996
   16.05583191  131.60099792    0.70999998    3.05999994
   16.05916595  111.39700317    0.70999998    3.03999996
   16.06222153  107.00800323    0.70999998    3.05999994
   16.06555557  120.73100281    0.69000000    3.07999992
   16.07083511  120.73100281    0.67000002    3.05999994
   16.07500076   93.36380005    0.69000000    3.05999994
   16.07805634  105.68499756    0.73000002    3.03999996
   16.08139038  123.39499664    0.70999998    3.03999996
   16.08444595  102.57099915    0.73000002    3.05999994
   16.08777809  120.77400208    0.73000002    3.05999994
   16.09083366  122.07499695    0.69000000    3.05999994
   16.09416771  102.41300201    0.69000000    3.03999996
   16.09722328  125.29599762    0.70999998    3.05999994
   16.10055542  111.14700317    0.75000000    3.05999994
   16.10361099  103.58499908    0.75000000    3.05999994
   16.10694504  109.45400238    0.75000000    3.03999996
   16.11027908  106.18099976    0.75000000    3.03999996
   16.11333466   92.36299896    0.75000000    3.07999992
   16.11638832  115.61299896    0.76999998    3.05999994
   16.12222290  115.61299896    0.76999998    3.07999992
   16.12611198  112.01499939    0.76999998    3.05999994
   16.12944412  128.55799866    0.76999998    3.05999994
   16.13249969  126.57099915    0.79000002    3.05999994
   16.13583374  110.22899628    0.79000002    3.03999996
   16.13888931  119.45300293    0.79000002    3.03999996
   16.14222145  114.86799622    0.79000002    3.03999996
   16.14527702  103.52400208    0.76999998    3.03999996
   16.14861107  101.10900116    0.76999998    3.03999996
   16.15166664  109.00900269    0.79000002    3.03999996
   16.15499878   94.95549774    0.80000001    3.03999996
   16.15805435  108.95400238    0.80000001    3.03999996
   16.16138840  101.94799805    0.80000001    3.03999996
   16.16444397  103.03600311    0.80000001    3.01999998
   16.18583298  103.03600311    0.81999999    3.01999998
   16.18999863  112.90499878    0.86000001    3.01999998
   16.19333267  105.23799896    0.86000001    3.01999998
   16.19638824  115.53500366    0.88000000    3.01999998
   16.19972038  116.72399902    0.88000000    3.01999998
   16.20277786  111.63099670    0.89999998    3.01999998
   16.20611191   99.78450012    0.89999998    3.01999998
   16.20916748  120.28199768    0.89999998    3.03999996
   16.21250153  105.15899658    0.92000002    3.01999998
   16.21555710   99.98750305    0.92000002    3.03999996
   16.21888924  103.48400116    0.89999998    3.03999996
   16.22194481   85.89189911    0.89999998    3.01999998
   16.22527885   93.55139923    0.89999998    3.03999996
   16.22833443   76.39720154    0.89999998    3.01999998
   16.23166656  116.98999786    0.92000002    3.05999994
   16.23333359  104.43599701    0.89999998    3.01999998
   16.23750114  104.43599701    4.90999985    3.14000010
   16.24166679   95.59069824    0.13000000    0.55000001
   16.24472237  113.54299927    0.05000000    0.13000000
   16.24805641  110.33200073    0.05000000    0.13000000
   16.25111198  101.87200165    0.05000000    0.13000000
   16.25444412  101.56400299    0.05000000    0.13000000
   16.25749969  110.75900269    0.05000000    0.13000000
   16.26083374  108.91699982    0.05000000    0.13000000
   16.26388931  106.61499786    0.05000000    0.13000000
   16.26722145  106.20600128    0.05000000    0.13000000
   16.27027702   99.61769867    0.05000000    0.13000000
   16.27361107  100.12000275    0.05000000    0.13000000
   16.27666664  102.80799866    0.05000000    0.13000000
   16.28000069   99.83480072    0.05000000    0.13000000
   16.28305435   99.63040161    0.05000000    0.13000000
   16.28361130   96.23979950    0.05000000    0.13000000
   16.28861046   96.23979950    0.05000000    0.13000000
   16.29277802   84.39980316    0.05000000    0.13000000
   16.29583359   95.43170166    0.05000000    0.13000000
   16.29916573   96.36720276    0.05000000    0.13000000
   16.30249977   96.96160126    0.05000000    0.13000000
   16.30555534   98.13899994    0.05000000    0.13000000
   16.30888748   94.73229980    0.05000000    0.13000000
   16.31194305  108.80999756    0.05000000    0.13000000
   16.31527710   93.17220306    0.05000000    0.13000000
   16.31833458  118.02799988    0.05000000    0.13000000
   16.32166672  102.73200226    0.05000000    0.13000000
   16.32472229   96.11190033    0.05000000    0.13000000
   16.32805634  108.90299988    0.05000000    0.13000000
   16.33111191  111.35299683    0.05000000    0.13000000
   16.33361244   98.17890167    0.05000000    0.13000000
   16.33472252   99.73930359    0.05000000    0.13000000
   16.34000015   99.73930359    0.05000000    0.13000000
   16.34388924   96.72699738    0.05000000    0.13000000
   16.34722328  108.67099762    0.05000000    0.13000000
   16.35027885  106.13700104    0.05000000    0.13000000
   16.35361099  103.26399994    0.05000000    0.13000000
   16.35666656  110.00800323    0.05000000    0.13000000
   16.36000061   98.79280090    0.05000000    0.13000000
   16.36305618  101.41200256    0.05000000    0.13000000
   16.36638832  106.02600098    0.05000000    0.13000000
   16.36944389   97.25370026    0.05000000    0.13000000
   16.37277794   85.50189972    0.05000000    0.13000000
   16.37583351   86.75939941    0.05000000    0.13000000
   16.37916756   79.58550262    0.05000000    0.13000000
   16.38222313   94.24539948    0.05000000    0.13000000
   16.38361168   97.70999908    0.05000000    0.13000000
   16.38583374  103.65100098    0.05000000    0.13000000
   16.39111137  103.65100098    0.05000000    0.13000000
   16.39500046   89.55879974    0.05000000    0.13000000
   16.39833260   99.71199799    0.05000000    0.13000000
   16.40138817  105.02999878    0.05000000    0.13000000
   16.40472221  103.93199921    0.05000000    0.13000000
   16.40777779  109.76100159    0.05000000    0.13000000
   16.41110992  105.35399628    0.05000000    0.13000000
   16.41416550  104.84999847    0.05000000    0.13000000
   16.41749954  100.89099884    0.05000000    0.13000000
   16.42055511  100.15599823    0.05000000    0.13000000
   16.42388916   96.04129791    0.05000000    0.13000000
   16.42694473   94.34279633    0.05000000    0.13000000
   16.43027687   81.93039703    0.05000000    0.13000000
   16.43333244   93.69059753    0.05000000    0.13000000
   16.43388748   97.10089874    0.05000000    0.13000000
   16.43722153   97.89959717    0.05000000    0.13000000
   16.44222069   97.89959717    0.05000000    0.13000000
   16.44638824   95.65740204    0.05000000    0.13000000
   16.44944382   84.39199829    0.05000000    0.13000000
   16.45277786   97.48139954    0.05000000    0.13000000
   16.45583344  102.26899719    0.05000000    0.13000000
   16.45916748   98.74710083    0.05000000    0.13000000
   16.46222305   96.47619629    0.05000000    0.13000000
   16.46555710   94.53369904    0.05000000    0.13000000
   16.46861076   99.14859772    0.05000000    0.13000000
   16.47194481   97.82330322    0.05000000    0.13000000
   16.47500038   98.19400024    0.05000000    0.13000000
   16.47833443  101.57700348    0.05000000    0.13000000
   16.48139000   85.77349854    0.05000000    0.13000000
   16.48388863   93.90000153    0.05000000    0.13000000
   16.48527718   95.80690002    0.05000000    0.13000000
   16.48833275   95.66210175    0.05000000    0.13000000
   16.49333382   95.66210175    0.05000000    0.13000000
   16.49749947   83.23370361    0.05000000    0.13000000
   16.50055504   87.79609680    0.05000000    0.13000000
   16.50388908   77.95130157    0.05000000    0.13000000
   16.50694466   98.63269806    0.05000000    0.13000000
   16.51027870  102.32299805    0.05000000    0.13000000
   16.51333427   90.65370178    0.05000000    0.13000000
   16.51666641   89.28430176    0.05000000    0.13000000
   16.51972198   95.64589691    0.05000000    0.13000000
   16.52305603   89.56359863    0.05000000    0.13000000
   16.52611160   93.76770020    0.05000000    0.13000000
   16.52944374   92.81490326    0.05000000    0.13000000
   16.53249931   92.02819824    0.05000000    0.13000000
   16.53388786   95.85399628    0.05000000    0.13000000
   16.53610992   93.34220123    0.05000000    0.13000000
   16.53916550   81.97799683    0.05000000    0.13000000
   16.54444313   81.97799683    0.05000000    0.13000000
   16.54861069   99.01419830    0.05000000    0.13000000
   16.55194283   91.57479858    0.05000000    0.13000000
   16.55499840   94.83989716    0.05000000    0.13000000
   16.55833244   97.48439789    0.05000000    0.13000000
   16.56138802   96.37129974    0.05000000    0.13000000
   16.56472206   92.08679962    0.05000000    0.13000000
   16.56777954   90.68669891    0.05000000    0.13000000
   16.57111168   97.83200073    0.05000000    0.13000000
   16.57416725   98.08869934    0.05000000    0.13000000
   16.57750130   99.17130280    0.05000000    0.13000000
   16.58055687   97.16649628    0.05000000    0.13000000
   16.58388901  101.78600311    0.05000000    0.13000000
   16.58416748  121.44799805    0.05000000    0.13000000
   16.58750153   93.19509888    0.05000000    0.13000000
   16.59055710   85.90969849    0.05000000    0.13000000
   16.59583473   85.90969849    0.05000000    0.13000000
   16.59972191   88.57099915    0.05000000    0.13000000
   16.60305595   93.51260376    0.05000000    0.13000000
   16.60611153   93.30390167    0.05000000    0.13000000
   16.60944557   90.22989655    0.05000000    0.13000000
   16.61250114   96.20449829    0.05000000    0.13000000
   16.61583328   95.57990265    0.05000000    0.13000000
   16.61888885   92.83270264    0.05000000    0.13000000
   16.62222290   90.60559845    0.05000000    0.13000000
   16.62527847   96.98419952    0.05000000    0.13000000
   16.62861061   97.80549622    0.05000000    0.13000000
   16.63166618   83.92549896    0.05000000    0.13000000
   16.63416672  101.20999908    0.05000000    0.13000000
   16.63527679   93.27079773    0.05000000    0.13000000
   16.63833237  100.41200256    0.05000000    0.13000000
   16.64166641   96.92109680    0.05000000    0.13000000
   16.64694405   96.92109680    0.05000000    0.13000000
   16.65111160  100.35800171    0.05000000    0.13000000
   16.65416718   97.57039642    0.05000000    0.13000000
   16.65749931   98.21340179    0.05000000    0.13000000
   16.66055489   96.17749786    0.05000000    0.13000000
   16.66388893  101.18099976    0.05000000    0.13000000
   16.66694450   98.46540070    0.05000000    0.13000000
   16.67027664   92.98719788    0.05000000    0.13000000
   16.67333221   94.95140076    0.05000000    0.13000000
   16.67666626  100.34799957    0.05000000    0.13000000
   16.67972183  101.40200043    0.05000000    0.13000000
   16.68305397   98.76779938    0.05000000    0.13000000
   16.68416595   87.04810333    0.05000000    0.13000000
   16.68638802  105.38600159    0.05000000    0.13000000
   16.68944359   92.31009674    0.05000000    0.13000000
   16.69277763   85.88320160    0.05000000    0.13000000
   16.69805527   85.88320160    0.05000000    0.13000000
   16.70222282   97.63110352    0.05000000    0.13000000
   16.70527840   86.83730316    0.05000000    0.13000000
   16.70861244   86.43070221    0.05000000    0.13000000
   16.71166801   84.19889832    0.05000000    0.13000000
   16.71500015   95.39309692    0.05000000    0.13000000
   16.71805573   96.57510376    0.05000000    0.13000000
   16.72138977   94.28320313    0.05000000    0.13000000
   16.72444534   95.02559662    0.05000000    0.13000000
   16.72777748  103.08599854    0.05000000    0.13000000
   16.73083305   91.91220093    0.05000000    0.13000000
   16.73416710   84.43340302    0.05000000    0.13000000
   16.73472214   89.92199707    0.05000000    0.13000000
   16.73777771  101.08999634    0.05000000    0.13000000
   16.74111176  100.04799652    0.05000000    0.13000000
   16.74416733   94.08910370    0.05000000    0.13000000
   16.74916649   94.08910370    0.05000000    0.13000000
   16.75333405  100.83999634    0.05000000    0.13000000
   16.75666618   98.68470001    0.05000000    0.13000000
   16.75972176  105.57099915    0.05000000    0.13000000
   16.76305580  102.61699677    0.05000000    0.13000000
   16.76611137  101.31400299    0.05000000    0.13000000
   16.76944351   97.15779877    0.05000000    0.13000000
   16.77249908   98.77870178    0.05000000    0.13000000
   16.77583313   88.15499878    0.05000000    0.13000000
   16.77888870   82.16680145    0.05000000    0.13000000
   16.78222275   85.58969879    0.05000000    0.13000000
   16.78472137   82.57800293    0.05000000    0.13000000
   16.78555489   75.13520050    0.05000000    0.13000000
   16.78888893   96.27359772    0.05000000    0.13000000
   16.79194450   96.55570221    0.05000000    0.13000000
   16.79527664   82.80590057    0.05000000    0.13000000
   16.80055428   82.80590057    0.05000000    0.13000000
   16.80444336   92.53399658    0.05000000    0.13000000
   16.80777740   91.81800079    0.05000000    0.13000000
   16.81083298   83.70500183    0.05000000    0.13000000
   16.81416512   87.32260132    0.05000000    0.13000000
   16.81722260   83.85389709    0.05000000    0.13000000
   16.82055664   83.60340118    0.05000000    0.13000000
   16.82361221   96.47209930    0.05000000    0.13000000
   16.82694626   88.73210144    0.05000000    0.13000000
   16.83000183   79.33049774    0.05000000    0.13000000
   16.83333397   90.51560211    0.05000000    0.13000000
   16.83472252   88.27790070    0.05000000    0.13000000
   16.83666801   91.90370178    0.05000000    0.13000000
   16.84000015   86.79409790    0.05000000    0.13000000
   16.84305573   88.10119629    0.05000000    0.13000000
   16.84638977   92.83260345    0.05000000    0.13000000
   16.85166740   92.83260345    0.05000000    0.13000000
   16.85583305   97.48590088    0.05000000    0.13000000
   16.85888863   99.78199768    0.05000000    0.13000000
   16.86222267   92.65679932    0.05000000    0.13000000
   16.86527824   97.64240265    0.05000000    0.13000000
   16.86861038   88.63179779    0.05000000    0.13000000
   16.87166595   93.80809784    0.05000000    0.13000000
   16.87500000  103.84899902    0.05000000    0.13000000
   16.87805557   96.88110352    0.05000000    0.13000000
   16.88138962   97.72820282    0.05000000    0.13000000
   16.88444519  102.41799927    0.05000000    0.13000000
   16.88500023  109.02600098    0.05000000    0.13000000
   16.88805580   94.97669983    0.05000000    0.13000000
   16.89138794   88.60710144    0.05000000    0.13000000
   16.89444351   97.93599701    0.05000000    0.13000000
   16.89777756   97.64170074    0.05000000    0.13000000
   16.90277672   97.64170074    0.05000000    0.13000000
   16.90694427   94.39199829    0.05000000    0.13000000
   16.90999985   93.33989716    0.05000000    0.13000000
   16.91333389   96.16909790    0.05000000    0.13000000
   16.91638756   88.36479950    0.05000000    0.13000000
   16.91972160   97.23049927    0.05000000    0.13000000
   16.92277718   91.47080231    0.05000000    0.13000000
   16.92611122   84.46620178    0.05000000    0.13000000
   16.92916679   98.20570374    0.05000000    0.13000000
   16.93249893   87.96489716    0.05000000    0.13000000
   16.93499947   92.56770325    0.05000000    0.13000000
   16.93583298   99.87200165    0.05000000    0.13000000
   16.93916512  101.03900146    0.05000000    0.13000000
   16.94222069   90.65119934    0.05000000    0.13000000
   16.94555473   89.85489655    0.05000000    0.13000000
   16.94861031   99.25969696    0.05000000    0.13000000
   16.95388985   99.25969696    0.05000000    0.13000000
   16.95805550   98.80660248    0.05000000    0.13000000
   16.96138954   97.97180176    0.05000000    0.13000000
   16.96444511   96.50540161    0.05000000    0.13000000
   16.96777916   92.13030243    0.05000000    0.13000000
   16.97083473   92.61209869    0.05000000    0.13000000
   16.97416687   91.97810364    0.05000000    0.13000000
   16.97722244  103.82800293    0.05000000    0.13000000
   16.98055649  119.54900360    0.05000000    0.13000000
   16.98361206  113.26999664    0.05000000    0.13000000
   16.98500061  111.00199890    0.05000000    0.13000000
   16.98694420  110.03099823    0.05000000    0.13000000
   16.99027824  126.14499664    0.05000000    0.13000000
   16.99333382  112.12300110    0.05000000    0.13000000
   16.99666786  114.27799988    0.05000000    0.13000000
   16.99972153  101.80300140    0.05000000    0.13000000
   17.00527763  101.80300140    0.05000000    0.13000000
   17.00916672  138.55099487    0.05000000    0.13000000
   17.01250076  134.41299438    0.05000000    0.13000000
   17.01555634  112.18099976    0.05000000    0.13000000
   17.01888847  111.22499847    0.05000000    0.13000000
   17.02194405  113.53199768    0.05000000    0.13000000
   17.02527809  111.90100098    0.05000000    0.13000000
   17.02833366   84.36139679    0.05000000    0.13000000
   17.03166580   81.65630341    0.05000000    0.13000000
   17.03472137   85.21099854    0.05000000    0.13000000
   17.03527641   92.75270081    0.05000000    0.13000000
   17.03861046   99.40989685    0.05000000    0.13000000
   17.04166603   90.51339722    0.05000000    0.13000000
   17.04500008  108.43699646    0.05000000    0.13000000
   17.04805565  101.55000305    0.05000000    0.13000000
   17.05138779   72.10399628    0.05000000    0.13000000
   17.05638885   72.10399628    0.05000000    0.13000000
   17.06055450   86.99189758    0.05000000    0.13000000
   17.06361008   91.76319885    0.05000000    0.13000000
   17.06694603  107.79299927    0.05000000    0.13000000
   17.07000160   93.76010132    0.05000000    0.13000000
   17.07333374   89.32469940    0.05000000    0.13000000
   17.07638931   98.74759674    0.05000000    0.13000000
   17.07944489  102.36799622    0.05000000    0.13000000
   17.08277893  112.16300201    0.05000000    0.13000000
   17.08555603  102.67299652    0.05000000    0.13000000
   17.08638954   96.11779785    0.05000000    0.13000000
   17.08944511   82.82140350    0.05000000    0.13000000
   17.09277916   87.60469818    0.05000000    0.13000000
   17.09583473  104.11000061    0.05000000    0.13000000
   17.09916687   92.15619659    0.05000000    0.13000000
   17.10222244   90.20269775    0.05000000    0.13000000
   17.10750008   90.20269775    0.05000000    0.13000000
   17.11166763  100.38700104    0.05000000    0.13000000
   17.11472321   91.84510040    0.05000000    0.13000000
   17.11805534   84.03479767    0.05000000    0.13000000
   17.12111092   92.27600098    0.05000000    0.13000000
   17.12416649  108.56600189    0.05000000    0.13000000
   17.12750053  113.12100220    0.05000000    0.13000000
   17.13055611  100.44699860    0.05000000    0.13000000
   17.13388824  119.62799835    0.05000000    0.13000000
   17.13555527   98.22879791    0.05000000    0.13000000
   17.13722229   96.80180359    0.05000000    0.13000000
   17.14027786   96.22859955    0.05000000    0.13000000
   17.14361191   93.85579681    0.05000000    0.13000000
   17.14666748   98.67829895    0.05000000    0.13000000
   17.14999962   96.95829773    0.05000000    0.13000000
   17.15305519  107.33999634    0.05000000    0.13000000
   17.15861130  107.33999634    0.05000000    0.13000000
   17.16277695   93.76509857    0.05000000    0.13000000
   17.16611099   91.97540283    0.05000000    0.13000000
   17.16916656   99.12200165    0.05000000    0.13000000
   17.17249870   91.32510376    0.05000000    0.13000000
   17.17555428   92.46489716    0.05000000    0.13000000
   17.17888832   90.78549957    0.05000000    0.13000000
   17.18194389   87.33989716    0.05000000    0.13000000
   17.19916534   89.79419708    0.05000000    0.13000000
   17.20166779   99.48860168    0.05000000    0.13000000
   17.20472336   93.57810211    0.05000000    0.13000000
   17.21000099   93.57810211    0.05000000    0.13000000
   17.21416664   90.37169647    0.05000000    0.13000000
   17.21750069   96.86170197    0.05000000    0.13000000
   17.22055626   99.52359772    0.05000000    0.13000000
   17.22389030   95.47589874    0.05000000    0.13000000
   17.22694588  105.66899872    0.05000000    0.13000000
   17.23027802   93.35510254    0.05000000    0.13000000
   17.23333359   92.96849823    0.05000000    0.13000000
   17.23666763   92.38970184    0.05000000    0.13000000
   17.23972321  101.61000061    0.05000000    0.13000000
   17.24305534   91.87229919    0.05000000    0.13000000
   17.24611092   92.83010101    0.05000000    0.13000000
   17.24916649   96.21320343    0.05000000    0.13000000
   17.24944496   93.45770264    0.05000000    0.13000000
   17.25277710   92.97609711    0.05000000    0.13000000
   17.25583267   97.71769714    0.05000000    0.13000000
   17.26138878   97.71769714    0.05000000    0.13000000
   17.26527786  100.38200378    0.05000000    0.13000000
   17.26861000  104.79399872    0.05000000    0.13000000
   17.27166557   89.78029633    0.05000000    0.13000000
   17.27499962   99.26210022    0.05000000    0.13000000
   17.27805519   84.53759766    0.05000000    0.13000000
   17.28138924   85.78450012    0.05000000    0.13000000
   17.28444481   98.25070190    0.05000000    0.13000000
   17.28777695   90.76219940    0.05000000    0.13000000
   17.29083252   89.39089966    0.05000000    0.13000000
   17.29416656   83.24150085    0.05000000    0.13000000
   17.29722214   94.08809662    0.05000000    0.13000000
   17.29916573   87.62509918    0.05000000    0.13000000
   17.30083275   96.66690063    0.05000000    0.13000000
   17.30416679   96.79470062    0.05000000    0.13000000
   17.30722237   93.38400269    0.05000000    0.13000000
   17.31250000   93.38400269    0.05000000    0.13000000
   17.31666756   96.25080109    0.05000000    0.13000000
   17.31972313   91.83290100    0.05000000    0.13000000
   17.32305717   97.84100342    0.05000000    0.13000000
   17.32611275   87.07369995    0.05000000    0.13000000
   17.32944489   95.05110168    0.05000000    0.13000000
   17.33250046   97.03579712    0.05000000    0.13000000
   17.33583450   97.92089844    0.05000000    0.13000000
   17.33889008   92.60720062    0.05000000    0.13000000
   17.34222221   84.96060181    0.05000000    0.13000000
   17.34527779   90.62899780    0.05000000    0.13000000
   17.34861183   89.42479706    0.05000000    0.13000000
   17.34916687   91.98860168    0.05000000    0.13000000
   17.35194397   85.00910187    0.05000000    0.13000000
   17.35527802   81.98850250    0.05000000    0.13000000
   17.35833359   90.94519806    0.05000000    0.13000000
   17.36361122   90.94519806    0.05000000    0.13000000
   17.36777878   99.62689972    0.05000000    0.13000000
   17.37083435   96.51860046    0.05000000    0.13000000
   17.37416649   99.29570007    0.05000000    0.13000000
   17.37722206   87.08149719    0.05000000    0.13000000
   17.38055611   82.64980316    0.05000000    0.13000000
   17.38361168   96.56800079    0.05000000    0.13000000
   17.38694382   92.12329865    0.05000000    0.13000000
   17.38999939   95.27279663    0.05000000    0.13000000
   17.39333344   95.70449829    0.05000000    0.13000000
   17.39638901   90.73419952    0.05000000    0.13000000
   17.39916611   89.05889893    0.05000000    0.13000000
   17.39999962   95.83760071    0.05000000    0.13000000
   17.40333366  108.22599792    0.05000000    0.13000000
   17.40638924   95.61799622    0.05000000    0.13000000
   17.40972137  101.03800201    0.05000000    0.13000000
   17.41472244  101.03800201    0.05000000    0.13000000
   17.41888809  100.19499969    0.05000000    0.13000000
   17.42194366   98.15820313    0.05000000    0.13000000
   17.42527771   94.60060120    0.05000000    0.13000000
   17.42833328   94.77110291    0.05000000    0.13000000
   17.43166542   97.38600159    0.05000000    0.13000000
   17.43472099   95.33850098    0.05000000    0.13000000
   17.43805504   91.68170166    0.05000000    0.13000000
   17.44111061   82.81240082    0.05000000    0.13000000
   17.44444275   94.86599731    0.05000000    0.13000000
   17.44749832   81.23680115    0.05000000    0.13000000
   17.44916534   90.15529633    0.05000000    0.13000000
   17.45138931   91.97589874    0.05000000    0.13000000
   17.45444489   89.24179840    0.05000000    0.13000000
   17.45777893   84.73090363    0.05000000    0.13000000
   17.46083450   89.95600128    0.05000000    0.13000000
   17.46611214   89.95600128    0.05000000    0.13000000
   17.47000122   86.53630066    0.05000000    0.13000000
   17.47333336   84.46579742    0.05000000    0.13000000
   17.47638893   81.44730377    0.05000000    0.13000000
   17.47972298   95.30950165    0.05000000    0.13000000
   17.48277855   84.43569946    0.05000000    0.13000000
   17.48611069   82.30300140    0.05000000    0.13000000
   17.48916626   85.61599731    0.05000000    0.13000000
   17.49250031   80.46420288    0.05000000    0.13000000
   17.49555588   86.38300323    0.05000000    0.13000000
   17.49888992   95.90599823    0.05000000    0.13000000
   17.49944496   92.41249847    0.05000000    0.13000000
   17.50250053   92.27390289    0.05000000    0.13000000
   17.50555611   94.10030365    0.05000000    0.13000000
   17.50888824   95.39959717    0.05000000    0.13000000
   17.51194382   91.06369781    0.05000000    0.13000000
   17.51722145   91.06369781    0.05000000    0.13000000
   17.52111053   83.29479980    0.05000000    0.13000000
   17.52444458   95.73670197    0.05000000    0.13000000
   17.52750015   87.76809692    0.05000000    0.13000000
   17.53083229   97.61789703    0.05000000    0.13000000
   17.53388786  103.93099976    0.05000000    0.13000000
   17.53722191  101.15699768    0.05000000    0.13000000
   17.54027748   93.06939697    0.05000000    0.13000000
   17.54361153  112.10199738    0.05000000    0.13000000
   17.54666710   89.73500061    0.05000000    0.13000000
   17.54944420   96.41480255    0.05000000    0.13000000
   17.54999924  104.26699829    0.05000000    0.13000000
   17.55333328   99.13870239    0.05000000    0.13000000
   17.55638885   92.27030182    0.05000000    0.13000000
   17.55972099   98.98719788    0.05000000    0.13000000
   17.56277657  103.56999969    0.05000000    0.13000000
   17.56833458  103.56999969    0.05000000    0.13000000
   17.57250023   96.67639923    0.05000000    0.13000000
   17.57555580   90.96350098    0.05000000    0.13000000
   17.57888985   97.83370209    0.05000000    0.13000000
   17.58194542  100.44799805    0.05000000    0.13000000
   17.58527756  109.24199677    0.05000000    0.13000000
   17.58833313   95.43360138    0.05000000    0.13000000
   17.59166718  102.41300201    0.05000000    0.13000000
   17.59472275   82.90740204    0.05000000    0.13000000
   17.59777832  102.29399872    0.05000000    0.13000000
   17.59944534   92.54699707    0.05000000    0.13000000
   17.60166740  104.18199921    0.05000000    0.13000000
   17.60472298   94.88020325    0.05000000    0.13000000
   17.60777855   91.73010254    0.05000000    0.13000000
   17.61111069   89.58470154    0.05000000    0.13000000
   17.61416626   84.63449860    0.05000000    0.13000000
   17.61944389   84.63449860    0.05000000    0.13000000
   17.62361145   89.30999756    0.05000000    0.13000000
   17.62666702   89.32469940    0.05000000    0.13000000
   17.63000107   92.13189697    0.05000000    0.13000000
   17.63305473   95.52320099    0.05000000    0.13000000
   17.63638878   82.84459686    0.05000000    0.13000000
   17.63944435   90.56559753    0.05000000    0.13000000
   17.64277840   93.48020172    0.05000000    0.13000000
   17.64583397   99.98829651    0.05000000    0.13000000
   17.64916611  103.05799866    0.05000000    0.13000000
   17.64944458   96.07289886    0.05000000    0.13000000
   17.65250015  101.66600037    0.05000000    0.13000000
   17.65555573  104.64499664    0.05000000    0.13000000
   17.65888786  101.65899658    0.05000000    0.13000000
   17.66194344  102.62699890    0.05000000    0.13000000
   17.66527748   93.24749756    0.05000000    0.13000000
   17.67055511   93.24749756    0.05000000    0.13000000
   17.67472076  110.29799652    0.05000000    0.13000000
   17.67805481   97.94210052    0.05000000    0.13000000
   17.68111038  101.61299896    0.05000000    0.13000000
   17.68444443   97.07150269    0.05000000    0.13000000
   17.68750000   93.91950226    0.05000000    0.13000000
   17.69083214   98.42500305    0.05000000    0.13000000
   17.69388771   97.54209900    0.05000000    0.13000000
   17.69694328   95.79389954    0.05000000    0.13000000
   17.69972038   92.93430328    0.05000000    0.13000000
   17.70083427   91.66400146    0.05000000    0.13000000
   17.70388985   92.28029633    0.05000000    0.13000000
   17.70722389   97.52230072    0.05000000    0.13000000
   17.71027946   92.61150360    0.05000000    0.13000000
   17.71361160   96.24320221    0.05000000    0.13000000
   17.71666718   93.28279877    0.05000000    0.13000000
   17.72194481   93.28279877    0.05000000    0.13000000
   17.72583389   97.18350220    0.05000000    0.13000000
   17.72916794   87.97669983    0.05000000    0.13000000
   17.73222351   88.83499908    0.05000000    0.13000000
   17.73555565   78.57730103    0.05000000    0.13000000
   17.73861122   94.48149872    0.05000000    0.13000000
   17.74194527   98.72560120    0.05000000    0.13000000
   17.74500084   93.82240295    0.05000000    0.13000000
   17.74833298   96.72219849    0.05000000    0.13000000
   17.74972153  104.09999847    0.05000000    0.13000000
   17.75194359   96.34790039    0.05000000    0.13000000
   17.75499916   96.34110260    0.05000000    0.13000000
   17.75833321   81.54599762    0.05000000    0.13000000
   17.76138878   92.38559723    0.05000000    0.13000000
   17.76472282  100.22100067    0.05000000    0.13000000
   17.76777840   93.34600067    0.05000000    0.13000000
   17.77305603   93.34600067    0.05000000    0.13000000
   17.77722168   93.88140106    0.05000000    0.13000000
   17.78027725   94.28980255    0.05000000    0.13000000
   17.78361130   89.63999939    0.05000000    0.13000000
   17.78666687   99.03739929    0.05000000    0.13000000
   17.78999901   97.20610046    0.05000000    0.13000000
   17.79305458   94.79779816    0.05000000    0.13000000
   17.79611015   97.65910339    0.05000000    0.13000000
   17.79944420   99.50209808    0.05000000    0.13000000
   17.79999924  100.85299683    0.05000000    0.13000000
   17.80277634  100.43599701    0.05000000    0.13000000
   17.80611038   98.47010040    0.05000000    0.13000000
   17.80916595   89.96420288    0.05000000    0.13000000
   17.81250000   96.24810028    0.05000000    0.13000000
   17.81555557   95.48200226    0.05000000    0.13000000
   17.81888962   89.02950287    0.05000000    0.13000000
   17.82416725   89.02950287    0.05000000    0.13000000
   17.82833481  104.41000366    0.05000000    0.13000000
   17.83139038   98.17919922    0.05000000    0.13000000
   17.83472252   91.19809723    0.05000000    0.13000000
   17.83777809  103.13700104    0.05000000    0.13000000
   17.84111214   98.60929871    0.05000000    0.13000000
   17.84416771  109.79699707    0.05000000    0.13000000
   17.84749985   94.54250336    0.05000000    0.13000000
   17.85000038   97.78359985    0.05000000    0.13000000
   17.85083389   93.33339691    0.05000000    0.13000000
   17.85416794   79.63359833    0.05000000    0.13000000
   17.85722351   92.94750214    0.05000000    0.13000000
   17.86027908  100.00800323    0.05000000    0.13000000
   17.86361122   89.40160370    0.05000000    0.13000000
   17.86666679   94.85669708    0.05000000    0.13000000
   17.87000084   84.72290039    0.05000000    0.13000000
   17.87527847   84.72290039    0.05000000    0.13000000
   17.87944412   87.64679718    0.05000000    0.13000000
   17.88277817   80.33460236    0.05000000    0.13000000
   17.88583374   88.75990295    0.05000000    0.13000000
   17.88916588   85.93789673    0.05000000    0.13000000
   17.89222145   87.05590057    0.05000000    0.13000000
   17.89527702   89.23780060    0.05000000    0.13000000
   17.89861107   87.97280121    0.05000000    0.13000000
   17.89999962   88.59929657    0.05000000    0.13000000
   17.90194321   88.86679840    0.05000000    0.13000000
   17.90527725   91.16439819    0.05000000    0.13000000
   17.90833282  103.52600098    0.05000000    0.13000000
   17.91166687   89.33460236    0.05000000    0.13000000
   17.91472244   90.28759766    0.05000000    0.13000000
   17.91805458   91.67089844    0.05000000    0.13000000
   17.92111015  101.84899902    0.05000000    0.13000000
   17.92666626  101.84899902    0.05000000    0.13000000
   17.93055534  102.72100067    0.05000000    0.13000000
   17.93388748   92.90979767    0.05000000    0.13000000
   17.93694305   90.32939911    0.05000000    0.13000000
   17.94027710  100.10700226    0.05000000    0.13000000
   17.94333267   90.91390228    0.05000000    0.13000000
   17.94666672   86.64099884    0.05000000    0.13000000
   17.94972038   75.49600220    0.05000000    0.13000000
   17.95027924   78.65080261    0.05000000    0.13000000
   17.95333481   78.44809723    0.05000000    0.13000000
   17.95666695   80.83029938    0.05000000    0.13000000
   17.95972252   74.16919708    0.05000000    0.13000000
   17.96305656   81.34529877    0.05000000    0.13000000
   17.96611214   73.74259949    0.05000000    0.13000000
   17.96944427   81.73760223    0.05000000    0.13000000
   17.97249985   90.09529877    0.05000000    0.13000000
   17.97777748   90.09529877    0.05000000    0.13000000
   17.98194504   93.27899933    0.05000000    0.13000000
   17.98500061   86.81420135    0.05000000    0.13000000
   17.98833275   99.35379791    0.05000000    0.13000000
   17.99138832   93.51149750    0.05000000    0.13000000
   17.99444389   99.85639954    0.05000000    0.13000000
   17.99777794  100.74800110    0.05000000    0.13000000
   18.00027847   89.87989807    0.05000000    0.13000000
   18.00111198  104.67500305    0.05000000    0.13000000
   18.00444412  102.16799927    0.05000000    0.13000000
   18.00749969   88.18640137    0.05000000    0.13000000
   18.01083374   92.91210175    0.05000000    0.13000000
   18.01388931   98.76899719    0.05000000    0.13000000
   18.01722145   91.53659821    0.05000000    0.13000000
   18.02027702   94.01830292    0.05000000    0.13000000
   18.02361107   92.49469757    0.05000000    0.13000000
   18.02888870   92.49469757    0.05000000    0.13000000
   18.03305435  101.19899750    0.05000000    0.13000000
   18.03610992   98.77469635    0.05000000    0.13000000
   18.03944397  101.33399963    0.05000000    0.13000000
   18.04249954  100.33300018    0.05000000    0.13000000
   18.04583359  101.86900330    0.05000000    0.13000000
   18.04888916   96.85440063    0.05000000    0.13000000
   18.05027771   94.31279755    0.05000000    0.13000000
   18.05222130  100.38800049    0.05000000    0.13000000
   18.05555534   89.32630157    0.05000000    0.13000000
   18.05861092   96.84339905    0.05000000    0.13000000
   18.06194305   92.28790283    0.05000000    0.13000000
   18.06499863   97.96140289    0.05000000    0.13000000
   18.06833458   98.14469910    0.05000000    0.13000000
   18.07139015   96.18740082    0.05000000    0.13000000
   18.07472229   93.49469757    0.05000000    0.13000000
   18.08000183   93.49469757    0.05000000    0.13000000
   18.08416748   94.94280243    0.05000000    0.13000000
   18.08750153   90.71620178    0.05000000    0.13000000
   18.09055710   87.06880188    0.05000000    0.13000000
   18.09388924   93.20610046    0.05000000    0.13000000
   18.09694481   77.40740204    0.05000000    0.13000000
   18.10000038   85.33190155    0.05000000    0.13000000
   18.10055542   96.14499664    0.05000000    0.13000000
   18.10388947   98.66719818    0.05000000    0.13000000
   18.10694504   98.33280182    0.05000000    0.13000000
   18.11027908   99.49130249    0.05000000    0.13000000
   18.11333466   92.58709717    0.05000000    0.13000000
   18.11666679   93.02390289    0.05000000    0.13000000
   18.11972237   87.80449677    0.05000000    0.13000000
   18.12305641   94.79540253    0.05000000    0.13000000
   18.12611198   89.80580139    0.05000000    0.13000000
   18.13138962   89.80580139    0.05000000    0.13000000
   18.13527679   92.59950256    0.05000000    0.13000000
   18.13861084   88.31410217    0.05000000    0.13000000
   18.14166641   96.37039948    0.05000000    0.13000000
   18.14500046   94.94020081    0.05000000    0.13000000
   18.14805603   92.01869965    0.05000000    0.13000000
   18.15055466   91.66539764    0.05000000    0.13000000
   18.15166664   93.46990204    0.05000000    0.13000000
   18.15472221   91.09190369    0.05000000    0.13000000
   18.15805435   79.82890320    0.05000000    0.13000000
   18.16110992   76.78530121    0.05000000    0.13000000
   18.16416550   80.86370087    0.05000000    0.13000000
   18.16749954   83.06099701    0.05000000    0.13000000
   18.17055511   92.34140015    0.05000000    0.13000000
   18.17388916   91.26319885    0.05000000    0.13000000
   18.17694473   89.49649811    0.05000000    0.13000000
   18.18249893   89.49649811    0.05000000    0.13000000
   18.18666649   85.86820221    0.05000000    0.13000000
   18.18972206   94.94750214    0.05000000    0.13000000
   18.19305420  100.60700226    0.05000000    0.13000000
   18.19610977   93.77220154    0.05000000    0.13000000
   18.19916534   93.79840088    0.05000000    0.13000000
   18.21638870   98.79679871    0.05000000    0.13000000
   18.21916771   96.98359680    0.05000000    0.13000000
   18.22249985   95.23329926    0.05000000    0.13000000
   18.22555542   88.70760345    0.05000000    0.13000000
   18.22888947   86.99929810    0.05000000    0.13000000
   18.23361206   86.99929810    0.05000000    0.13000000
   18.23777771   88.10890198    0.05000000    0.13000000
   18.24083328   95.86060333    0.05000000    0.13000000
   18.24416733   89.20310211    0.05000000    0.13000000
   18.24722290   84.62220001    0.05000000    0.13000000
   18.25055504   88.70099640    0.05000000    0.13000000
   18.25361061   94.53620148    0.05000000    0.13000000
   18.25694466   92.24369812    0.05000000    0.13000000
   18.26000023   83.59040070    0.05000000    0.13000000
   18.26333427   83.88909912    0.05000000    0.13000000
   18.26638794   94.29319763    0.05000000    0.13000000
   18.26694489   95.02189636    0.05000000    0.13000000
   18.27000046   84.02770233    0.05000000    0.13000000
   18.27333260   84.11660004    0.05000000    0.13000000
   18.27638817   92.22519684    0.05000000    0.13000000
   18.27972221   87.28260040    0.05000000    0.13000000
   18.28472137   87.28260040    0.05000000    0.13000000
   18.28888893   93.59230042    0.05000000    0.13000000
   18.29194450   93.01699829    0.05000000    0.13000000
   18.29527664   76.89550018    0.05000000    0.13000000
   18.29833221   89.85299683    0.05000000    0.13000000
   18.30166626   86.18689728    0.05000000    0.13000000
   18.30472183   91.02619934    0.05000000    0.13000000
   18.30805397   89.63870239    0.05000000    0.13000000
   18.31110954   89.71299744    0.05000000    0.13000000
   18.31444359   93.71440125    0.05000000    0.13000000
   18.31638718   96.86969757    0.05000000    0.13000000
   18.31805611   93.37760162    0.05000000    0.13000000
   18.32111168   88.83940125    0.05000000    0.13000000
   18.32444572   99.61460114    0.05000000    0.13000000
   18.32750130   94.94930267    0.05000000    0.13000000
   18.33083344   98.03079987    0.05000000    0.13000000
   18.33611107   98.03079987    0.05000000    0.13000000
   18.34000015   96.41590118    0.05000000    0.13000000
   18.34333420   92.64040375    0.05000000    0.13000000
   18.34638977   92.18560028    0.05000000    0.13000000
   18.34972191   99.41100311    0.05000000    0.13000000
   18.35277748   96.63829803    0.05000000    0.13000000
   18.35611153   95.58920288    0.05000000    0.13000000
   18.35916710   90.37229919    0.05000000    0.13000000
   18.36250114   94.93190002    0.05000000    0.13000000
   18.36555672   90.69909668    0.05000000    0.13000000
   18.36638832   99.94879913    0.05000000    0.13000000
   18.36916733   94.05740356    0.05000000    0.13000000
   18.37249947   97.70010376    0.05000000    0.13000000
   18.37555504   96.51180267    0.05000000    0.13000000
   18.37888908   96.34149933    0.05000000    0.13000000
   18.38194466   91.74749756    0.05000000    0.13000000
   18.38722229   91.74749756    0.05000000    0.13000000
   18.39111137   90.05970001    0.05000000    0.13000000
   18.39444351   91.38349915    0.05000000    0.13000000
   18.39749908   98.13069916    0.05000000    0.13000000
   18.40083313   82.74929810    0.05000000    0.13000000
   18.40388870   95.89679718    0.05000000    0.13000000
   18.40722275   94.72820282    0.05000000    0.13000000
   18.41027832   89.33650208    0.05000000    0.13000000
   18.41361046   88.89579773    0.05000000    0.13000000
   18.41666603   91.70890045    0.05000000    0.13000000
   18.41722107   93.94080353    0.05000000    0.13000000
   18.42027664   91.17929840    0.05000000    0.13000000
   18.42361069   92.66590118    0.05000000    0.13000000
   18.42666626   85.58200073    0.05000000    0.13000000
   18.43000031   80.21260071    0.05000000    0.13000000
   18.43305397   81.36930084    0.05000000    0.13000000
   18.43833160   81.36930084    0.05000000    0.13000000
   18.44249916   85.52719879    0.05000000    0.13000000
   18.44555473   89.71089935    0.05000000    0.13000000
   18.44888878   86.13680267    0.05000000    0.13000000
   18.45194435   87.88569641    0.05000000    0.13000000
   18.45527840   79.18979645    0.05000000    0.13000000
   18.45833397   81.21269989    0.05000000    0.13000000
   18.46166801   83.48619843    0.05000000    0.13000000
   18.46472359   86.25489807    0.05000000    0.13000000
   18.46666718   87.66110229    0.05000000    0.13000000
   18.46833420   72.25050354    0.05000000    0.13000000
   18.47166634   92.71019745    0.05000000    0.13000000
   18.47472191   83.62920380    0.05000000    0.13000000
   18.47805595  102.25299835    0.05000000    0.13000000
   18.48111153  119.11599731    0.05000000    0.13000000
   18.48444557   97.59089661    0.05000000    0.13000000
   18.48972321   97.59089661    0.05000000    0.13000000
   18.49361229  110.78199768    0.05000000    0.13000000
   18.49694443   98.41280365    0.05000000    0.13000000
   18.50000000   96.93240356    0.05000000    0.13000000
   18.50333405   89.69560242    0.05000000    0.13000000
   18.50638962   79.12349701    0.05000000    0.13000000
   18.50972176   99.60019684    0.05000000    0.13000000
   18.51277733   97.90950012    0.05000000    0.13000000
   18.51611137   98.25869751    0.05000000    0.13000000
   18.51666641   98.19360352    0.05000000    0.13000000
   18.51944351   91.52500153    0.05000000    0.13000000
   18.52277756   83.26000214    0.05000000    0.13000000
   18.52583313   95.06330109    0.05000000    0.13000000
   18.52916718   86.22669983    0.05000000    0.13000000
   18.53222275  103.58499908    0.05000000    0.13000000
   18.53555489   93.10350037    0.05000000    0.13000000
   18.54083252   93.10350037    0.05000000    0.13000000
   18.54500008  106.21600342    0.05000000    0.13000000
   18.54805565   91.75610352    0.05000000    0.13000000
   18.55111122   89.62079620    0.05000000    0.13000000
   18.55444336  100.69300079    0.05000000    0.13000000
   18.55749893   93.87079620    0.05000000    0.13000000
   18.56083298   93.36450195    0.05000000    0.13000000
   18.56388855   93.53589630    0.05000000    0.13000000
   18.56666756  113.78600311    0.05000000    0.13000000
   18.56750107  102.05100250    0.05000000    0.13000000
   18.57083511   95.90859985    0.05000000    0.13000000
   18.57389069  101.35399628    0.05000000    0.13000000
   18.57722282  109.73100281    0.05000000    0.13000000
   18.58027840   93.86840057    0.05000000    0.13000000
   18.58333397   94.93630219    0.05000000    0.13000000
   18.58666801   98.78279877    0.05000000    0.13000000
   18.59194565   98.78279877    0.05000000    0.13000000
   18.59611130   96.22550201    0.05000000    0.13000000
   18.59916687  113.39700317    0.05000000    0.13000000
   18.60250092  114.69799805    0.05000000    0.13000000
   18.60555649   94.83779907    0.05000000    0.13000000
   18.60888863   99.57330322    0.05000000    0.13000000
   18.61194420   90.57939911    0.05000000    0.13000000
   18.61499977  112.31800079    0.05000000    0.13000000
   18.61666679  106.39600372    0.05000000    0.13000000
   18.61861038  101.47499847    0.05000000    0.13000000
   18.62194443  107.87100220    0.05000000    0.13000000
   18.62500000   89.29579926    0.05000000    0.13000000
   18.62833405   91.52030182    0.05000000    0.13000000
   18.63138962  111.69999695    0.05000000    0.13000000
   18.63472176   78.87480164    0.05000000    0.13000000
   18.63777733   88.45359802    0.05000000    0.13000000
   18.64305496   88.45359802    0.05000000    0.13000000
   18.64722252   87.93820190    0.05000000    0.13000000
   18.65027809  102.90499878    0.05000000    0.13000000
   18.65361023   97.31340027    0.05000000    0.13000000
   18.65666580   97.94259644    0.05000000    0.13000000
   18.65999985   90.27449799    0.05000000    0.13000000
   18.66305542   91.50060272    0.05000000    0.13000000
   18.66638756   82.14579773    0.05000000    0.13000000
   18.66666603   89.75779724    0.05000000    0.13000000
   18.67000008   98.51190186    0.05000000    0.13000000
   18.67333221   95.27670288    0.05000000    0.13000000
   18.67638779   87.73819733    0.05000000    0.13000000
   18.67944336   85.79740143    0.05000000    0.13000000
   18.68277740   84.30570221    0.05000000    0.13000000
   18.68583298   95.72149658    0.05000000    0.13000000
   18.68916512  103.67400360    0.05000000    0.13000000
   18.69444275  103.67400360    0.05000000    0.13000000
   18.69833183   89.65139771    0.05000000    0.13000000
   18.70166779   94.81690216    0.05000000    0.13000000
   18.70472336   91.14869690    0.05000000    0.13000000
   18.70777893  102.74199677    0.05000000    0.13000000
   18.71111107  114.97000122    0.05000000    0.13000000
   18.71416664  108.36599731    0.05000000    0.13000000
   18.71694565  107.26100159    0.05000000    0.13000000
   18.71777916   98.96040344    0.05000000    0.13000000
   18.72083473  101.09300232    0.05000000    0.13000000
   18.72416687  103.79900360    0.05000000    0.13000000
   18.72722244  104.00399780    0.05000000    0.13000000
   18.73055649  100.10900116    0.05000000    0.13000000
   18.73361206  100.94599915    0.05000000    0.13000000
   18.73694420   98.83139801    0.05000000    0.13000000
   18.73999977   91.59480286    0.05000000    0.13000000
   18.74555588   91.59480286    0.05000000    0.13000000
   18.74944496   96.65319824    0.05000000    0.13000000
   18.75277710   86.51290131    0.05000000    0.13000000
   18.75583267   90.02989960    0.05000000    0.13000000
   18.75916672   90.91280365    0.05000000    0.13000000
   18.76222229   95.16500092    0.05000000    0.13000000
   18.76555634  117.22499847    0.05000000    0.13000000
   18.76694489   98.63059998    0.05000000    0.13000000
   18.76888847   98.18710327    0.05000000    0.13000000
   18.77222252   92.34049988    0.05000000    0.13000000
   18.77527809   96.85250092    0.05000000    0.13000000
   18.77833366   95.06749725    0.05000000    0.13000000
   18.78166580  102.90100098    0.05000000    0.13000000
   18.78472137  101.09100342    0.05000000    0.13000000
   18.78805542  101.52200317    0.05000000    0.13000000
   18.79111099  101.40699768    0.05000000    0.13000000
   18.79666710  101.40699768    0.05000000    0.13000000
   18.80083275   96.27619934    0.05000000    0.13000000
   18.80388832   97.47170258    0.05000000    0.13000000
   18.80722237   95.05030060    0.05000000    0.13000000
   18.81027794  102.56300354    0.05000000    0.13000000
   18.81333351  100.38700104    0.05000000    0.13000000
   18.81666756   96.71440125    0.05000000    0.13000000
   18.81722260   96.08519745    0.05000000    0.13000000
   18.82027817   92.36150360    0.05000000    0.13000000
   18.82361221   83.95659637    0.05000000    0.13000000
   18.82666779   92.72429657    0.05000000    0.13000000
   18.83000183   88.17610168    0.05000000    0.13000000
   18.83305550   86.27400208    0.05000000    0.13000000
   18.83611107   95.95390320    0.05000000    0.13000000
   18.83944511   93.93810272    0.05000000    0.13000000
   18.84250069   93.10119629    0.05000000    0.13000000
   18.84777832   93.10119629    0.05000000    0.13000000
   18.85194397   80.23339844    0.05000000    0.13000000
   18.85527802   82.51709747    0.05000000    0.13000000
   18.85833359   85.37729645    0.05000000    0.13000000
   18.86138916   75.60230255    0.05000000    0.13000000
   18.86472321   87.71949768    0.05000000    0.13000000
   18.86722183   84.35459900    0.05000000    0.13000000
   18.86833382   84.86170197    0.05000000    0.13000000
   18.87138939   87.81829834    0.05000000    0.13000000
   18.87472153   81.53859711    0.05000000    0.13000000
   18.87777710   86.33779907    0.05000000    0.13000000
   18.88111115   86.75489807    0.05000000    0.13000000
   18.88416672   79.48090363    0.05000000    0.13000000
   18.88750076   82.96369934    0.05000000    0.13000000
   18.89055634   88.85959625    0.05000000    0.13000000
   18.89388847   92.18099976    0.05000000    0.13000000
   18.89888954   92.18099976    0.05000000    0.13000000
   18.90305519   79.57279968    0.05000000    0.13000000
   18.90638924   94.58899689    0.05000000    0.13000000
   18.90944481   86.86630249    0.05000000    0.13000000
   18.91250038   84.93759918    0.05000000    0.13000000
   18.91583252   95.54019928    0.05000000    0.13000000
   18.91722107   90.21790314    0.05000000    0.13000000
   18.91916656   96.64499664    0.05000000    0.13000000
   18.92249870   95.24130249    0.05000000    0.13000000
   18.92555428   87.95120239    0.05000000    0.13000000
   18.92888832   95.27140045    0.05000000    0.13000000
   18.93194389   99.22810364    0.05000000    0.13000000
   18.93527603   98.94629669    0.05000000    0.13000000
   18.93833160   95.39250183    0.05000000    0.13000000
   18.94138718   91.38079834    0.05000000    0.13000000
   18.94472122   84.37529755    0.05000000    0.13000000
   18.95027924   84.37529755    0.05000000    0.13000000
   18.95416832   83.14790344    0.05000000    0.13000000
   18.95750046   87.79080200    0.05000000    0.13000000
   18.96055603   93.63500214    0.05000000    0.13000000
   18.96389008   90.34329987    0.05000000    0.13000000
   18.96694565   94.80690002    0.05000000    0.13000000
   18.96750069   95.70600128    0.05000000    0.13000000
   18.97055626   98.99379730    0.05000000    0.13000000
   18.97389030   94.03910065    0.05000000    0.13000000
   18.97694588   94.82790375    0.05000000    0.13000000
   18.98027802   83.61350250    0.05000000    0.13000000
   18.98333359   86.07820129    0.05000000    0.13000000
   18.98666763   96.34809875    0.05000000    0.13000000
   18.98972321   93.63189697    0.05000000    0.13000000
   18.99305534   98.43669891    0.05000000    0.13000000
   18.99611092  100.04900360    0.05000000    0.13000000
   19.00138855  100.04900360    0.05000000    0.13000000
   19.00555611  107.04199982    0.05000000    0.13000000
   19.00861168  101.01999664    0.05000000    0.13000000
   19.01194382   88.43959808    0.05000000    0.13000000
   19.01499939   85.49479675    0.05000000    0.13000000
   19.01749992   84.69789886    0.05000000    0.13000000
   19.01833344   92.23410034    0.05000000    0.13000000
   19.02166557   92.29109955    0.05000000    0.13000000
   19.02472115   77.50789642    0.05000000    0.13000000
   19.02805519   77.55110168    0.05000000    0.13000000
   19.03111076   95.51989746    0.05000000    0.13000000
   19.03444481   75.84339905    0.05000000    0.13000000
   19.03750038   80.84539795    0.05000000    0.13000000
   19.04083252   98.99649811    0.05000000    0.13000000
   19.04388809   86.26979828    0.05000000    0.13000000
   19.04722214  101.09100342    0.05000000    0.13000000
   19.05249977  101.09100342    0.05000000    0.13000000
   19.05666542  160.84199524    0.05000000    0.13000000
   19.05972099   98.53530121    0.05000000    0.13000000
   19.06305504  102.05599976    0.05000000    0.13000000
   19.06611061  109.63800049    0.05000000    0.13000000
   19.06750107   80.89980316    0.05000000    0.13000000
   19.06972313   86.96070099    0.05000000    0.13000000
   19.07277870  110.10600281    0.05000000    0.13000000
   19.07583427   97.75530243    0.05000000    0.13000000
   19.07916832   82.12560272    0.05000000    0.13000000
   19.08222389   98.87740326    0.05000000    0.13000000
   19.08555603   96.18329620    0.05000000    0.13000000
   19.08861160   98.41780090    0.05000000    0.13000000
   19.09194565  114.18099976    0.05000000    0.13000000
   19.09500122  106.96399689    0.05000000    0.13000000
   19.09833336  114.47899628    0.05000000    0.13000000
