    HOUR (UT)   FLARE FACTOR    SKY TESTER    SUN TESTER
   10.93861103   -1.00000000   -1.00000000   -1.00000000
   10.97638798  105.88700104    4.90999985    2.26999998
   10.97999954  106.81600189    4.90999985    2.26999998
   10.98305511  113.06700134    4.90999985    2.26999998
   10.98638916  110.16699982    4.90999985    2.28999996
   10.98944473  111.52200317    4.90999985    2.28999996
   10.99277782  111.02200317    4.90999985    2.28999996
   10.99611092  108.77500153    4.90999985    2.28999996
   10.99916649  112.45800018    4.90999985    2.28999996
   11.00472260  112.45800018    4.90999985    2.28999996
   11.00888920  105.44899750    4.90999985    2.28999996
   11.01222229  106.60800171    4.90999985    2.28999996
   11.01555538  108.35800171    4.90999985    2.28999996
   11.01861095  108.02300262    4.90999985    2.28999996
   11.02194405  108.59999847    4.90999985    2.28999996
   11.02499962  107.44499969    4.90999985    2.30999994
   11.02611065  105.66699982    4.90999985    2.30999994
   11.02861118  114.08999634    4.90999985    2.28999996
   11.03194427  106.28299713    4.90999985    2.30999994
   11.03527832   97.62079620    4.90999985    2.30999994
   11.03861141  107.46299744    4.90999985    2.30999994
   11.04194450  109.50800323    4.90999985    2.30999994
   11.04500008  107.23999786    4.90999985    2.30999994
   11.04833412  105.87300110    4.90999985    2.28999996
   11.05166721  114.83499908    4.90999985    2.28999996
   11.05611134  114.83499908    4.90999985    2.30999994
   11.06027794   95.44629669    4.90999985    2.30999994
   11.06333351  101.61299896    4.90999985    2.28999996
   11.06694412   97.06639862    4.90999985    2.30999994
   11.07027817  108.40699768    4.90999985    2.28999996
   11.07333374   97.75650024    4.90999985    2.30999994
   11.07638836   99.90339661    4.90999985    2.32999992
   11.07694435  106.85199738    4.90999985    2.30999994
   11.08027744  108.19499969    4.90999985    2.32999992
   11.08333302  105.67800140    4.90999985    2.32999992
   11.08666611  100.26599884    4.90999985    2.32999992
   11.09000015  100.83300018    4.90999985    2.32999992
   11.09305477   96.36889648    4.90999985    2.32999992
   11.09638882   96.73840332    4.90999985    2.30999994
   11.09972191  109.43099976    4.90999985    2.30999994
   11.10277843   99.88829803    4.90999985    2.30999994
   11.10722256   99.88829803    4.90999985    2.28999996
   11.11138916  116.65000153    4.90999985    2.30999994
   11.11444473  107.57599640    4.90999985    2.28999996
   11.11777782  106.92600250    4.90999985    2.30999994
   11.12111092   94.77390289    4.90999985    2.28999996
   11.12416649  101.93499756    4.90999985    2.28999996
   11.12638855  116.68800354    4.90999985    2.30999994
   11.12777805  107.60800171    4.90999985    2.30999994
   11.13111115  100.47100067    4.90999985    2.30999994
   11.13416672  111.62999725    4.90999985    2.30999994
   11.13749981  113.98899841    4.90999985    2.30999994
   11.14083290  108.05599976    4.90999985    2.30999994
   11.14388847  107.94999695    4.90999985    2.30999994
   11.14722252  108.28600311    4.90999985    2.30999994
   11.15055561   92.21939850    4.90999985    2.30999994
   11.15361118  106.45300293    4.90999985    2.28999996
   11.15833282  106.45300293    4.90999985    2.30999994
   11.16249943  102.14399719    4.90999985    2.30999994
   11.16583252  110.23400116    4.90999985    2.32999992
   11.16888905  105.80599976    4.90999985    2.30999994
   11.17222214   92.40540314    4.90999985    2.32999992
   11.17555618  113.79000092    4.90999985    2.34999990
   11.17638874  106.10299683    4.90999985    2.32999992
   11.17888927  112.74600220    4.90999985    2.32999992
   11.18222237  108.42199707    4.90999985    2.32999992
   11.18527794  102.91899872    4.90999985    2.32999992
   11.18861103  103.74700165    4.90999985    2.34999990
   11.19194412  106.82199860    4.90999985    2.32999992
   11.19499969  106.03199768    4.90999985    2.34999990
   11.19833374  110.09300232    4.90999985    2.34999990
   11.20166683  109.47799683    4.90999985    2.34999990
   11.20472240  105.62100220    4.90999985    2.34999990
   11.20972157  105.62100220    4.90999985    2.32999992
   11.21361065  101.68800354    4.90999985    2.34999990
   11.21694374  101.32599640    4.90999985    2.34999990
   11.22027779  102.05899811    4.90999985    2.34999990
   11.22333336  114.14900208    4.90999985    2.36999989
   11.22638798  101.34899902    4.90999985    2.36999989
   11.22694397  108.67500305    4.90999985    2.34999990
   11.23027706  109.94999695    4.90999985    2.36999989
   11.23361111  108.36199951    4.90999985    2.36999989
   11.23666668  106.64399719    4.90999985    2.39000010
   11.24000072  125.50199890    4.90999985    2.36999989
   11.24305534  102.69599915    4.90999985    2.36999989
   11.24638939  106.21800232    4.90999985    2.36999989
   11.24972248   97.39959717    4.90999985    2.39000010
   11.25277805  119.34500122    4.90999985    2.39000010
   11.25611115  114.04599762    4.90999985    2.39000010
   11.26083374  114.04599762    4.90999985    2.40000010
   11.26500034  123.42299652    4.90999985    2.40000010
   11.26805496  119.40200043    4.90999985    2.40000010
   11.27138901  125.57399750    4.90999985    2.40000010
   11.27472210  136.24699402    4.90999985    2.40000010
   11.27638817  121.47299957    4.90999985    2.40000010
   11.27805519  130.23800659    4.90999985    2.40000010
   11.28138828  138.38900757    4.90999985    2.40000010
   11.28472233  122.58799744    4.90999985    2.40000010
   11.28777790  117.43900299    4.90999985    2.40000010
   11.29111195   97.60679626    4.90999985    2.39000010
   11.29416752  150.07299805    4.90999985    2.40000010
   11.29750061  134.17100525    4.90999985    2.40000010
   11.30083370  127.45800018    4.90999985    2.40000010
   11.30388927  135.22000122    4.90999985    2.40000010
   11.30722237  120.00900269    4.90999985    2.40000010
   11.31194496  120.00900269    4.90999985    2.39000010
   11.31611156  119.83000183    4.90999985    2.39000010
   11.31944466  124.11799622    4.90999985    2.39000010
   11.32250023  150.16299438    4.90999985    2.39000010
   11.32583332  133.32699585    4.90999985    2.39000010
   11.32638836  150.28799438    4.90999985    2.40000010
   11.32944393  153.92999268    4.90999985    2.39000010
   11.33249950  150.73100281    4.90999985    2.40000010
   11.33583260  141.63200378    4.90999985    2.40000010
   11.33888817  134.04200745    4.90999985    2.40000010
   11.34222221  126.89199829    4.90999985    2.40000010
   11.34555531  122.55999756    4.90999985    2.42000008
   11.34861088   96.46320343    4.90999985    2.40000010
   11.35194492  102.51000214    4.90999985    2.40000010
   11.35527802  105.46299744    4.90999985    2.42000008
   11.35833359  110.22399902    4.90999985    2.40000010
   11.36305618  110.22399902    4.90999985    2.44000006
   11.36722279   94.45320129    4.90999985    2.42000008
   11.37055588   98.22299957    4.90999985    2.44000006
   11.37361145  107.17199707    4.90999985    2.44000006
   11.37638855   98.59999847    4.90999985    2.42000008
   11.37750053  100.41000366    4.90999985    2.42000008
   11.38055611  105.85399628    4.90999985    2.42000008
   11.38388920   95.31839752    4.90999985    2.44000006
   11.38722229   89.82289886    4.90999985    2.42000008
   11.39027786  100.23600006    4.90999985    2.42000008
   11.39361095  100.43900299    4.90999985    2.42000008
   11.39666653   92.69329834    4.90999985    2.42000008
   11.39999962  100.73999786    4.90999985    2.42000008
   11.40333271   96.67749786    4.90999985    2.44000006
   11.40638828   98.29479980    4.90999985    2.46000004
   11.40972137   95.41549683    4.90999985    2.44000006
   11.41416645   95.41549683    4.90999985    2.42000008
   11.41833401   91.65519714    4.90999985    2.42000008
   11.42166710   88.54620361    4.90999985    2.42000008
   11.42500019   97.52279663    4.90999985    2.42000008
   11.42638874   95.69349670    4.90999985    2.42000008
   11.42861176   98.11640167    4.90999985    2.42000008
   11.43166733   97.84230042    4.90999985    2.44000006
   11.43500042   98.24929810    4.90999985    2.46000004
   11.43833351   96.93499756    4.90999985    2.46000004
   11.44138908   99.12969971    4.90999985    2.46000004
   11.44472218  102.58000183    4.90999985    2.46000004
   11.44777775  100.58399963    4.90999985    2.46000004
   11.45111084   97.57599640    4.90999985    2.46000004
   11.45444393  102.33999634    4.90999985    2.46000004
   11.45749950  100.07700348    4.90999985    2.46000004
   11.46083355  100.71600342    4.90999985    2.46000004
   11.46555519  100.71600342    4.90999985    2.48000002
   11.46972179   97.35009766    4.90999985    2.48000002
   11.47277737  102.96399689    4.90999985    2.48000002
   11.47611046   99.89859772    4.90999985    2.48000002
   11.47666645   96.94529724    4.90999985    2.48000002
   11.47972202   99.11910248    4.90999985    2.48000002
   11.48277760   96.27839661    4.90999985    2.48000002
   11.48611164   97.94110107    4.90999985    2.48000002
   11.48916721   92.33550262    4.90999985    2.48000002
   11.49250031   95.16200256    4.90999985    2.46000004
   11.49583340   98.36589813    4.90999985    2.48000002
   11.49888897   92.98999786    4.90999985    2.48000002
   11.50222206   87.36209869    4.90999985    2.48000002
   11.50555515   88.53829956    4.90999985    2.48000002
   11.50861073   97.47640228    4.90999985    2.48000002
   11.51194477   91.49449921    4.90999985    2.48000002
   11.51666641   91.49449921    4.90999985    2.48000002
   11.52083302   99.57070160    4.90999985    2.46000004
   11.52388859   92.44470215    4.90999985    2.46000004
   11.52666664   99.04470062    4.90999985    2.46000004
   11.52777767   97.90689850    4.90999985    2.46000004
   11.53083324  104.95600128    4.90999985    2.46000004
   11.53416729   98.73799896    4.90999985    2.44000006
   11.53722286   99.16750336    4.90999985    2.46000004
   11.54055595   93.71669769    4.90999985    2.46000004
   11.54388905   99.80049896    4.90999985    2.46000004
   11.54694462  108.75299835    4.90999985    2.46000004
   11.55027771   98.10880280    4.90999985    2.46000004
   11.55361176  100.64399719    4.90999985    2.46000004
   11.55666733   93.60479736    4.90999985    2.46000004
   11.56000042  102.71099854    4.90999985    2.46000004
   11.56305599   88.72660065    4.90999985    2.48000002
   11.56777763   88.72660065    4.90999985    2.48000002
   11.57194424   96.32430267    4.90999985    2.50000000
   11.57527733   98.25740051    4.90999985    2.50000000
   11.57666683   90.24710083    4.90999985    2.51999998
   11.57888889   93.75160217    4.90999985    2.51999998
   11.58194447  107.11199951    4.90999985    2.51999998
   11.58527756  102.16100311    4.90999985    2.51999998
   11.58833313   97.90360260    4.90999985    2.51999998
   11.59166622  100.91799927    4.90999985    2.51999998
   11.59499931  101.41699982    4.90999985    2.51999998
   11.59805489   92.66179657    4.90999985    2.51999998
   11.60138893   96.52269745    4.90999985    2.50000000
   11.60472298  101.14900208    4.90999985    2.51999998
   11.60777855   97.64469910    4.90999985    2.50000000
   11.61111164   92.98799896    4.90999985    2.48000002
   11.61416721   97.87539673    4.90999985    2.48000002
   11.61888885   97.87539673    4.90999985    2.48000002
   11.62305546   98.94499969    4.90999985    2.50000000
   11.62638855  103.61900330    4.90999985    2.50000000
   11.62694454   97.83020020    4.90999985    2.50000000
   11.63027763  100.52700043    4.90999985    2.50000000
   11.63333321   95.67389679    4.90999985    2.48000002
   11.63666630  102.82099915    4.90999985    2.48000002
   11.64000034   95.13520050    4.90999985    2.48000002
   11.64305496  102.65299988    4.90999985    2.48000002
   11.64638901   98.18900299    4.90999985    2.50000000
   11.64944458   94.88590240    4.90999985    2.50000000
   11.65277767   95.90229797    4.90999985    2.50000000
   11.65611076   97.30239868    4.90999985    2.51999998
   11.65916634  100.71499634    4.90999985    2.51999998
   11.66249943  108.03199768    4.90999985    2.51999998
   11.66583252  102.92800140    4.90999985    2.51999998
   11.67027855  102.92800140    4.90999985    2.50000000
   11.67444515  106.16200256    4.90999985    2.48000002
   11.67694473   96.38800049    4.90999985    2.46000004
   11.67805576  100.96199799    4.90999985    2.46000004
   11.68111134   98.79100037    4.90999985    2.46000004
   11.68444443  107.25299835    4.90999985    2.46000004
   11.68750000   96.48500061    4.90999985    2.46000004
   11.69083309   95.88140106    4.90999985    2.48000002
   11.69416714   96.54979706    4.90999985    2.48000002
   11.69722271   96.95929718    4.90999985    2.48000002
   11.70055580   99.87280273    4.90999985    2.51999998
   11.70388889   91.30500031    4.90999985    2.50000000
   11.70694447   95.83010101    4.90999985    2.50000000
   11.71027756  102.02400208    4.90999985    2.50000000
   11.71333313   95.47250366    4.90999985    2.50000000
   11.71666622   97.13980103    4.90999985    2.51999998
   11.72138882   97.13980103    4.90999985    2.50000000
   11.72555542  105.30100250    4.90999985    2.53999996
   11.72694397  101.83499908    4.90999985    2.53999996
   11.72916603   99.02909851    4.90999985    2.53999996
   11.73222160   98.33370209    4.90999985    2.51999998
   11.73555565   99.54940033    4.90999985    2.51999998
   11.73888874  102.39700317    4.90999985    2.51999998
   11.74194431  103.96099854    4.90999985    2.48000002
   11.74527836   94.12280273    4.90999985    2.50000000
   11.74833393   99.10030365    4.90999985    2.51999998
   11.75166702  101.94799805    4.90999985    2.51999998
   11.75500011   99.42520142    4.90999985    2.51999998
   11.75805569   93.02169800    4.90999985    2.48000002
   11.76138878   94.53500366    4.90999985    2.48000002
   11.76472187   91.01580048    4.90999985    2.50000000
   11.76777744  105.90399933    4.90999985    2.51999998
   11.77250004  105.90399933    4.90999985    2.51999998
   11.77666664   92.10729980    4.90999985    2.50000000
   11.77722168   89.27639771    4.90999985    2.50000000
   11.78055573   95.44670105    4.90999985    2.48000002
   11.78361130  101.04199982    4.90999985    2.48000002
   11.78694534   97.15760040    4.90999985    2.46000004
   11.79027843  101.32399750    4.90999985    2.46000004
   11.79333401   98.66490173    4.90999985    2.46000004
   11.79666710  104.91999817    4.90999985    2.46000004
   11.79972267   96.57800293    4.90999985    2.46000004
   11.80305576  102.55799866    4.90999985    2.44000006
   11.80638885   96.53410339    4.90999985    2.46000004
   11.80944443  103.56600189    4.90999985    2.46000004
   11.81277752   98.60790253    4.90999985    2.46000004
   11.81611156  106.12500000    4.90999985    2.46000004
   11.81916618  112.44799805    4.90999985    2.48000002
   11.82361126  112.44799805    4.90999985    2.50000000
   11.82777786  106.73300171    4.90999985    2.53999996
   11.83111095  108.77700043    4.90999985    2.51999998
   11.83444405  103.11100006    4.90999985    2.48000002
   11.83749962  102.54199982    4.90999985    2.51999998
   11.84083271  102.76699829    4.90999985    2.55999994
   11.84388828   96.37699890    4.90999985    2.55999994
   11.84722233  100.29799652    4.90999985    2.57999992
   11.85055637  101.05300140    4.90999985    2.55999994
   11.85361195  101.00900269    4.90999985    2.55999994
   11.85694504   94.46540070    4.90999985    2.55999994
   11.86027813  101.96499634    4.90999985    2.55999994
   11.86333370  104.91500092    4.90999985    2.53999996
   11.86666679   92.13169861    4.90999985    2.50000000
   11.86972237   94.06700134    4.90999985    2.51999998
   11.87500000   94.06700134    4.90999985    2.46000004
   11.87916660   97.32230377    4.90999985    2.48000002
   11.88222218  102.36799622    4.90999985    2.50000000
   11.88555527   96.55130005    4.90999985    2.53999996
   11.88861084   99.59989929    4.90999985    2.55999994
   11.89194393   96.79280090    4.90999985    2.55999994
   11.89527798   95.87390137    4.90999985    2.57999992
   11.89833355  100.90000153    4.90999985    2.59999990
   11.90166664  101.67600250    4.90999985    2.59999990
   11.90499973  104.76799774    4.90999985    2.57999992
   11.90805531  100.30400085    4.90999985    2.59999990
   11.91138840   98.85919952    4.90999985    2.59999990
   11.91472149   96.32830048    4.82999992    2.59999990
   11.91777802  104.15699768    3.59999990    2.61999989
   11.92111111   99.31960297    4.40999985    2.61999989
   11.92611122   99.31960297    3.61999989    2.61999989
   11.93027782  109.48600006    3.57999992    2.61999989
   11.93333340  107.35700226    2.94000006    2.64000010
   11.93666649  100.27600098    2.86999989    2.64000010
   11.94000053   95.03869629    2.51999998    2.64000010
   11.94305515   98.49739838    2.51999998    2.64000010
   11.94638920  111.38600159    2.48000002    2.66000009
   11.94972229  104.87100220    2.53999996    2.66000009
   11.95277786  105.84300232    2.80999994    2.64000010
   11.95611095  111.30200195    2.89000010    2.64000010
   11.95916653  102.21499634    3.03999996    2.64000010
   11.96249962  110.36399841    3.03999996    2.64000010
   11.96583271  106.91600037    2.98000002    2.64000010
   11.96888828  102.96499634    2.98000002    2.64000010
   11.97222137  105.64099884    2.94000006    2.64000010
   11.99361134  105.82099915    4.71999979    2.64000010
   11.99416733  101.05599976    4.71999979    2.64000010
   11.99722290  106.70200348    4.90999985    2.61999989
   12.00138855   97.31639862    4.90999985    2.61999989
   12.00472260  103.31099701    4.90999985    2.59999990
   12.00777817   93.26989746    4.90999985    2.61999989
   12.01111126   99.59700012    4.86999989    2.61999989
   12.01444435  101.31800079    4.90999985    2.61999989
   12.01749992   94.34169769    4.90999985    2.61999989
   12.02083302  110.28299713    4.90999985    2.61999989
   12.02444458   96.75119781    4.90999985    2.59999990
   12.02916622   96.75119781    4.90999985    2.59999990
   12.03361130  100.99800110    4.90999985    2.57999992
   12.03666687   92.91560364    4.90999985    2.59999990
   12.04111195  100.40599823    4.71999979    2.64000010
   12.04500008  100.73799896    4.76000023    2.64000010
   12.04694462   94.61589813    4.90999985    2.61999989
   12.05027771  107.87599945    4.90999985    2.61999989
   12.05388927  103.84600067    4.90999985    2.61999989
   12.05833340  111.32399750    4.90999985    2.59999990
   12.06222248   97.37049866    4.90999985    2.57999992
   12.06611156   98.04640198    4.90999985    2.57999992
   12.06972218  105.70999908    4.90999985    2.59999990
   12.07305527  105.68399811    4.90999985    2.55999994
   12.07666683   98.90799713    4.90999985    2.55999994
   12.08111095   98.90799713    4.90999985    2.59999990
   12.08527756  105.62999725    4.90999985    2.55999994
   12.08861065  105.08599854    4.90999985    2.53999996
   12.09166622  102.75900269    4.90999985    2.55999994
   12.09361076  112.53800201    4.90999985    2.53999996
   12.09555531  109.35600281    4.90999985    2.55999994
   12.09888840  105.22899628    4.90999985    2.55999994
   12.10222244  114.06500244    4.90999985    2.61999989
   12.10527802   86.46980286    4.90999985    2.64000010
   12.10861111  111.70099640    4.61999989    2.64000010
   12.11194515  113.45999908    3.45000005    2.66000009
   12.11527824  105.36199951    3.51999998    2.66000009
   12.11861134  112.72299957    4.90999985    2.61999989
   12.12194443  119.12300110    4.90999985    2.55999994
   12.12500000  118.41600037    4.90999985    2.61999989
   12.12861156  114.28199768    4.90999985    2.61999989
   12.13277817  114.28199768    4.90999985    2.61999989
   12.13694477  109.58000183    4.90999985    2.64000010
   12.14027786  111.99099731    4.90999985    2.64000010
   12.14361095  113.72399902    4.46999979    2.66000009
   12.14416695  104.98600006    4.69999981    2.66000009
   12.14722252   99.51190186    4.15999985    2.66000009
   12.15055561  107.34400177    3.99000001    2.66000009
   12.15361118  122.14800262    4.57999992    2.64000010
   12.15777779  110.15200043    4.28999996    2.66000009
   12.16111088  108.77700043    4.80000019    2.66000009
   12.16444397  108.30400085    4.90999985    2.64000010
   12.16805553  109.72899628    4.90999985    2.64000010
   12.17138958  109.04000092    4.90999985    2.64000010
   12.17472267  103.56199646    4.90999985    2.64000010
   12.17805576  101.67600250    4.90999985    2.61999989
   12.18416691  101.67600250    4.90999985    2.59999990
   12.18833351  113.25199890    4.90999985    2.59999990
   12.19166660   94.24849701    4.90999985    2.59999990
   12.19444466  105.25000000    4.90999985    2.59999990
   12.19583321  113.22899628    4.90999985    2.59999990
   12.19916630  115.06500244    4.90999985    2.59999990
   12.20249939  108.49199677    4.90999985    2.59999990
   12.20583344  111.15699768    4.90999985    2.59999990
   12.20916653  112.54499817    4.90999985    2.59999990
   12.21249962  106.16600037    4.90999985    2.59999990
   12.21583271  112.98899841    4.90999985    2.61999989
   12.21916580  115.48200226    4.90999985    2.61999989
   12.22249985  103.48400116    4.90999985    2.61999989
   12.22583294  108.79000092    4.90999985    2.61999989
   12.22916603  117.73500061    4.90999985    2.64000010
   12.23527813  117.73500061    4.90999985    2.64000010
   12.23944473  104.51200104    4.90999985    2.61999989
   12.24277782  121.84100342    4.90999985    2.64000010
   12.24444485  107.54299927    4.90999985    2.66000009
   12.24638939  107.38800049    4.90999985    2.66000009
   12.25000000  111.67199707    4.67999983    2.67000008
   12.25333309  102.62500000    4.63999987    2.66000009
   12.25666714  107.96499634    4.46999979    2.67000008
   12.26000023   99.48459625    4.32999992    2.67000008
   12.26333332  114.28500366    4.32999992    2.67000008
   12.26666641  111.35299683    4.40999985    2.67000008
   12.26972198  107.00900269    4.44999981    2.67000008
   12.27305508  107.04599762    4.53000021    2.67000008
   12.27638817  101.11699677    4.57999992    2.67000008
   12.27972221  106.27999878    4.90999985    2.66000009
   12.28638935  106.27999878    4.90999985    2.66000009
   12.29055595  106.48799896    4.90999985    2.64000010
   12.29388905  104.75299835    4.90999985    2.64000010
   12.29444504  103.87699890    4.90999985    2.64000010
   12.29750061   86.75489807    4.90999985    2.64000010
   12.30055618  104.99299622    4.90999985    2.66000009
   12.30388927  106.74600220    4.90999985    2.64000010
   12.30694485  111.40699768    4.90999985    2.66000009
   12.31027794  107.23600006    4.90999985    2.64000010
   12.31361103  105.29499817    4.90999985    2.59999990
   12.31694412   95.54470062    4.90999985    2.59999990
   12.31999969  104.52500153    4.90999985    2.59999990
   12.32333374  109.13099670    4.90999985    2.57999992
   12.32666683  103.63899994    4.90999985    2.59999990
   12.32972240  105.94400024    4.90999985    2.59999990
   12.33333302  111.52100372    4.90999985    2.61999989
   12.33777714  111.52100372    4.90999985    2.64000010
   12.34194374  104.86599731    4.90999985    2.64000010
   12.34444427  106.42099762    4.90999985    2.64000010
   12.34583282  108.34100342    4.90999985    2.64000010
   12.34916592  106.79100037    4.90999985    2.61999989
   12.35222244  117.77799988    4.90999985    2.59999990
   12.35555553  109.36900330    4.90999985    2.59999990
   12.35888958  108.86199951    4.90999985    2.59999990
   12.36194515  107.04100037    4.90999985    2.59999990
   12.36527824  109.58999634    4.90999985    2.59999990
   12.36861134  111.19000244    4.90999985    2.57999992
   12.37194443  115.84600067    4.90999985    2.55999994
   12.37527752  108.45700073    4.90999985    2.59999990
   12.37888908  105.53299713    4.90999985    2.61999989
   12.38222218  110.13300323    4.90999985    2.57999992
   12.38888836  110.13300323    4.90999985    2.59999990
   12.39305496  109.56999969    4.90999985    2.61999989
   12.39444447  118.36900330    4.90999985    2.61999989
   12.39694405  108.07099915    4.90999985    2.61999989
   12.40027714  107.41600037    4.90999985    2.64000010
   12.40361118  112.57700348    4.90999985    2.64000010
   12.40694427  114.26300049    4.90999985    2.59999990
   12.41027737  111.04599762    4.90999985    2.61999989
   12.41333294  108.39099884    4.90999985    2.61999989
   12.41666698  107.87200165    4.90999985    2.64000010
   12.42000008  111.05000305    4.90999985    2.66000009
   12.42333412  104.48899841    4.90999985    2.67000008
   12.42666721  103.30999756    4.90999985    2.67000008
   12.43000031  107.07499695    4.90999985    2.67000008
   12.43333340   98.07180023    4.90999985    2.67000008
   12.44000053   98.07180023    3.95000005    2.71000004
   12.44444466  102.20600128    3.68000007    2.71000004
   12.44499969  110.24800110    3.57999992    2.71000004
   12.44833374  100.33599854    3.51999998    2.71000004
   12.45166683   95.08209991    3.57999992    2.71000004
   12.45499992  110.39299774    3.59999990    2.71000004
   12.45805550  100.46600342    3.91000009    2.69000006
   12.46138859  109.29699707    3.43000007    2.71000004
   12.46472168  107.88099670    3.73000002    2.71000004
   12.46805477   98.27729797    3.64000010    2.71000004
   12.47194386  103.24900055    3.61999989    2.69000006
   12.47499943  104.65899658    3.53999996    2.71000004
   12.47833252  104.04199982    3.36999989    2.71000004
   12.48166656   98.34249878    3.30999994    2.71000004
   12.48500061  101.23100281    3.23000002    2.71000004
   12.49111176  101.23100281    3.39000010    2.71000004
   12.49555588  105.02300262    3.48000002    2.71000004
   12.49888897  104.99800110    3.50000000    2.71000004
   12.50194454  105.89099884    3.72000003    2.71000004
   12.50527763  104.62999725    3.73000002    2.71000004
   12.50861073  103.63899994    3.76999998    2.71000004
   12.51166630  112.09600067    3.61999989    2.71000004
   12.51500034  107.77700043    3.45000005    2.71000004
   12.51833344  104.60199738    3.48000002    2.71000004
   12.52166653  113.69200134    3.50000000    2.71000004
   12.52472210  111.02400208    3.76999998    2.71000004
   12.52833271  104.51300049    4.90999985    2.69000006
   12.53166676  112.99600220    4.80000019    2.69000006
   12.53555584  112.36000061    4.69999981    2.71000004
   12.54666710  112.36000061    4.90999985    2.69000006
   12.55277824  106.80699921    4.90999985    2.67000008
   12.55666733   93.47250366    4.90999985    2.67000008
   12.56083393   97.76560211    4.90999985    2.67000008
   12.56416702  103.20999908    4.90999985    2.69000006
   12.56750011   96.09040070    4.90999985    2.66000009
   12.57083321  108.80300140    4.90999985    2.64000010
   12.57416630  107.03700256    4.90999985    2.64000010
   12.57750034   98.71219635    4.90999985    2.64000010
   12.58083344  109.50399780    4.90999985    2.67000008
   12.58416653  111.51899719    4.90999985    2.66000009
   12.58833313  105.52200317    4.90999985    2.66000009
   12.59388828  105.52200317    4.90999985    2.67000008
   12.59805489  101.91899872    4.90999985    2.67000008
   12.60055637   99.88770294    4.90999985    2.69000006
   12.60194492  103.73400116    4.90999985    2.67000008
   12.60527802   99.78649902    4.90999985    2.69000006
   12.60833359  105.59200287    4.90999985    2.69000006
   12.61166668  109.55000305    4.90999985    2.71000004
   12.61500072  106.70099640    4.90999985    2.71000004
   12.61833382  104.67700195    4.90999985    2.67000008
   12.62166691  108.47499847    4.90999985    2.66000009
   12.62472248  109.34400177    4.90999985    2.66000009
   12.62805557  106.40000153    4.90999985    2.66000009
   12.63138866  110.10700226    4.90999985    2.64000010
   12.63472176  115.90699768    4.90999985    2.64000010
   12.63805580  108.07499695    4.90999985    2.61999989
   12.64138889  106.04399872    4.90999985    2.59999990
   12.64555550  106.04399872    4.90999985    2.59999990
   12.64972210  114.63899994    4.90999985    2.61999989
   12.65055561  111.73400116    4.90999985    2.61999989
   12.65361118  108.52799988    4.90999985    2.61999989
   12.65694427  107.19799805    4.90999985    2.61999989
   12.66027737  113.44699860    4.90999985    2.64000010
   12.66527748  104.11900330    4.90999985    2.64000010
   12.66861153  111.37300110    4.90999985    2.66000009
   12.67194462  113.99700165    4.90999985    2.67000008
   12.67527771  102.47299957    4.90999985    2.67000008
   12.67888927  100.58899689    4.90999985    2.69000006
   12.68249989  101.61299896    4.90999985    2.69000006
   12.68611145  106.12100220    4.90999985    2.67000008
   12.68972206  106.35500336    4.90999985    2.67000008
   12.69361115  109.22799683    4.90999985    2.67000008
   12.69805527  109.22799683    4.90999985    2.66000009
   12.70277786  111.27600098    4.90999985    2.67000008
   12.70638847  111.24500275    4.90999985    2.66000009
   12.70972157   91.94170380    4.90999985    2.66000009
   12.71305561  102.50399780    4.90999985    2.67000008
   12.71638870  107.95700073    4.90999985    2.64000010
   12.71999931  104.98600006    4.90999985    2.59999990
   12.72305489  104.35199738    4.90999985    2.61999989
   12.72666645  103.05100250    4.90999985    2.61999989
   12.72999954  111.00000000    4.90999985    2.64000010
   12.73361111  102.42099762    4.90999985    2.66000009
   12.73722267  102.12200165    4.90999985    2.67000008
   12.74027824  108.01999664    4.90999985    2.69000006
   12.74388885  101.74900055    4.90999985    2.67000008
   12.75055599  101.74900055    4.90999985    2.67000008
   12.75500011   99.16860199    4.90999985    2.66000009
   12.75833321  110.56800079    4.90999985    2.64000010
   12.76166630  100.96800232    4.90999985    2.61999989
   12.76500034  105.74500275    4.90999985    2.59999990
   12.76833344   95.96089935    4.90999985    2.57999992
   12.77166653   92.94409943    4.90999985    2.64000010
   12.77527714  103.19100189    4.90999985    2.66000009
   12.77833271  101.16600037    4.90999985    2.61999989
   12.78166676  109.02899933    4.90999985    2.64000010
   12.78500080  107.76100159    4.90999985    2.57999992
   12.78833389  106.26599884    4.90999985    2.53999996
   12.79166698  117.85900116    4.90999985    2.53999996
   12.79500008  112.45899963    4.90999985    2.53999996
   12.80027771  112.45899963    4.90999985    2.61999989
   12.80444431  106.68499756    4.90999985    2.66000009
   12.80777836  102.83399963    4.90999985    2.66000009
   12.81111145   94.92479706    4.90999985    2.61999989
   12.81444454  105.74600220    4.90999985    2.66000009
   12.81750011  109.57700348    4.90999985    2.66000009
   12.82083321  109.67199707    4.90999985    2.64000010
   12.82416630  112.40399933    4.90999985    2.59999990
   12.82750034  103.33799744    4.90999985    2.66000009
   12.83083344  108.12799835    4.90999985    2.67000008
   12.83416653  101.34200287    4.90999985    2.71000004
   12.83749962  106.51999664    4.90999985    2.71000004
   12.84083271  105.56800079    4.90999985    2.73000002
   12.84416676  100.68800354    4.90999985    2.73000002
   12.84722233   99.33129883    4.86999989    2.73000002
   12.85166740   99.33129883    4.51000023    2.75000000
   12.85638905   97.35179901    4.90999985    2.73000002
   12.86000061   89.33439636    4.80999994    2.75000000
   12.86388969  103.95700073    4.86999989    2.75000000
   12.86750031   98.75039673    4.78000021    2.75000000
   12.87111092  108.51499939    4.90999985    2.73000002
   12.87500000  103.53500366    4.90999985    2.71000004
   12.87833309  101.02100372    4.90999985    2.71000004
   12.88194466   95.90720367    4.90999985    2.73000002
   12.88583279  104.14900208    4.90999985    2.71000004
   12.88972187  115.18499756    4.90999985    2.71000004
   12.89416695  107.33699799    4.90999985    2.67000008
   12.89805508  113.18000031    4.90999985    2.66000009
   12.90416622  113.18000031    4.90999985    2.71000004
   12.90861034  104.16699982    4.90999985    2.73000002
   12.91222191  107.70500183    4.90999985    2.71000004
   12.91555500  104.73600006    4.57999992    2.76999998
   12.91916656  110.38300323    4.44999981    2.75000000
   12.92277813  105.69899750    4.69999981    2.76999998
   12.92694473   99.88690186    4.32999992    2.76999998
   12.93083382  108.46099854    4.48999977    2.75000000
   12.93444443  112.63200378    4.51000023    2.75000000
   12.93833351  107.13999939    4.17999983    2.76999998
   12.94194412  104.50800323    4.32999992    2.76999998
   12.94638920  110.56900024    4.90999985    2.75000000
   12.94999981  101.34700012    4.90999985    2.75000000
   12.96444416  101.34700012    4.90999985    2.73000002
   12.96972179  100.31400299    4.90999985    2.69000006
   12.97333336  102.79799652    4.90999985    2.73000002
   12.97694397  102.20899963    4.90999985    2.75000000
   12.98055553  103.90899658    4.90999985    2.73000002
   12.98416710   98.15360260    4.90999985    2.73000002
   12.98777771  101.61199951    4.90999985    2.71000004
   12.99166679  110.67600250    4.90999985    2.71000004
   12.99527836  110.75700378    4.90999985    2.67000008
   12.99861145  106.80500031    4.90999985    2.71000004
   13.02416611  106.80500031    3.59999990    2.78999996
   13.02888870   99.53089905    3.59999990    2.78999996
   13.03277779  106.43800354    3.73000002    2.78999996
   13.03638935  104.93299866    3.78999996    2.76999998
   13.04000092  106.87899780    3.64000010    2.78999996
   13.04361153  102.14700317    3.75000000    2.78999996
   13.04722309   99.62169647    4.05999994    2.76999998
   13.05083370  102.35700226    4.48999977    2.78999996
   13.05444431  104.51699829    4.90999985    2.76999998
   13.05833340  111.41300201    4.71999979    2.76999998
   13.06222248  107.68299866    4.44999981    2.76999998
   13.06611156  101.86399841    4.26000023    2.76999998
   13.07388878   99.84809875    4.23999977    2.76999998
   13.07861137   99.84809875    3.73000002    2.78999996
   13.08333302  102.91400146    3.72000003    2.78999996
   13.08694458   90.08020020    3.51999998    2.78999996
   13.09083271  111.76499939    3.59999990    2.78999996
   13.09472179   97.64320374    3.66000009    2.78999996
   13.09861088  109.83100128    3.43000007    2.78999996
   13.10333347  100.00299835    3.86999989    2.78999996
   13.10666752  100.17400360    3.72000003    2.78999996
   13.11055565   97.70490265    3.16000009    2.78999996
   13.11388969   86.48960114    2.89000010    2.80999994
   13.11722279  101.48600006    4.63999987    2.80999994
   13.12055588   79.04329681    4.90999985    2.82999992
   13.12388897   99.32399750    4.90999985    2.55999994
   13.13249969   99.32399750    4.90999985    2.78999996
   13.13944435  104.60600281    4.90999985    2.78999996
   13.14666653  100.99500275    4.76000023    2.78999996
   13.15305519  103.54100037    4.90999985    2.75000000
   13.15888882  102.99800110    4.11999989    2.78999996
   13.16277695  108.10399628    3.34999990    2.78999996
   13.16638851   94.41179657    4.30999994    2.78999996
   13.17000008  103.44200134    4.13999987    2.78999996
   13.17111111  111.00599670    4.07999992    2.78999996
   13.17472267   86.08979797    4.11999989    2.78999996
   13.17805576  110.15799713    4.44999981    2.78999996
   13.18305588  110.15799713    4.90999985    2.76999998
   13.18750000  110.34500122    4.90999985    2.76999998
   13.19111156  108.74800110    4.90999985    2.75000000
   13.19472218  104.98200226    4.90999985    2.76999998
   13.19833374  105.36399841    4.80000019    2.78999996
   13.20166683  103.44699860    4.34999990    2.78999996
   13.20527744  109.25000000    3.82999992    2.78999996
   13.20861053  117.49700165    4.90999985    2.80999994
   13.21194458   98.50640106    3.99000001    2.78999996
   13.21555519  114.22899628    3.89000010    2.78999996
   13.21888828  102.16400146    3.64000010    2.78999996
   13.22027779   92.94400024    3.53999996    2.78999996
   13.22388840   98.90299988    4.38999987    2.78999996
   13.22749996  109.34100342    4.90999985    2.78999996
   13.23472214  109.34100342    4.15999985    2.80999994
   13.23916721  101.55200195    2.96000004    2.80999994
   13.24222279   96.69789886    2.86999989    2.80999994
   13.24555588   95.04149628    3.21000004    2.80999994
   13.24888897  106.82700348    3.39000010    2.80999994
   13.25194454  100.17800140    3.28999996    2.80999994
   13.25527763   89.26339722    3.51999998    2.80999994
   13.25833321  104.09300232    3.95000005    2.80999994
   13.26166630  111.27500153    3.97000003    2.78999996
   13.26500034   73.82379913    3.89000010    2.78999996
   13.26805496   98.97850037    3.14000010    2.80999994
   13.26944447  103.22399902    3.25000000    2.80999994
   13.27194405  107.52999878    3.25000000    2.80999994
   13.27527714  103.04199982    4.11999989    2.78999996
   13.27833271  105.04499817    4.61999989    2.78999996
   13.28500080  105.04499817    4.59999990    2.76999998
   13.28916740   79.81780243    4.17999983    2.78999996
   13.29250050   89.94020081    3.72000003    2.78999996
   13.29583359  116.76899719    3.89000010    2.78999996
   13.29888916  106.40100098    4.71999979    2.76999998
   13.30222225  111.13400269    4.80000019    2.78999996
   13.30527782  109.06199646    4.59999990    2.78999996
   13.30861092  115.95700073    4.53999996    2.78999996
   13.31194496   95.26920319    4.53999996    2.78999996
   13.31500053   95.44450378    4.90999985    2.76999998
   13.31833363  113.68099976    4.82999992    2.76999998
   13.31944466  113.28299713    4.84999990    2.78999996
   13.32194424  105.66300201    4.90999985    2.76999998
   13.32527733  110.24099731    4.90999985    2.73000002
   13.32833290  101.81400299    4.90999985    2.73000002
   13.33166695  103.83200073    4.90999985    2.75000000
   13.33638859  103.83200073    4.90999985    2.75000000
   13.34055519  106.55000305    4.90999985    2.75000000
   13.34361076  105.91400146    4.90999985    2.75000000
   13.34694386  101.21900177    4.90999985    2.75000000
   13.35000038  105.94699860    4.90999985    2.76999998
   13.35333347  107.29000092    4.90999985    2.78999996
   13.35666752   90.45379639    4.90999985    2.76999998
   13.35972214  110.81999969    4.90999985    2.76999998
   13.36305618   98.90679932    4.17999983    2.78999996
   13.36638927  106.15000153    3.59999990    2.78999996
   13.36944485  107.00800323    3.51999998    2.78999996
   13.36999989  103.31300354    3.51999998    2.78999996
   13.37333393  111.85299683    4.09999990    2.80999994
   13.37638855  105.81099701    4.05999994    2.78999996
   13.37972260  106.13800049    4.36999989    2.78999996
   13.38277817  116.59799957    4.65999985    2.78999996
   13.38749981  116.59799957    4.76000023    2.78999996
   13.39166641   84.23860168    4.90999985    2.75000000
   13.39472198   98.21690369    4.90999985    2.76999998
   13.39805508   92.91660309    4.51000023    2.78999996
   13.40138817   89.43830109    4.11999989    2.78999996
   13.40444374   82.85160065    4.15999985    2.78999996
   13.40777779  100.07599640    3.48000002    2.80999994
   13.41111088  114.49400330    4.23999977    2.78999996
   13.41416645  100.13099670    4.46999979    2.78999996
   13.41750050   97.23100281    4.90999985    2.75000000
   13.41944504  104.25599670    4.90999985    2.75000000
   13.42111111  108.40499878    4.90999985    2.71000004
   13.42444515   98.12349701    4.90999985    2.73000002
   13.42750072   98.47619629    4.03999996    2.78999996
   13.43083382  112.74600220    3.48000002    2.80999994
   13.43388939  119.40599823    4.05999994    2.78999996
   13.43861103  119.40599823    3.93000007    2.80999994
   13.44277763  125.92600250    4.90999985    2.75000000
   13.44611073  126.63600159    4.90999985    2.73000002
   13.44916630  118.90100098    4.90999985    2.69000006
   13.45249939  112.00199890    4.90999985    2.75000000
   13.45583344  112.84400177    4.90999985    2.75000000
   13.45888901  119.98999786    4.90999985    2.75000000
   13.46222210   96.72789764    4.90999985    2.75000000
   13.46527767   84.79759979    4.90999985    2.73000002
   13.46861076  100.44499969    4.90999985    2.75000000
   13.46944427  102.96700287    4.90999985    2.75000000
   13.47222137  114.06700134    4.90999985    2.71000004
   13.47555542  111.07399750    4.90999985    2.66000009
   13.47861099  111.21700287    4.90999985    2.67000008
   13.48194408  120.94499969    4.90999985    2.69000006
   13.48527813   86.47160339    1.33000004    0.69000000
   13.48972225   86.47160339    0.31999999    0.17000000
   13.49388885  106.62799835    0.28000000    0.07000000
   13.49722290   97.40540314    0.28000000    0.07000000
   13.50055599  104.96499634    0.28000000    0.07000000
   13.50361156  110.57900238    0.28000000    0.07000000
   13.50694466  100.57700348    0.28000000    0.07000000
   13.51000023  101.18900299    0.28000000    0.07000000
   13.51333332  103.96800232    0.28000000    0.07000000
   13.51666641  104.29699707    0.28000000    0.07000000
   13.51944447  103.64099884    0.28000000    0.07000000
   13.52027798   92.45439911    0.28000000    0.07000000
   13.52361107   99.36830139    0.28000000    0.07000000
   13.52666664   99.88990021    0.28000000    0.07000000
   13.52999973   93.22579956    0.28000000    0.07000000
   13.53333378  104.88200378    0.28000000    0.07000000
   13.53638935  102.49700165    0.28000000    0.07000000
   13.54111195  102.49700165    0.28000000    0.07000000
   13.54527855  104.74500275    0.28000000    0.07000000
   13.54833412   94.06710052    0.28000000    0.07000000
   13.55166721   95.35929871    0.28000000    0.07000000
   13.55472279  103.61299896    0.28000000    0.07000000
   13.55805588   93.42539978    0.28000000    0.07000000
   13.56138897   84.90630341    0.28000000    0.07000000
   13.56444454  111.19499969    0.28000000    0.07000000
   13.56777763  112.96299744    0.28000000    0.07000000
   13.56972218   94.37110138    0.28000000    0.07000000
   13.57138920  103.62699890    0.28000000    0.07000000
   13.57444477  115.87100220    0.28000000    0.07000000
   13.57777786  113.98699951    0.28000000    0.07000000
   13.58111095  115.21399689    0.28000000    0.07000000
   13.58416653   90.78160095    0.28000000    0.07000000
   13.58749962  113.19999695    0.28000000    0.07000000
   13.59222221  113.19999695    0.28000000    0.07000000
   13.59638882   87.51830292    0.28000000    0.07000000
   13.59972191  108.36499786    0.28000000    0.07000000
   13.60277843  123.94300079    0.28000000    0.07000000
   13.60611153  108.71900177    0.28000000    0.07000000
   13.60916710  101.32700348    0.28000000    0.07000000
   13.61250019  107.80000305    0.28000000    0.07000000
   13.61583328  110.68199921    0.28000000    0.07000000
   13.61888885   97.13400269    0.28000000    0.07000000
   13.61972237   95.83630371    0.28000000    0.07000000
   13.62250042   96.81060028    0.28000000    0.07000000
   13.62555599  107.91400146    0.28000000    0.07000000
   13.62888908  106.50299835    0.28000000    0.07000000
   13.63222218  102.19999695    0.28000000    0.07000000
   13.63527775  102.90200043    0.28000000    0.07000000
   13.63861084  110.39700317    0.28000000    0.07000000
   13.64333344  110.39700317    0.28000000    0.07000000
   13.64750004  107.49600220    0.28000000    0.07000000
   13.65083313  109.66799927    0.28000000    0.07000000
   13.65388870  104.58000183    0.28000000    0.07000000
   13.65722179  100.00099945    0.28000000    0.07000000
   13.66055489   81.82469940    0.28000000    0.07000000
   13.66361046  107.41500092    0.28000000    0.07000000
   13.66694450  104.45600128    0.28000000    0.07000000
   13.66972256  105.19499969    0.28000000    0.07000000
   13.67055607  100.84799957    0.28000000    0.07000000
   13.67361164  106.70800018    0.28000000    0.07000000
   13.67694473  100.50499725    0.28000000    0.07000000
   13.68027782  103.77899933    0.28000000    0.07000000
   13.68333340  116.42500305    0.28000000    0.07000000
   13.68666649  108.08100128    0.28000000    0.07000000
   13.69000053  105.70700073    0.28000000    0.07000000
   13.69444466  105.70700073    0.28000000    0.07000000
   13.69861126  116.81199646    0.28000000    0.07000000
   13.70194435  106.98400116    0.28000000    0.07000000
   13.70499992  109.99800110    0.28000000    0.07000000
   13.70833302  111.61699677    0.28000000    0.07000000
   13.71166611  112.23000336    0.28000000    0.07000000
   13.71472168  119.71900177    0.28000000    0.07000000
   13.71805477  105.50499725    0.28000000    0.07000000
   13.71972179  106.48600006    0.28000000    0.07000000
   13.72166634  106.61100006    0.28000000    0.07000000
   13.72499943  101.79199982    0.28000000    0.07000000
   13.72805500   86.18499756    0.28000000    0.07000000
   13.73138809   86.33190155    0.28000000    0.07000000
   13.73444462  106.02200317    0.28000000    0.07000000
   13.73777771  104.04499817    0.28000000    0.07000000
   13.74111176  103.16100311    0.28000000    0.07000000
   13.74583340  103.16100311    0.28000000    0.07000000
   13.74972248  101.29900360    0.28000000    0.07000000
   13.75305557   99.39330292    0.28000000    0.07000000
   13.75638866   97.94180298    0.28000000    0.07000000
   13.75944424  105.99600220    0.28000000    0.07000000
   13.76277733  100.64800262    0.28000000    0.07000000
   13.76611137  100.11199951    0.28000000    0.07000000
   13.76916599   98.07099915    0.28000000    0.07000000
   13.76972198   96.10949707    0.28000000    0.07000000
   13.77277756   99.56060028    0.28000000    0.07000000
   13.77611065   87.48570251    0.28000000    0.07000000
   13.77916622   97.97889709    0.28000000    0.07000000
   13.78249931   99.53420258    0.28000000    0.07000000
   13.78555584  106.61199951    0.28000000    0.07000000
   13.78888893  104.21600342    0.28000000    0.07000000
   13.79222298  108.76300049    0.28000000    0.07000000
   13.79694462  108.76300049    0.28000000    0.07000000
   13.80111122  104.34799957    0.28000000    0.07000000
   13.80416679   96.21569824    0.28000000    0.07000000
   13.80749989  102.59100342    0.28000000    0.07000000
   13.81083393   99.77700043    0.28000000    0.07000000
   13.81388950  101.07900238    0.28000000    0.07000000
   13.81722260  104.76399994    0.28000000    0.07000000
   13.81972218   96.64759827    0.28000000    0.07000000
   13.82083321   97.81529999    0.28000000    0.07000000
   13.82416630  100.94400024    0.28000000    0.07000000
   13.82722187  104.76899719    0.28000000    0.07000000
   13.83055592  102.26999664    0.28000000    0.07000000
   13.83361053  104.51999664    0.28000000    0.07000000
   13.83694458  106.55000305    0.28000000    0.07000000
   13.84027767   96.71430206    0.28000000    0.07000000
   13.84333324  108.91899872    0.28000000    0.07000000
   13.84805489  108.91899872    0.28000000    0.07000000
   13.85222244  100.33499908    0.28000000    0.07000000
   13.85555553   85.16960144    0.28000000    0.07000000
   13.85861111  102.07800293    0.28000000    0.07000000
   13.86194515  101.62300110    0.28000000    0.07000000
   13.86500072  110.17199707    0.28000000    0.07000000
   13.86833382   97.88899994    0.28000000    0.07000000
   13.86972237  111.80699921    0.28000000    0.07000000
   13.87194443  109.30799866    0.28000000    0.07000000
   13.87527752  112.25900269    0.28000000    0.07000000
   13.87833309   99.12010193    0.28000000    0.07000000
   13.88166714  107.40799713    0.28000000    0.07000000
   13.88500023  105.34700012    0.28000000    0.07000000
   13.88805580  107.48100281    0.28000000    0.07000000
   13.89138889  103.38400269    0.28000000    0.07000000
   13.89444447   89.23809814    0.28000000    0.07000000
   13.89916611   89.23809814    0.28000000    0.07000000
   13.90333271   98.96949768    0.28000000    0.07000000
   13.90666676  101.88099670    0.28000000    0.07000000
   13.90972137  107.90699768    0.28000000    0.07000000
   13.91305542  113.24299622    0.28000000    0.07000000
   13.91638851  108.59100342    0.28000000    0.07000000
   13.91944504  105.50900269    0.28000000    0.07000000
   13.92000008   99.02220154    0.28000000    0.07000000
   13.92333412  106.13899994    0.28000000    0.07000000
   13.92666721   99.83399963    0.28000000    0.07000000
   13.92972279  112.63200378    0.28000000    0.07000000
   13.93305588  107.64700317    0.28000000    0.07000000
   13.93638897   97.20020294    0.28000000    0.07000000
   13.93944454   86.53620148    0.28000000    0.07000000
   13.94277763  110.18399811    0.28000000    0.07000000
   13.94583321  105.24600220    0.28000000    0.07000000
   13.95055580  105.24600220    0.28000000    0.07000000
   13.95444393   85.59600067    0.28000000    0.07000000
   13.95777798  103.98699951    0.28000000    0.07000000
   13.96111107   92.40720367    0.28000000    0.07000000
   13.96416664  104.55400085    0.28000000    0.07000000
   13.96749973   99.41929626    0.28000000    0.07000000
   13.96999931  106.72399902    0.28000000    0.07000000
   13.97111034  115.51699829    0.28000000    0.07000000
   13.97444439   94.42900085    0.28000000    0.07000000
   13.97749996  108.22799683    0.28000000    0.07000000
   13.98083305  103.67400360    0.28000000    0.07000000
   13.98416710   87.68990326    0.28000000    0.07000000
   13.98722267   91.22059631    0.28000000    0.07000000
   13.99055576   81.25630188    0.28000000    0.07000000
   13.99361134   98.78019714    0.28000000    0.07000000
   13.99694443   99.74960327    0.28000000    0.07000000
   14.00166702   99.74960327    0.28000000    0.07000000
   14.00583363  106.00000000    0.28000000    0.07000000
   14.00888920   97.46050262    0.28000000    0.07000000
   14.01222229  105.60399628    0.28000000    0.07000000
   14.01555538   87.07879639    0.28000000    0.07000000
   14.01861095  105.43099976    0.28000000    0.07000000
   14.01999950   85.51110077    0.28000000    0.07000000
   14.03861141   75.40480042    0.28000000    0.07000000
   14.04194450  101.31400299    0.28000000    0.07000000
   14.04527855   83.29879761    0.28000000    0.07000000
   14.04833412  103.88099670    0.28000000    0.07000000
   14.05305576  103.88099670    0.28000000    0.07000000
   14.05722237  104.98400116    0.28000000    0.07000000
   14.06027794  101.34799957    0.28000000    0.07000000
   14.06361103  109.43000031    0.28000000    0.07000000
   14.06666660  105.31500244    0.28000000    0.07000000
   14.06999969  111.56199646    0.28000000    0.07000000
   14.07055569  113.63400269    0.28000000    0.07000000
   14.07388878  101.97499847    0.28000000    0.07000000
   14.07694435   97.74320221    0.28000000    0.07000000
   14.08027744   90.99189758    0.28000000    0.07000000
   14.08361053  104.88800049    0.28000000    0.07000000
   14.08666611  104.95300293    0.28000000    0.07000000
   14.09000015  106.34100342    0.28000000    0.07000000
   14.09305477  107.22200012    0.28000000    0.07000000
   14.09638882  118.24299622    0.28000000    0.07000000
   14.09972191  103.31900024    0.28000000    0.07000000
   14.10416698  103.31900024    0.28000000    0.07000000
   14.10833359  103.75599670    0.28000000    0.07000000
   14.11138916  100.54100037    0.28000000    0.07000000
   14.11472225   99.43440247    0.28000000    0.07000000
   14.11805534  112.03299713    0.28000000    0.07000000
   14.12055588  106.79799652    0.28000000    0.07000000
   14.12166691  105.45200348    0.28000000    0.07000000
   14.12472248  106.44899750    0.28000000    0.07000000
   14.12805557  109.92299652    0.28000000    0.07000000
   14.13138866  102.07599640    0.28000000    0.07000000
   14.13444424   96.04049683    0.28000000    0.07000000
   14.13777733   84.39800262    0.28000000    0.07000000
   14.14083290  104.56999969    0.28000000    0.07000000
   14.14416695  105.21800232    0.28000000    0.07000000
   14.14750004  100.62100220    0.28000000    0.07000000
   14.15055561   98.05819702    0.28000000    0.07000000
   14.15527725   98.05819702    0.28000000    0.07000000
   14.15944386  101.21600342    0.28000000    0.07000000
   14.16277695  109.56500244    0.28000000    0.07000000
   14.16583252  102.78800201    0.28000000    0.07000000
   14.16916656   86.15049744    0.28000000    0.07000000
   14.17055607   87.38729858    0.28000000    0.07000000
   14.17277813   93.92859650    0.28000000    0.07000000
   14.17611122  100.05400085    0.28000000    0.07000000
   14.17916679  105.73000336    0.28000000    0.07000000
   14.18249989   94.85579681    0.28000000    0.07000000
   14.18555546  102.39600372    0.28000000    0.07000000
   14.18888855   97.76450348    0.28000000    0.07000000
   14.19222260  103.16000366    0.28000000    0.07000000
   14.19527817  109.30000305    0.28000000    0.07000000
   14.19861126  100.95899963    0.28000000    0.07000000
   14.20194435  115.64399719    0.28000000    0.07000000
   14.20666695  115.64399719    0.28000000    0.07000000
   14.21083355  108.56400299    0.28000000    0.07000000
   14.21388912  113.84300232    0.28000000    0.07000000
   14.21722221  112.15200043    0.28000000    0.07000000
   14.22027779   96.81009674    0.28000000    0.07000000
   14.22083282  103.05599976    0.28000000    0.07000000
   14.22416592  110.66600037    0.28000000    0.07000000
   14.22749996  109.39399719    0.28000000    0.07000000
   14.23055553  118.11399841    0.28000000    0.07000000
   14.23388958  110.67500305    0.28000000    0.07000000
   14.23722267  100.24099731    0.28000000    0.07000000
   14.24027824  104.38999939    0.28000000    0.07000000
   14.24361134  107.01000214    0.28000000    0.07000000
   14.24666691  115.50900269    0.28000000    0.07000000
   14.25000000  114.83200073    0.28000000    0.07000000
   14.25333309  107.78800201    0.28000000    0.07000000
   14.25777817  107.78800201    0.28000000    0.07000000
   14.26194477  109.74400330    0.28000000    0.07000000
   14.26500034  105.92199707    0.28000000    0.07000000
   14.26833344  110.11799622    0.28000000    0.07000000
   14.27083302  105.87000275    0.28000000    0.07000000
   14.27194405  105.44699860    0.28000000    0.07000000
   14.27527714  108.44400024    0.28000000    0.07000000
   14.27833271  100.80200195    0.28000000    0.07000000
   14.28166676  109.05300140    0.28000000    0.07000000
   14.28500080  110.19100189    0.28000000    0.07000000
   14.28805637  106.55699921    0.28000000    0.07000000
   14.29138947  108.90100098    0.28000000    0.07000000
   14.29444504  108.95300293    0.28000000    0.07000000
   14.29777813  102.93099976    0.28000000    0.07000000
   14.30111122  113.23500061    0.28000000    0.07000000
   14.30416679  105.33999634    0.28000000    0.07000000
   14.30888939  105.33999634    0.28000000    0.07000000
   14.31305599   99.99220276    0.28000000    0.07000000
   14.31638908  100.84500122    0.28000000    0.07000000
   14.31944466  106.68199921    0.28000000    0.07000000
   14.32083321  104.94499969    0.28000000    0.07000000
   14.32305527  106.98200226    0.28000000    0.07000000
   14.32638836   98.62439728    0.28000000    0.07000000
   14.32944393  100.09100342    0.28000000    0.07000000
   14.33277798  101.83200073    0.28000000    0.07000000
   14.33611107   96.84069824    0.28000000    0.07000000
   14.33916664   93.72039795    0.28000000    0.07000000
   14.34249973   97.28279877    0.28000000    0.07000000
   14.34583282  106.69200134    0.28000000    0.07000000
   14.34888840   99.60829926    0.28000000    0.07000000
   14.35222244  101.66899872    0.28000000    0.07000000
   14.35527802  103.73600006    0.28000000    0.07000000
   14.36000061  103.73600006    0.28000000    0.07000000
   14.36416721  100.89800262    0.28000000    0.07000000
   14.36750031   90.16100311    0.28000000    0.07000000
   14.37083340   88.06289673    0.28000000    0.07000000
   14.37138939   94.78569794    0.28000000    0.07000000
   14.37444496  100.51999664    0.28000000    0.07000000
   14.37777805  105.46299744    0.28000000    0.07000000
   14.38083363  111.14399719    0.28000000    0.07000000
   14.38416672  107.98200226    0.28000000    0.07000000
   14.38749981   99.20719910    0.28000000    0.07000000
   14.39055538  100.65299988    0.28000000    0.07000000
   14.39388847   95.38439941    0.28000000    0.07000000
   14.39722252   91.65229797    0.28000000    0.07000000
   14.40027714   88.94869995    0.28000000    0.07000000
   14.40361118   88.76450348    0.28000000    0.07000000
   14.40666676   94.90950012    0.28000000    0.07000000
   14.41138840   94.90950012    0.28000000    0.07000000
   14.41555500  101.27799988    0.28000000    0.07000000
   14.41861153  103.99299622    0.28000000    0.07000000
   14.42138958   96.75150299    0.28000000    0.07000000
   14.42222214   96.83950043    0.28000000    0.07000000
   14.42555618   90.90350342    0.28000000    0.07000000
   14.42861176   94.78050232    0.28000000    0.07000000
   14.43194485   96.26979828    0.28000000    0.07000000
   14.43527794   97.34210205    0.28000000    0.07000000
   14.43833351   92.89209747    0.28000000    0.07000000
   14.44166660  101.77400208    0.28000000    0.07000000
   14.44499969  102.20500183    0.28000000    0.07000000
   14.44805527   99.11910248    0.28000000    0.07000000
   14.45138836   98.47070313    0.28000000    0.07000000
   14.45444393  103.35099792    0.28000000    0.07000000
   14.45777798  101.26499939    0.28000000    0.07000000
   14.46249962  101.26499939    0.28000000    0.07000000
   14.46666622   97.64119720    0.28000000    0.07000000
   14.46972179  108.57800293    0.28000000    0.07000000
   14.47138882   98.99459839    0.28000000    0.07000000
   14.47333336  111.74800110    0.28000000    0.07000000
   14.47666645   94.31659698    0.28000000    0.07000000
   14.47972202  107.19499969    0.28000000    0.07000000
   14.48305511  103.01300049    0.28000000    0.07000000
   14.48638916   93.60839844    0.28000000    0.07000000
   14.48944473  108.85700226    0.28000000    0.07000000
   14.49277782   94.85440063    0.28000000    0.07000000
   14.49611092  106.01899719    0.28000000    0.07000000
   14.49916649  103.16600037    0.28000000    0.07000000
   14.50249958  104.34600067    0.28000000    0.07000000
   14.50555515  102.97799683    0.28000000    0.07000000
   14.50888920  106.67400360    0.28000000    0.07000000
   14.51361084  106.67400360    0.28000000    0.07000000
   14.51777744  103.98400116    0.28000000    0.07000000
   14.52111053  108.23200226    0.28000000    0.07000000
   14.52166653  108.82099915    0.28000000    0.07000000
   14.52472210  104.15899658    0.28000000    0.07000000
   14.52805519  103.17800140    0.28000000    0.07000000
   14.53111076  105.41500092    0.28000000    0.07000000
   14.53444481   90.18250275    0.28000000    0.07000000
   14.53777790  102.94100189    0.28000000    0.07000000
   14.54083347   99.95749664    0.28000000    0.07000000
   14.54416752  105.74600220    0.28000000    0.07000000
   14.54750061   94.73259735    0.28000000    0.07000000
   14.55055618  103.58499908    0.28000000    0.07000000
   14.55388927  102.31300354    0.28000000    0.07000000
   14.55694485  104.97299957    0.28000000    0.07000000
   14.56027794  105.45999908    0.28000000    0.07000000
   14.56472206  105.45999908    0.28000000    0.07000000
   14.56888866   97.57260132    0.28000000    0.07000000
   14.57166672  102.62500000    0.28000000    0.07000000
   14.57250023  104.37400055    0.28000000    0.07000000
   14.57583332   99.70760345    0.28000000    0.07000000
   14.57888889  109.39099884    0.28000000    0.07000000
   14.58222198  110.31500244    0.28000000    0.07000000
   14.58555508   89.29309845    0.28000000    0.07000000
   14.58861065   98.97530365    0.28000000    0.07000000
   14.59194374   99.20269775    0.28000000    0.07000000
   14.59527779  107.09300232    0.28000000    0.07000000
   14.59833336   97.81279755    0.28000000    0.07000000
   14.60166740  101.31099701    0.28000000    0.07000000
   14.60472298   90.46970367    0.28000000    0.07000000
   14.60805607  107.88999939    0.28000000    0.07000000
   14.61138916  101.99800110    0.28000000    0.07000000
   14.61611176  101.99800110    0.28000000    0.07000000
   14.62027836   93.17680359    0.28000000    0.07000000
   14.62166691   98.60910034    0.28000000    0.07000000
   14.62361145  103.71800232    0.28000000    0.07000000
   14.62694454   98.86029816    0.28000000    0.07000000
   14.63000011  100.87300110    0.28000000    0.07000000
   14.63333321  101.97599792    0.28000000    0.07000000
   14.63666630  107.02100372    0.28000000    0.07000000
   14.63972187   92.41410065    0.28000000    0.07000000
   14.64305496  100.62599945    0.28000000    0.07000000
   14.64638901  100.33200073    0.28000000    0.07000000
   14.64944458   97.17720032    0.28000000    0.07000000
   14.65277767   96.17880249    0.28000000    0.07000000
   14.65611076  101.11000061    0.28000000    0.07000000
   14.65916634   98.61969757    0.28000000    0.07000000
   14.66249943  101.59300232    0.28000000    0.07000000
   14.66722298  101.59300232    0.28000000    0.07000000
   14.67138958   99.45410156    0.28000000    0.07000000
   14.67194462  100.67600250    0.28000000    0.07000000
   14.67500019  100.46600342    0.28000000    0.07000000
   14.67833328   95.04280090    0.28000000    0.07000000
   14.68166733   95.16079712    0.28000000    0.07000000
   14.68472195   98.74700165    0.28000000    0.07000000
   14.68805599   83.51300049    0.28000000    0.07000000
   14.69111156   99.38580322    0.28000000    0.07000000
   14.69444466   94.09359741    0.28000000    0.07000000
   14.69777775   97.82019806    0.28000000    0.07000000
   14.70083332   85.32540131    0.28000000    0.07000000
   14.70416641  100.36299896    0.28000000    0.07000000
   14.70749950   89.77619934    0.28000000    0.07000000
   14.71055508   96.26640320    0.28000000    0.07000000
   14.71388912   98.69750214    0.28000000    0.07000000
   14.71833324   98.69750214    0.28000000    0.07000000
   14.72249985   76.59510040    0.28000000    0.07000000
   14.72583294  104.24600220    0.28000000    0.07000000
   14.72888851   96.86289978    0.28000000    0.07000000
   14.73222160   96.33319855    0.28000000    0.07000000
   14.73527813  102.73899841    0.28000000    0.07000000
   14.73861122  100.14499664    0.28000000    0.07000000
   14.74194431  105.45400238    0.28000000    0.07000000
   14.74499989  102.09899902    0.28000000    0.07000000
   14.74833393  103.91100311    0.28000000    0.07000000
   14.75166702  108.18900299    0.28000000    0.07000000
   14.75472260   97.70610046    0.28000000    0.07000000
   14.75805569  106.99600220    0.28000000    0.07000000
   14.76111126   99.26100159    0.28000000    0.07000000
   14.76444435  102.01499939    0.28000000    0.07000000
   14.76944447  102.01499939    0.28000000    0.07000000
   14.77361107  100.07599640    0.28000000    0.07000000
   14.77694416  107.71399689    0.28000000    0.07000000
   14.77999973  104.94200134    0.28000000    0.07000000
   14.78333378  102.66899872    0.28000000    0.07000000
   14.78666687  103.13500214    0.28000000    0.07000000
   14.78972244  104.35099792    0.28000000    0.07000000
   14.79305553  102.49400330    0.28000000    0.07000000
   14.79638958  107.79900360    0.28000000    0.07000000
   14.79944515   94.87090302    0.28000000    0.07000000
   14.80277824   93.98590088    0.28000000    0.07000000
   14.80583382  101.83899689    0.28000000    0.07000000
   14.80916691   95.06780243    0.28000000    0.07000000
   14.81250000  103.64800262    0.28000000    0.07000000
   14.81555557   98.27059937    0.28000000    0.07000000
   14.82083321   98.27059937    0.28000000    0.07000000
   14.82472229   99.79299927    0.28000000    0.07000000
   14.82805538  105.67900085    0.28000000    0.07000000
   14.83138847  105.72799683    0.28000000    0.07000000
   14.83444405  103.61799622    0.28000000    0.07000000
   14.83777714  103.52999878    0.28000000    0.07000000
   14.84111118   99.04329681    0.28000000    0.07000000
   14.84416676  103.05799866    0.28000000    0.07000000
   14.84749985  102.22000122    0.28000000    0.07000000
   14.85055637  103.33000183    0.28000000    0.07000000
   14.85388947  104.33899689    0.28000000    0.07000000
   14.85722256  105.90499878    0.28000000    0.07000000
   14.86027813  106.05200195    0.28000000    0.07000000
   14.86361122   91.25279999    0.28000000    0.07000000
   14.86694431  102.49600220    0.28000000    0.07000000
   14.87194443  102.49600220    0.28000000    0.07000000
   14.87611103  105.16899872    0.28000000    0.07000000
   14.87916660   98.25920105    0.28000000    0.07000000
   14.88249969   98.64550018    0.28000000    0.07000000
   14.88583279   98.82740021    0.28000000    0.07000000
   14.88888836   98.74610138    0.28000000    0.07000000
   14.89222240  101.30400085    0.28000000    0.07000000
   14.89555550   89.68440247    0.28000000    0.07000000
   14.89861107   87.50430298    0.28000000    0.07000000
   14.90194416   97.14379883    0.28000000    0.07000000
   14.90499973   94.78109741    0.28000000    0.07000000
   14.90833282  105.05000305    0.28000000    0.07000000
   14.91166592  104.50199890    0.28000000    0.07000000
   14.91472149  104.06700134    0.28000000    0.07000000
   14.91805553   96.82710266    0.28000000    0.07000000
   14.92305565   96.82710266    0.28000000    0.07000000
   14.92722225  103.51599884    0.28000000    0.07000000
   14.93055630  100.43000031    0.28000000    0.07000000
   14.93361092  108.36799622    0.28000000    0.07000000
   14.93694496   84.87110138    0.28000000    0.07000000
   14.94027805   98.74710083    0.28000000    0.07000000
   14.94333363   99.43329620    0.28000000    0.07000000
   14.94666672  100.64800262    0.28000000    0.07000000
   14.94999981  102.18099976    0.28000000    0.07000000
   14.95305538  102.57099915    0.28000000    0.07000000
   14.95638847   98.62480164    0.28000000    0.07000000
   14.95944405  100.65100098    0.28000000    0.07000000
   14.96277714   96.29029846    0.28000000    0.07000000
   14.96611118  104.22499847    0.28000000    0.07000000
   14.96916580  103.57900238    0.28000000    0.07000000
   14.97416592  103.57900238    0.28000000    0.07000000
   14.97833252  107.31300354    0.28000000    0.07000000
   14.98166656  104.96399689    0.28000000    0.07000000
   14.98472214   81.80159760    0.28000000    0.07000000
   14.98805618   98.72470093    0.28000000    0.07000000
   14.99138927   99.64669800    0.28000000    0.07000000
   14.99444485  103.16799927    0.28000000    0.07000000
   14.99777794  107.80200195    0.28000000    0.07000000
   15.00111103  107.66200256    0.28000000    0.07000000
   15.00416660  106.33300018    0.28000000    0.07000000
   15.00749969  102.35099792    0.28000000    0.07000000
   15.01055527  105.38500214    0.28000000    0.07000000
   15.01388931  104.18000031    0.28000000    0.07000000
   15.01722240  105.82399750    0.28000000    0.07000000
   15.02027798   86.03649902    0.28000000    0.07000000
   15.02555561   86.03649902    0.28000000    0.07000000
   15.02944374  100.93900299    0.28000000    0.07000000
   15.03277779  109.88300323    0.28000000    0.07000000
   15.03611183   94.00620270    0.28000000    0.07000000
   15.05555534  103.38099670    0.28000000    0.07000000
   15.05888939  102.68099976    0.28000000    0.07000000
   15.06194496  105.76999664    0.28000000    0.07000000
   15.06527805  108.35099792    0.28000000    0.07000000
   15.06861115   90.93060303    0.28000000    0.07000000
   15.07166672  104.18599701    0.28000000    0.07000000
   15.07666683  104.18599701    0.28000000    0.07000000
   15.08083344   98.97789764    0.28000000    0.07000000
   15.08416653  105.18599701    0.28000000    0.07000000
   15.08722210  103.83599854    0.28000000    0.07000000
   15.09055519   97.16190338    0.28000000    0.07000000
   15.09388828  106.71499634    0.28000000    0.07000000
   15.09694386  107.87100220    0.28000000    0.07000000
   15.10027790  105.18199921    0.28000000    0.07000000
   15.10333347  102.03700256    0.28000000    0.07000000
   15.10666752  104.71299744    0.28000000    0.07000000
   15.11000061  109.31400299    0.28000000    0.07000000
   15.11305618  102.45800018    0.28000000    0.07000000
   15.11638927  103.19100189    0.28000000    0.07000000
   15.11972237  103.45300293    0.28000000    0.07000000
   15.12277794  102.87100220    0.28000000    0.07000000
   15.12777805  102.87100220    0.28000000    0.07000000
   15.13194466  102.78500366    0.28000000    0.07000000
   15.13527775  104.45400238    0.28000000    0.07000000
   15.13861084   99.88939667    0.28000000    0.07000000
   15.14166641  111.60700226    0.28000000    0.07000000
   15.14499950   90.81919861    0.28000000    0.07000000
   15.14805508  107.81300354    0.28000000    0.07000000
   15.15138817  105.52899933    0.28000000    0.07000000
   15.15472221  101.14700317    0.28000000    0.07000000
   15.15777779  100.37500000    0.28000000    0.07000000
   15.16111088  101.87500000    0.28000000    0.07000000
   15.16444397  102.73899841    0.28000000    0.07000000
   15.16750050  100.22100067    0.28000000    0.07000000
   15.17083359  105.28399658    0.28000000    0.07000000
   15.17388916   98.40419769    0.28000000    0.07000000
   15.17916679   98.40419769    0.28000000    0.07000000
   15.18305588  104.29699707    0.28000000    0.07000000
   15.18638897  103.69599915    0.28000000    0.07000000
   15.18972206  103.19599915    0.28000000    0.07000000
   15.19277763  104.37300110    0.28000000    0.07000000
   15.19611073  104.12999725    0.28000000    0.07000000
   15.19944477  100.47599792    0.28000000    0.07000000
   15.20249939  106.37000275    0.28000000    0.07000000
   15.20583344  103.03600311    0.28000000    0.07000000
   15.20888901  105.32099915    0.28000000    0.07000000
   15.21222210   98.70149994    0.28000000    0.07000000
   15.21555519  103.09500122    0.28000000    0.07000000
   15.21861076  105.61399841    0.28000000    0.07000000
   15.22194386  103.58300018    0.28000000    0.07000000
   15.22527695  105.02600098    0.28000000    0.07000000
   15.23027706  105.02600098    0.28000000    0.07000000
   15.23444462  103.58699799    0.28000000    0.07000000
   15.23750019  104.35900116    0.28000000    0.07000000
   15.24083328  103.66500092    0.28000000    0.07000000
   15.24416733  103.30100250    0.28000000    0.07000000
   15.24750042  102.28199768    0.28000000    0.07000000
   15.25055599  102.40599823    0.28000000    0.07000000
   15.25388908  101.35800171    0.28000000    0.07000000
   15.25694466  105.55899811    0.28000000    0.07000000
   15.26027775  100.84600067    0.28000000    0.07000000
   15.26361084  102.30999756    0.28000000    0.07000000
   15.26666641  101.78600311    0.28000000    0.07000000
   15.26999950  101.68199921    0.28000000    0.07000000
   15.27333355  108.83699799    0.28000000    0.07000000
   15.27638817  109.09500122    0.28000000    0.07000000
   15.28138828  109.09500122    0.28000000    0.07000000
   15.28555584  102.65599823    0.28000000    0.07000000
   15.28888893  103.33899689    0.28000000    0.07000000
   15.29194450  102.53099823    0.28000000    0.07000000
   15.29527855  104.95899963    0.28000000    0.07000000
   15.29833412  103.59999847    0.28000000    0.07000000
   15.30166721  103.90299988    0.28000000    0.07000000
   15.30555534  100.80200195    0.28000000    0.07000000
   15.30888939  102.46399689    0.28000000    0.07000000
   15.31194496  102.93399811    0.28000000    0.07000000
   15.31527805  101.80500031    0.28000000    0.07000000
   15.31861115  103.23200226    0.28000000    0.07000000
   15.32166672  104.16899872    0.28000000    0.07000000
   15.32499981  104.23000336    0.28000000    0.07000000
   15.32805538   87.09519958    0.28000000    0.07000000
   15.33249950   87.09519958    0.28000000    0.07000000
   15.33666611  101.93699646    0.28000000    0.07000000
   15.34000015  101.69200134    0.28000000    0.07000000
   15.44583321   -1.00000000   -1.00000000   -1.00000000
   15.54138947   -1.00000000   -1.00000000   -1.00000000
   15.64999962   -1.00000000   -1.00000000   -1.00000000
   15.71333313  184.53300476    0.28000000    0.07000000
   15.71638870   -1.00000000    0.28000000    0.07000000
   15.71972179   -1.00000000    0.28000000    0.07000000
   15.72277737   94.67900085    0.28000000    0.07000000
   15.72611046   -1.00000000    0.28000000    0.07000000
   15.72944355   -1.00000000    0.28000000    0.07000000
   15.73249912   -1.00000000    0.28000000    0.07000000
   15.73583317   -1.00000000    0.28000000    0.07000000
   15.74166679   -1.00000000    0.28000000    0.07000000
   15.74583340  117.15699768    0.28000000    0.07000000
   15.74916649  251.21400452    0.28000000    0.07000000
   15.75222206   -1.00000000    0.28000000    0.07000000
   15.75555515  137.66099548    0.28000000    0.07000000
   15.75888920   91.67040253    0.28000000    0.07000000
   15.76194477  114.35700226    0.28000000    0.07000000
   15.76305580  107.33100128    0.28000000    0.07000000
   15.76555538  106.61799622    0.28000000    0.07000000
   15.76861095  112.26399994    0.28000000    0.07000000
   15.77194405  109.34899902    0.28000000    0.07000000
   15.77527714  112.40799713    0.28000000    0.07000000
   15.77833271   95.99819946    0.28000000    0.07000000
   15.78166676  110.30699921    0.28000000    0.07000000
   15.78500080  109.11100006    0.28000000    0.07000000
   15.78805637  110.11199951    0.28000000    0.07000000
   15.79305553  110.11199951    0.28000000    0.07000000
   15.79694462  122.19599915    0.28000000    0.07000000
   15.80027771  184.91900635    0.28000000    0.07000000
   15.80361176   51.90800095    0.28000000    0.07000000
   15.80666733   -1.00000000    0.28000000    0.07000000
   15.81000042   -1.00000000    0.28000000    0.07000000
   15.81361103   -1.00000000    0.28000000    0.07000000
   15.81666660   -1.00000000    0.28000000    0.07000000
   15.81999969   -1.00000000    0.28000000    0.07000000
   15.82305527   -1.00000000    0.28000000    0.07000000
   15.82638836   -1.00000000    0.28000000    0.07000000
   15.82972240   -1.00000000    0.28000000    0.07000000
   15.83277798   -1.00000000    0.28000000    0.07000000
   15.83611107   -1.00000000    0.28000000    0.07000000
   15.83944416   -1.00000000    0.28000000    0.07000000
   15.84805489   -1.00000000    0.28000000    0.07000000
   15.85138893   -1.00000000    0.28000000    0.07000000
   15.85472298   -1.00000000    0.28000000    0.07000000
   15.85777855   -1.00000000    0.28000000    0.07000000
   15.86111164   -1.00000000    0.28000000    0.07000000
   15.86472225   -1.00000000    0.28000000    0.07000000
   15.86777782   -1.00000000    0.28000000    0.07000000
   15.87111092   -1.00000000    0.28000000    0.07000000
   15.87416649   -1.00000000    0.28000000    0.07000000
   15.87750053   -1.00000000    0.28000000    0.07000000
   15.88083363   -1.00000000    0.28000000    0.07000000
