    HOUR (UT)   FLARE FACTOR    SKY TESTER    SUN TESTER
   13.02083302   -1.00000000   -1.00000000   -1.00000000
   13.05888939  102.15899658    4.90999985    2.32999992
   13.06194496  106.74600220    4.90999985    2.30999994
   13.06527805  105.65599823    4.90999985    2.26999998
   13.06833363  112.69000244    4.90999985    2.28999996
   13.07166672  111.42099762    4.90999985    2.30999994
   13.07499981  100.31700134    4.90999985    2.26999998
   13.07805538  109.94699860    4.90999985    2.26999998
   13.08138847  107.34500122    4.90999985    2.26999998
   13.08722210  107.34500122    4.90999985    2.26999998
   13.09138870   98.54820251    4.90999985    2.26999998
   13.09472179  111.36000061    4.90999985    2.25000000
   13.09833336  103.95300293    4.90999985    2.28999996
   13.10138893  102.80100250    4.90999985    2.26999998
   13.10472298  105.70400238    4.90999985    2.25000000
   13.10777855  118.24500275    4.90999985    2.23000002
   13.10861111  120.82700348    4.90999985    2.23000002
   13.11138916  107.94699860    4.90999985    2.23000002
   13.11472225  127.38099670    4.90999985    2.25000000
   13.11777782  108.74299622    4.90999985    2.26999998
   13.12111092  101.33499908    4.90999985    2.25000000
   13.12444496  116.68499756    4.90999985    2.23000002
   13.12750053  125.45400238    4.90999985    2.23000002
   13.13083363  119.55200195    4.90999985    2.23000002
   13.13388920  102.26699829    4.90999985    2.23000002
   13.13861084  102.26699829    4.90999985    2.23000002
   13.14277744  117.02999878    4.90999985    2.19000006
   13.14583302  108.48000336    4.90999985    2.19000006
   13.14916611  126.17199707    4.90999985    2.17000008
   13.15222168  116.45700073    4.90999985    2.15000010
   13.15555477  124.17299652    4.90999985    2.15000010
   13.15861034  145.61500549    4.90999985    2.11999989
   13.15916634  133.80900574    4.90999985    2.11999989
   13.16249943  140.47099304    4.90999985    2.09999990
   13.16555500  128.08200073    4.90999985    2.09999990
   13.16888905  137.37800598    4.90999985    2.11999989
   13.17194462  135.26300049    4.90999985    2.09999990
   13.17527771  160.33900452    4.90999985    2.07999992
   13.17861176  136.15499878    4.90999985    2.05999994
   13.18166733  130.09199524    4.90999985    2.05999994
   13.18500042  157.61199951    4.90999985    2.05999994
   13.18972206  157.61199951    4.90999985    2.07999992
   13.19388866  145.28700256    4.90999985    2.09999990
   13.19694424  172.80799866    4.90999985    2.09999990
   13.20027733  144.13400269    4.90999985    2.09999990
   13.20361137  135.52900696    4.90999985    2.11999989
   13.20666695  147.61399841    4.90999985    2.11999989
   13.20861053  143.76499939    4.90999985    2.11999989
   13.21027756  135.49899292    4.90999985    2.11999989
   13.21361065  116.99299622    4.90999985    2.11999989
   13.21666622  134.56199646    4.90999985    2.11999989
   13.21999931  134.31900024    4.90999985    2.09999990
   13.22305489  142.57899475    4.90999985    2.09999990
   13.22638798  156.03199768    4.90999985    2.09999990
   13.22972202  185.34599304    4.90999985    2.07999992
   13.23277760  140.96899414    4.90999985    2.07999992
   13.23611164  164.96600342    4.90999985    2.07999992
   13.24083328  164.96600342    4.90999985    2.05999994
   13.24499989  156.36900330    4.90999985    2.05999994
   13.24833393  150.47900391    4.90999985    2.07999992
   13.25138855  136.70799255    4.90999985    2.07999992
   13.25472260  166.73699951    4.90999985    2.03999996
   13.25777817  137.51199341    4.90999985    2.05999994
   13.25888920  167.40800476    4.90999985    2.03999996
   13.26138878  123.53299713    4.90999985    2.05999994
   13.26472187  138.42199707    4.90999985    2.07999992
   13.26777744  127.53299713    4.90999985    2.05999994
   13.27111053  150.86700439    4.90999985    2.05999994
   13.27444458  146.34399414    4.90999985    2.07999992
   13.27750015  139.01199341    4.90999985    2.07999992
   13.28083324  158.75599670    4.90999985    2.07999992
   13.28388977  142.69400024    4.90999985    2.07999992
   13.28722286  128.05299377    4.90999985    2.09999990
   13.29194450  128.05299377    4.90999985    2.09999990
   13.29611111  128.32000732    4.90999985    2.11999989
   13.29944515  133.63400269    4.90999985    2.09999990
   13.30249977  167.44700623    4.90999985    2.09999990
   13.30583382  199.75999451    4.90999985    2.05999994
   13.30888939  142.96499634    4.90999985    2.05999994
   13.30944443  165.75300598    4.90999985    2.05999994
   13.31277752  137.78900146    4.90999985    2.07999992
   13.31583309  144.34100342    4.90999985    2.05999994
   13.31916618  176.55700684    4.90999985    2.03999996
   13.32250023  168.82299805    4.90999985    2.05999994
   13.32555580  243.40499878    4.90999985    2.03999996
   13.32888889  161.92599487    4.90999985    1.98000002
   13.33194447  165.37399292    4.90999985    2.00000000
   13.33527756  272.63299561    4.90999985    1.98000002
   13.33861065  191.44700623    4.90999985    2.00000000
   13.34333324  191.44700623    4.90999985    2.00000000
   13.34722233  194.91000366    4.90999985    1.96000004
   13.35055637  217.68600464    4.90999985    1.94000006
   13.35388947  196.11399841    4.90999985    1.94000006
   13.35694504  214.17199707    4.90999985    1.89999998
   13.35888958  169.82600403    4.90999985    1.89999998
   13.36055565  143.62100220    4.90999985    1.88000000
   13.36388969  145.61300659    4.90999985    1.88000000
   13.36694431  181.01400757    4.90999985    1.89999998
   13.37027836  191.27900696    4.90999985    1.89999998
   13.37361145  187.26100159    4.90999985    1.91999996
   13.37666702  191.58500671    4.90999985    1.91999996
   13.38000011  221.34899902    4.90999985    1.89999998
   13.38305569  224.31900024    4.90999985    1.89999998
   13.38638878  215.57800293    4.90999985    1.89999998
   13.38944435  168.10800171    4.90999985    1.89999998
   13.39444447  168.10800171    4.90999985    1.86000001
   13.39861107  170.57099915    4.90999985    1.88000000
   13.40166664  138.21800232    4.90999985    1.89999998
   13.40499973   46.43040085    4.90999985    1.85000002
   13.40805531   -1.00000000    4.90999985    1.85000002
   13.40888882   -1.00000000   -1.00000000   -1.00000000
   13.41166592   -1.00000000   -1.00000000   -1.00000000
   13.41499996   -1.00000000   -1.00000000   -1.00000000
   13.41833401   23.57019997    4.90999985    1.85000002
   13.42138958   -1.00000000   -1.00000000   -1.00000000
   13.42472267   -1.00000000   -1.00000000   -1.00000000
   13.42777824   -1.00000000    4.90999985    1.83000004
   13.43111134   -1.00000000    4.90999985    1.83000004
   13.43416691   -1.00000000    4.90999985    1.76999998
   13.43750000   -1.00000000    4.90999985    1.78999996
   13.44083309   -1.00000000    4.90999985    1.83000004
   13.44555569   -1.00000000    4.90999985    1.80999994
   13.44972229   -1.00000000    4.90999985    1.78999996
   13.45305538   -1.00000000    4.90999985    1.76999998
   13.45611095   -1.00000000    4.90999985    1.80999994
   13.45972157   -1.00000000    4.90999985    1.78999996
   13.46305561   -1.00000000    4.90999985    1.76999998
   13.46611118   -1.00000000    4.90999985    1.76999998
   13.46944427   -1.00000000    4.90999985    1.80999994
   13.47249985   -1.00000000    4.90999985    1.78999996
   13.47583294   -1.00000000    4.90999985    1.78999996
   13.47888851   -1.00000000    4.90999985    1.78999996
   13.48222160   -1.00000000    4.90999985    1.80999994
   13.48555565   -1.00000000    4.90999985    1.83000004
   13.48861122   -1.00000000    4.90999985    1.80999994
   13.49194431   -1.00000000    4.90999985    1.83000004
   13.49666691   -1.00000000    4.90999985    1.83000004
   13.50083351   -1.00000000   -1.00000000   -1.00000000
   13.50416660   -1.00000000    4.90999985    1.83000004
   13.50722218   -1.00000000    4.90999985    1.80999994
   13.51083374   -1.00000000    4.90999985    1.76999998
   13.51416683   -1.00000000    4.90999985    1.76999998
   13.51722240   -1.00000000    4.90999985    1.78999996
   13.52055550   -1.00000000    4.90999985    1.76999998
   13.52361107   -1.00000000    4.90999985    1.78999996
   13.52694416   -1.00000000    4.90999985    1.76999998
   13.53027725   -1.00000000   -1.00000000   -1.00000000
   13.53333378   66.60019684    4.90999985    1.85000002
   13.53666687  139.48199463    4.90999985    1.86000001
   13.53972244  173.10600281    4.90999985    1.88000000
   13.54305553  199.94599915    4.90999985    1.89999998
   13.54805565  199.94599915    4.90999985    1.91999996
   13.55194473  138.02000427    4.90999985    1.88000000
   13.55527782   65.98780060    4.90999985    1.89999998
   13.55861092   23.57019997    4.90999985    1.86000001
   13.55916691   49.60380173    4.90999985    1.86000001
   13.56194496   56.94160080    4.90999985    1.88000000
   13.56527805   23.57019997    4.90999985    1.86000001
   13.56861115   -1.00000000   -1.00000000   -1.00000000
   13.57166672   -1.00000000    4.90999985    1.80999994
   13.57499981   -1.00000000    4.90999985    1.83000004
   13.57805538   -1.00000000    4.90999985    1.83000004
   13.58138847   -1.00000000    4.90999985    1.78999996
   13.58444405   -1.00000000   -1.00000000   -1.00000000
   13.58777714   23.57019997    4.90999985    1.86000001
   13.59111118   -1.00000000    4.90999985    1.85000002
   13.59416676   -1.00000000    4.90999985    1.85000002
   13.59916592   -1.00000000    4.90999985    1.83000004
   13.60333347   -1.00000000    4.90999985    1.80999994
   13.60638905   -1.00000000    4.90999985    1.83000004
   13.61000061   23.57019997    4.90999985    1.86000001
   13.61333370   -1.00000000   -1.00000000   -1.00000000
   13.61638927   -1.00000000    4.90999985    1.85000002
   13.61972237   -1.00000000    4.90999985    1.86000001
   13.62277794   -1.00000000    4.90999985    1.83000004
   13.62611103   -1.00000000    4.90999985    1.83000004
   13.62944412   -1.00000000    4.90999985    1.80999994
   13.63249969   -1.00000000    4.90999985    1.73000002
   13.63583279   -1.00000000   -1.00000000   -1.00000000
   13.63888836   -1.00000000   -1.00000000   -1.00000000
   13.64222240  174.95300293    4.90999985    1.91999996
   13.64527798  110.04199982    4.90999985    1.89999998
   13.65027714  110.04199982    4.90999985    1.88000000
   13.65444374   80.50070190    4.90999985    1.91999996
   13.65777779   38.48849869    4.90999985    1.88000000
   13.65916634   23.57019997    4.90999985    1.86000001
   13.66111088   -1.00000000    4.90999985    1.85000002
   13.66444397  257.59201050    4.90999985    1.88000000
   13.66777802   77.66570282    4.90999985    1.89999998
   13.67083359   44.18420029    4.90999985    1.86000001
   13.67416668  135.46200562    4.90999985    1.85000002
   13.67722225  201.87800598    4.90999985    1.91999996
   13.68055630  207.23300171    4.90999985    1.91999996
   13.68388939  208.17599487    4.90999985    1.94000006
   13.68694496  165.90100098    4.90999985    1.96000004
   13.69027805  196.82400513    4.90999985    1.91999996
   13.69333363  256.73699951    4.90999985    1.91999996
   13.69666672  204.20199585    4.90999985    1.91999996
   13.70138836  204.20199585    4.90999985    1.88000000
   13.70555496  108.80300140    4.90999985    1.89999998
   13.70888901   69.64409637    4.90999985    1.86000001
   13.70944405   30.69260025    4.90999985    1.86000001
   13.71249962   -1.00000000   -1.00000000   -1.00000000
   13.71583271   46.35860062    4.90999985    1.85000002
   13.71916580   80.36350250    4.90999985    1.85000002
   13.72222137   97.47119904    4.90999985    1.85000002
   13.72555542   38.22760010    4.90999985    1.86000001
   13.72861099   58.93320084    4.90999985    1.86000001
   13.73194408   -1.00000000    4.90999985    1.85000002
   13.73527813   -1.00000000    4.90999985    1.83000004
   13.73833370   -1.00000000   -1.00000000   -1.00000000
   13.74166679   47.82749939    4.90999985    1.86000001
   13.74472237   40.96929932    4.90999985    1.85000002
   13.74805546   35.32030106    4.90999985    1.85000002
   13.75277805   35.32030106    4.90999985    1.86000001
   13.75694466   -1.00000000   -1.00000000   -1.00000000
   13.75944424   -1.00000000   -1.00000000   -1.00000000
   13.76027775   -1.00000000    4.90999985    1.86000001
   13.76361084   -1.00000000    4.90999985    1.85000002
   13.76694393   -1.00000000    4.90999985    1.85000002
   13.76999950   -1.00000000    4.90999985    1.85000002
   13.77333355   -1.00000000    4.90999985    1.85000002
   13.77638817   -1.00000000    4.90999985    1.85000002
   13.77972221   -1.00000000    4.90999985    1.83000004
   13.78277779   23.57019997    4.90999985    1.85000002
   13.78611183   -1.00000000    4.90999985    1.85000002
   13.78944492   34.37139893    4.90999985    1.86000001
   13.79250050   51.78049850    4.90999985    1.86000001
   13.79583359   37.61840057    4.90999985    1.88000000
   13.79888916   46.75619888    4.90999985    1.91999996
   13.80388927   46.75619888    4.90999985    1.88000000
   13.80805588  189.89100647    4.90999985    1.91999996
   13.80944443   72.03970337    4.90999985    1.94000006
   13.81138897   49.75170135    4.90999985    1.89999998
   13.81472206  200.05499268    4.90999985    1.86000001
   13.81805515   -1.00000000   -1.00000000   -1.00000000
   13.82111073   49.91099930    4.90999985    1.88000000
   13.82444477   46.33129883    4.90999985    1.91999996
   13.82750034   47.55899811    4.90999985    1.88000000
   13.83083344   23.57019997    4.90999985    1.89999998
   13.83416653   50.98139954    4.90999985    1.91999996
   13.83722210  169.00300598    4.90999985    1.91999996
   13.84055519  272.37200928    4.90999985    1.94000006
   13.84361076  133.33500671    4.90999985    1.96000004
   13.84694386  116.46700287    4.90999985    1.88000000
   13.85027790   -1.00000000   -1.00000000   -1.00000000
   13.85500050   -1.00000000   -1.00000000   -1.00000000
   13.85916710   -1.00000000    4.90999985    1.83000004
   13.86277771   -1.00000000    4.90999985    1.83000004
   13.86611176   -1.00000000    4.90999985    1.83000004
   13.86916637   -1.00000000    4.90999985    1.80999994
   13.87250042   -1.00000000    4.90999985    1.80999994
   13.87583351   -1.00000000    4.90999985    1.78999996
   13.87888908   -1.00000000    4.90999985    1.75000000
   13.88222218   -1.00000000    4.90999985    1.75000000
   13.88527775   -1.00000000    4.90999985    1.75000000
   13.88861084   -1.00000000    4.90999985    1.75000000
   13.89166641   -1.00000000    4.90999985    1.75000000
   13.89499950   -1.00000000    4.90999985    1.75000000
   13.89833355   -1.00000000    4.90999985    1.73000002
   13.90138817   -1.00000000    4.90999985    1.73000002
   13.90611076   -1.00000000    4.90999985    1.71000004
   13.91027737   -1.00000000    4.90999985    1.75000000
   13.91361046   -1.00000000    4.90999985    1.73000002
   13.91666698   -1.00000000    4.90999985    1.76999998
   13.92000008   -1.00000000    4.90999985    1.76999998
   13.92333412   -1.00000000    4.90999985    1.73000002
   13.92638874   -1.00000000    4.90999985    1.76999998
   13.92972279   -1.00000000    4.90999985    1.73000002
   13.93277836   -1.00000000    4.90999985    1.75000000
   13.93611145   -1.00000000    4.90999985    1.76999998
   13.93916702   -1.00000000    4.90999985    1.80999994
   13.94250011   -1.00000000    4.90999985    1.75000000
   13.94555569   -1.00000000    4.90999985    1.73000002
   13.94888878   -1.00000000    4.90999985    1.69000006
   13.95222187   -1.00000000    4.90999985    1.71000004
   13.95749950   -1.00000000    4.90999985    1.76999998
   13.96166611   -1.00000000    4.90999985    1.69000006
   13.96472168   -1.00000000    4.90999985    1.76999998
   13.96805477   -1.00000000    4.90999985    1.76999998
   13.97111034   35.58300018    4.90999985    1.75000000
   13.97444439   -1.00000000    4.90999985    1.91999996
   13.97749996   -1.00000000    4.90999985    1.76999998
   13.98083305   -1.00000000    4.90999985    1.76999998
   13.98388958   -1.00000000    4.90999985    1.66999996
   13.98722267   -1.00000000    4.90999985    1.69000006
   13.99055576   -1.00000000    4.90999985    1.63000000
   13.99361134   -1.00000000    4.90999985    1.58000004
   13.99694443   -1.00000000    4.90999985    1.76999998
   14.00000000   -1.00000000    4.90999985    1.73000002
   14.00333309   -1.00000000    4.90999985    1.69000006
   14.00861073   -1.00000000    4.90999985    1.60000002
   14.01277733   -1.00000000    4.90999985    1.61000001
   14.01583290   -1.00000000    4.90999985    1.60000002
   14.01916599   -1.00000000    4.90999985    1.51999998
   14.02222157   -1.00000000    4.90999985    1.50000000
   14.02555561   -1.00000000    4.90999985    1.58000004
   14.02888870   -1.00000000    4.90999985    1.51999998
   14.03194427   -1.00000000    4.90999985    1.50000000
   14.03527832   -1.00000000    4.90999985    1.50000000
   14.03833389   -1.00000000    4.90999985    1.44000006
   14.04166698   -1.00000000    4.90999985    1.44000006
   14.04472256   -1.00000000    4.90999985    1.44000006
   14.04805565   -1.00000000    4.90999985    1.39999998
   14.05138874   -1.00000000    4.90999985    1.41999996
   14.05444431   -1.00000000    4.90999985    1.41999996
   14.07638836   -1.00000000    4.90999985    1.50000000
   14.07972240   -1.00000000    4.90999985    1.48000002
   14.08305550   -1.00000000    4.90999985    1.44000006
   14.08611107   -1.00000000    4.90999985    1.44000006
   14.08944416   -1.00000000    4.90999985    1.41999996
   14.09249973   -1.00000000    4.90999985    1.44000006
   14.09583282   -1.00000000    4.90999985    1.44000006
   14.09888840   -1.00000000    4.90999985    1.44000006
   14.10222244   -1.00000000    4.90999985    1.39999998
   14.10555553   -1.00000000    4.90999985    1.41999996
   14.11500072   -1.00000000    4.90999985    1.44000006
   14.11833382   -1.00000000    4.90999985    1.48000002
   14.12138939   -1.00000000    4.90999985    1.50000000
   14.12472248   -1.00000000    4.90999985    1.48000002
   14.12833309   -1.00000000    4.90999985    1.48000002
   14.13138866   -1.00000000    4.90999985    1.50000000
   14.13472176   -1.00000000    4.90999985    1.53999996
   14.13805580   -1.00000000    4.90999985    1.53999996
   14.14111137   -1.00000000    4.90999985    1.53999996
   14.14444447   -1.00000000    4.90999985    1.53999996
   14.14750004   -1.00000000    4.90999985    1.53999996
   14.15083313   -1.00000000    4.90999985    1.53999996
   14.15388870   -1.00000000    4.90999985    1.55999994
   14.15722179   -1.00000000    4.90999985    1.58000004
   14.16222191   -1.00000000    4.90999985    1.53999996
   14.16638851   -1.00000000    4.90999985    1.51999998
   14.16944504   -1.00000000    4.90999985    1.55999994
   14.17277813   -1.00000000    4.90999985    1.55999994
   14.17638874   -1.00000000    4.90999985    1.58000004
   14.17972279   -1.00000000    4.90999985    1.58000004
   14.18277836   -1.00000000    4.90999985    1.60000002
   14.18611145   -1.00000000    4.90999985    1.60000002
   14.18916702   -1.00000000    4.90999985    1.58000004
   14.19250011   -1.00000000    4.90999985    1.60000002
   14.19583321   -1.00000000    4.90999985    1.61000001
   14.19888878   -1.00000000    4.90999985    1.61000001
   14.20222187   -1.00000000    4.90999985    1.61000001
   14.20527744   -1.00000000    4.90999985    1.61000001
   14.20861053   -1.00000000    4.90999985    1.61000001
   14.21333313   -1.00000000    4.90999985    1.60000002
   14.21749973   -1.00000000    4.90999985    1.60000002
   14.22083282   -1.00000000    4.90999985    1.60000002
   14.22388840   -1.00000000    4.90999985    1.58000004
   14.22749996   -1.00000000    4.90999985    1.60000002
   14.23083305   -1.00000000    4.90999985    1.61000001
   14.23388958   -1.00000000    4.90999985    1.61000001
   14.23722267   -1.00000000    4.90999985    1.60000002
   14.24027824   -1.00000000    4.90999985    1.60000002
   14.24361134   -1.00000000    4.90999985    1.55999994
   14.24666691   -1.00000000    4.90999985    1.51999998
   14.25000000   -1.00000000    4.90999985    1.51999998
   14.25305557   -1.00000000    4.90999985    1.53999996
   14.25638866   -1.00000000    4.90999985    1.53999996
   14.25972176   -1.00000000    4.90999985    1.53999996
   14.26472187   -1.00000000    4.90999985    1.55999994
   14.26861095   -1.00000000    4.90999985    1.53999996
   14.27194405   -1.00000000    4.90999985    1.51999998
   14.27527714   -1.00000000    4.90999985    1.48000002
   14.27861118   -1.00000000    4.90999985    1.48000002
   14.28194427   -1.00000000    4.90999985    1.48000002
   14.28500080   -1.00000000    4.90999985    1.51999998
   14.28833389   -1.00000000    4.90999985    1.50000000
   14.29138947   -1.00000000    4.90999985    1.50000000
   14.29472256   -1.00000000    4.90999985    1.50000000
   14.29805565   -1.00000000    4.90999985    1.51999998
   14.30111122   -1.00000000    4.90999985    1.48000002
   14.30444431   -1.00000000    4.90999985    1.48000002
   14.30749989   -1.00000000    4.90999985    1.51999998
   14.31083393   -1.00000000    4.90999985    1.58000004
   14.31972218   -1.00000000    4.90999985    1.50000000
   14.32305527   -1.00000000    4.90999985    1.51999998
   14.32666683   -1.00000000    4.90999985    1.41999996
   14.32999992   -1.00000000    4.90999985    1.38000000
   14.33305550   -1.00000000    4.90999985    1.50000000
   14.33638859   -1.00000000    4.90999985    1.44000006
   14.33944416   -1.00000000    4.90999985    1.39999998
   14.34277725   -1.00000000    4.90999985    1.36000001
   14.34611034   -1.00000000    4.90999985    1.48000002
   14.34916592   -1.00000000    4.90999985    1.39999998
   14.35249996   -1.00000000    4.90999985    1.28999996
   14.35555553   -1.00000000    4.90999985    1.48000002
   14.35888958   -1.00000000    4.90999985    1.46000004
   14.36194515   -1.00000000    4.90999985    1.39999998
   14.36694431   -1.00000000    4.90999985    1.48000002
   14.37111092   -1.00000000    4.90999985    1.48000002
   14.37416649   -1.00000000    4.90999985    1.41999996
   14.37777805   -1.00000000    4.90999985    1.48000002
   14.38111115   -1.00000000    4.90999985    1.50000000
   14.38416672   -1.00000000    4.90999985    1.39999998
   14.38749981   -1.00000000    4.90999985    1.48000002
   14.39083290   -1.00000000    4.90999985    1.46000004
   14.39388847   -1.00000000    4.90999985    1.44000006
   14.39722252   -1.00000000    4.90999985    1.46000004
   14.40027714   -1.00000000    4.90999985    1.44000006
   14.40361118   -1.00000000    4.90999985    1.39999998
   14.40666676   -1.00000000    4.90999985    1.36000001
   14.40999985   -1.00000000    4.90999985    1.36000001
   14.41333294   -1.00000000    4.90999985    1.36000001
   14.42222214   -1.00000000    4.90999985    1.36000001
   14.42527771   -1.00000000    4.90999985    1.34000003
   14.42888927   -1.00000000    4.90999985    1.34000003
   14.43222237   -1.00000000    4.90999985    1.36000001
   14.43527794   -1.00000000    4.90999985    1.34000003
   14.43861103   -1.00000000    4.90999985    1.30999994
   14.44166660   -1.00000000    4.90999985    1.34000003
   14.44499969   -1.00000000    4.90999985    1.33000004
   14.44833374   -1.00000000    4.90999985    1.33000004
   14.45138836   -1.00000000    4.90999985    1.34000003
   14.45472240   -1.00000000    4.90999985    1.36000001
   14.45777798   -1.00000000    4.90999985    1.34000003
   14.46111107   -1.00000000    4.90999985    1.38000000
   14.46416664   -1.00000000    4.90999985    1.38000000
   14.46944427   -1.00000000    4.90999985    1.46000004
   14.47333336   -1.00000000    4.90999985    1.41999996
   14.47694397   -1.00000000    4.90999985    1.39999998
   14.48027706   -1.00000000    4.90999985    1.39999998
   14.48333359   -1.00000000    4.90999985    1.44000006
   14.48666668   -1.00000000    4.90999985    1.53999996
   14.49000072   -1.00000000    4.90999985    1.63000000
   14.49305534   -1.00000000    4.90999985    1.58000004
   14.49638939   -1.00000000    4.90999985    1.53999996
   14.49944496   -1.00000000    4.90999985    1.55999994
   14.50277805   -1.00000000    4.90999985    1.58000004
   14.50611115   -1.00000000    4.90999985    1.51999998
   14.50916672   -1.00000000    4.90999985    1.51999998
   14.51249981   -1.00000000    4.90999985    1.51999998
   14.51555538   -1.00000000    4.90999985    1.50000000
   14.52055550   -1.00000000    4.90999985    1.53999996
   14.52472210   -1.00000000    4.90999985    1.51999998
   14.52805519   -1.00000000    4.90999985    1.58000004
   14.53138828   -1.00000000    4.90999985    1.58000004
   14.53444481   -1.00000000    4.90999985    1.60000002
   14.53777790   -1.00000000    4.90999985    1.53999996
   14.54111195   -1.00000000    4.90999985    1.55999994
   14.54416752   -1.00000000    4.90999985    1.51999998
   14.54750061   -1.00000000    4.90999985    1.61000001
   14.55055618   -1.00000000    4.90999985    1.60000002
   14.55388927   -1.00000000    4.90999985    1.58000004
   14.55694485   -1.00000000    4.90999985    1.60000002
   14.56027794   -1.00000000    4.90999985    1.58000004
   14.56333351   -1.00000000    4.90999985    1.61000001
   14.56666660   -1.00000000    4.90999985    1.55999994
   14.57166672   -1.00000000    4.90999985    1.60000002
   14.57583332   -1.00000000    4.90999985    1.58000004
   14.57944393   -1.00000000    4.90999985    1.63000000
   14.58277798   -1.00000000    4.90999985    1.63000000
   14.58583260   -1.00000000    4.90999985    1.64999998
   14.58916664   -1.00000000    4.90999985    1.61000001
   14.59222221   -1.00000000    4.90999985    1.64999998
   14.59555531   -1.00000000    4.90999985    1.69000006
   14.59861088   -1.00000000    4.90999985    1.71000004
   14.60194492   -1.00000000    4.90999985    1.63000000
   14.60527802   -1.00000000    4.90999985    1.58000004
   14.60833359   -1.00000000    4.90999985    1.60000002
   14.61166668   -1.00000000    4.90999985    1.55999994
   14.61472225   -1.00000000    4.90999985    1.58000004
   14.61805534   -1.00000000    4.90999985    1.53999996
   14.62277794   -1.00000000    4.90999985    1.53999996
   14.62694454   -1.00000000    4.90999985    1.55999994
   14.63027763   -1.00000000    4.90999985    1.51999998
   14.63333321   -1.00000000    4.90999985    1.51999998
   14.63666630   -1.00000000    4.90999985    1.51999998
   14.64000034   -1.00000000    4.90999985    1.51999998
   14.64305496   -1.00000000    4.90999985    1.51999998
   14.64638901   -1.00000000    4.90999985    1.55999994
   14.64972210   -1.00000000    4.90999985    1.60000002
   14.65277767   -1.00000000    4.90999985    1.61000001
   14.65611076   -1.00000000    4.90999985    1.66999996
   14.65916634   -1.00000000    4.90999985    1.66999996
   14.66249943   -1.00000000    4.90999985    1.78999996
   14.66583252   -1.00000000    4.90999985    1.78999996
   14.66888905   -1.00000000    4.90999985    1.78999996
   14.67416668   -1.00000000    4.90999985    1.71000004
   14.67805576   -1.00000000    4.90999985    1.64999998
   14.68138885   -1.00000000    4.90999985    1.64999998
   14.68472195   -1.00000000    4.90999985    1.63000000
   14.68777752   -1.00000000    4.90999985    1.63000000
   14.69111156   -1.00000000    4.90999985    1.61000001
   14.69444466   -1.00000000    4.90999985    1.58000004
   14.69750023   -1.00000000    4.90999985    1.55999994
   14.70083332   -1.00000000    4.90999985    1.55999994
   14.70416641   -1.00000000    4.90999985    1.53999996
   14.70722198   -1.00000000    4.90999985    1.51999998
   14.71055508   -1.00000000    4.90999985    1.55999994
   14.71361065   -1.00000000    4.90999985    1.55999994
   14.71694374   -1.00000000    4.90999985    1.58000004
   14.72027779   -1.00000000    4.90999985    1.66999996
   14.72527695   -1.00000000    4.90999985    1.63000000
   14.72944355   -1.00000000    4.90999985    1.64999998
   14.73249912   -1.00000000    4.90999985    1.69000006
   14.73583317   -1.00000000    4.90999985    1.66999996
   14.73916721   -1.00000000    4.90999985    1.66999996
   14.74222279   -1.00000000    4.90999985    1.71000004
   14.74555588   -1.00000000    4.90999985    1.69000006
   14.74861145   -1.00000000    4.90999985    1.71000004
   14.75194454   -1.00000000    4.90999985    1.76999998
   14.75527763   -1.00000000    4.90999985    1.78999996
   14.75833321   -1.00000000    4.90999985    1.75000000
   14.76166630   -1.00000000    4.90999985    1.71000004
   14.76500034   -1.00000000    4.90999985    1.73000002
   14.76805496   -1.00000000    4.90999985    1.75000000
   14.77138901   -1.00000000    4.90999985    1.78999996
   14.77638817   -1.00000000    4.90999985    1.76999998
   14.78055573   -1.00000000    4.90999985    1.73000002
   14.78361130   -1.00000000    4.90999985    1.76999998
   14.78694534   -1.00000000    4.90999985    1.76999998
   14.79027843   -1.00000000    4.90999985    1.86000001
   14.79361153   -1.00000000   -1.00000000   -1.00000000
   14.79666710   -1.00000000    4.90999985    1.88000000
   14.80000019   -1.00000000    4.90999985    1.83000004
   14.80305576   23.57019997    4.90999985    1.86000001
   14.80638885   33.59460068    4.90999985    1.86000001
   14.80972195   -1.00000000    4.90999985    1.88000000
   14.81277752   27.46949959    4.90999985    1.86000001
   14.81611156   68.38990021    4.90999985    1.88000000
   14.81944466   95.68789673    4.90999985    1.94000006
   14.82250023  122.96399689    4.90999985    1.94000006
   14.82750034  122.96399689    4.90999985    1.96000004
   14.83166695  160.98899841    4.90999985    1.94000006
   14.83500004   96.19660187    4.90999985    1.91999996
   14.83805561  218.43099976    4.90999985    1.96000004
   14.84166622   92.18209839    4.90999985    1.98000002
   14.84472179  253.61000061    4.90999985    1.96000004
   14.84805489  380.87298584    4.90999985    1.98000002
   14.85000038  141.65899658    4.90999985    2.01999998
   14.85027790   95.68789673    4.90999985    1.94000006
   14.85027790  122.96399689    4.90999985    1.94000006
   14.85055637  160.98899841    4.90999985    1.94000006
   14.85055637   96.19660187    4.90999985    1.91999996
   14.85055637  218.43099976    4.90999985    1.96000004
   14.85083389   92.18209839    4.90999985    1.98000002
   14.85083389  253.61000061    4.90999985    1.96000004
   14.85083389  380.87298584    4.90999985    1.98000002
   14.85111141   68.38990021    4.90999985    1.88000000
   14.85277843  201.39500427    4.90999985    1.98000002
   14.85583401  218.88999939    4.90999985    1.98000002
   14.85916710  163.20199585    4.90999985    1.96000004
   14.86250019  196.95799255    4.90999985    1.98000002
   14.86555576  109.03299713    4.90999985    1.94000006
   14.86888885  227.23199463    4.90999985    1.96000004
   14.87222195  229.44799805    4.90999985    2.01999998
   14.87527752  216.63800049    4.90999985    2.00000000
   14.87944412  216.63800049    4.90999985    2.00000000
   14.88361073  186.94700623    4.90999985    2.01999998
   14.88694477  245.94700623    4.90999985    2.01999998
   14.89000034  206.85800171    4.90999985    2.01999998
   14.89333344  170.59199524    4.90999985    2.01999998
   14.89666653  207.49099731    4.90999985    2.03999996
   14.89972210  204.86500549    4.90999985    2.00000000
   14.90055561  214.01499939    4.90999985    2.00000000
   14.90333271  178.00700378    4.90999985    2.00000000
   14.90666676  195.81900024    4.90999985    2.03999996
   14.90972137  163.01800537    4.90999985    2.03999996
   14.91305542  192.28599548    4.90999985    2.01999998
   14.91638851  195.28199768    4.90999985    2.05999994
   14.91944504  214.66200256    4.90999985    2.01999998
   14.92277813  187.20599365    4.90999985    2.05999994
   14.92611122  188.14399719    4.90999985    2.03999996
   14.93055630  188.14399719    4.90999985    2.03999996
   14.93472195  166.61399841    4.90999985    2.09999990
   14.93805599  158.74800110    4.90999985    2.07999992
   14.94138908  142.40699768    4.90999985    2.09999990
   14.94444466  134.99600220    4.90999985    2.09999990
   15.04805565   -1.00000000   -1.00000000   -1.00000000
   15.14444447   -1.00000000   -1.00000000   -1.00000000
   15.27277756   -1.00000000   -1.00000000   -1.00000000
   15.30500031  115.15699768    4.90999985    2.23000002
   15.30805588  100.04100037    4.90999985    2.25000000
   15.31138897  105.94999695    4.90999985    2.26999998
   15.31472206   88.95249939    4.90999985    2.28999996
   15.31777763   97.62629700    4.90999985    2.26999998
   15.32111073   96.23210144    4.90999985    2.32999992
   15.32416630   90.68730164    4.90999985    2.34999990
   15.32750034   94.21040344    4.90999985    2.32999992
   15.33333302   94.21040344    4.90999985    2.32999992
   15.33749962   87.66729736    4.90999985    2.34999990
   15.34083271   90.96910095    4.90999985    2.34999990
   15.34388828   89.54769897    4.90999985    2.34999990
   15.34722233   99.92130280    4.90999985    2.36999989
   15.35055637   94.25620270    4.90999985    2.34999990
   15.35361195   99.14389801    4.90999985    2.36999989
   15.35472298   90.00910187    4.90999985    2.36999989
   15.35722256   93.11569977    4.90999985    2.36999989
   15.36055565   90.31549835    4.90999985    2.36999989
   15.36361122  100.48300171    4.90999985    2.36999989
   15.36694431  101.40100098    4.90999985    2.39000010
   15.36999989   96.42900085    4.90999985    2.39000010
   15.37333393   95.69010162    4.90999985    2.36999989
   15.37666702   91.80870056    4.90999985    2.36999989
   15.37972260   90.25830078    4.90999985    2.39000010
   15.38472176   90.25830078    4.90999985    2.40000010
   15.38861084   89.19409943    4.90999985    2.40000010
   15.39194393   91.02899933    4.90999985    2.40000010
   15.39527798   93.22560120    4.90999985    2.40000010
   15.39833355   85.17359924    4.90999985    2.46000004
   15.40166664   81.12889862    4.90999985    2.44000006
   15.40472221   88.67849731    4.90999985    2.42000008
   15.40527725   91.54489899    4.90999985    2.42000008
   15.40861034   91.94219971    4.90999985    2.40000010
   15.41166592   88.45420074    4.90999985    2.44000006
   15.41499996   81.05919647    4.90999985    2.42000008
   15.41805553   87.90460205    4.90999985    2.44000006
   15.42138958   90.34329987    4.90999985    2.39000010
   15.42472267   82.67990112    4.90999985    2.42000008
   15.42777824   88.58290100    4.90999985    2.42000008
   15.43111134   90.59519958    4.90999985    2.40000010
   15.43583298   90.59519958    4.90999985    2.40000010
   15.44000053   96.13020325    4.90999985    2.40000010
   15.44305515   86.42720032    4.90999985    2.39000010
   15.44638920   89.55370331    4.90999985    2.42000008
   15.44944477   88.74569702    4.90999985    2.42000008
   15.45277786   90.22869873    4.90999985    2.40000010
   15.45472240   91.64189911    4.90999985    2.40000010
   15.45638847   89.00810242    4.90999985    2.40000010
   15.45972157   84.38539886    4.90999985    2.39000010
   15.46277714   92.78659821    4.90999985    2.42000008
   15.46611118   82.13639832    4.90999985    2.40000010
   15.46944427   93.66649628    4.90999985    2.40000010
   15.47249985   85.22570038    4.90999985    2.40000010
   15.47583294   93.38819885    4.90999985    2.44000006
   15.47916603   93.95739746    4.90999985    2.44000006
   15.48222160   90.52059937    4.90999985    2.44000006
   15.48694515   90.52059937    4.90999985    2.44000006
   15.49111176   89.60949707    4.90999985    2.46000004
   15.49416733   91.40309906    4.90999985    2.42000008
   15.49750042   93.46099854    4.90999985    2.42000008
   15.50083351   89.53220367    4.90999985    2.40000010
   15.50388908   88.78109741    4.90999985    2.42000008
   15.50472260   88.72000122    4.90999985    2.42000008
   15.50749969   87.13480377    4.90999985    2.42000008
   15.51083374   89.84110260    4.90999985    2.46000004
   15.51388931   80.91760254    4.90999985    2.48000002
   15.51722240   87.54740143    4.90999985    2.51999998
   15.52055550   82.46859741    4.90999985    2.53999996
   15.52361107   81.36730194    4.90999985    2.51999998
   15.52694416   77.67150116    4.90999985    2.53999996
   15.52999973   80.27629852    4.90999985    2.55999994
   15.53333378   78.74420166    4.90999985    2.57999992
   15.53805637   78.74420166    4.90999985    2.61999989
   15.54222298   81.24880219    4.90999985    2.64000010
   15.54555607   76.76210022    4.90999985    2.64000010
   15.54861164   79.95670319    4.90999985    2.64000010
   15.55194473   79.58920288    4.90999985    2.59999990
   15.55472279   81.74150085    4.90999985    2.61999989
   15.55555534   81.06490326    4.90999985    2.59999990
   15.55888939   83.14769745    4.90999985    2.59999990
   15.56194496   83.10829926    4.90999985    2.57999992
   15.56527805   82.95469666    4.90999985    2.59999990
   15.56861115   79.76049805    4.90999985    2.55999994
   15.57166672   77.91169739    4.90999985    2.57999992
   15.57499981   74.76930237    4.90999985    2.57999992
   15.57805538   78.39309692    4.90999985    2.61999989
   15.58138847   79.71610260    4.90999985    2.59999990
   15.58472157   78.12539673    4.90999985    2.59999990
   15.58916664   78.12539673    4.90999985    2.53999996
   15.59333324   86.98269653    4.90999985    2.53999996
   15.59666634   84.18389893    4.90999985    2.53999996
   15.60000038   79.85630035    4.90999985    2.55999994
   15.60305595   79.47160339    4.90999985    2.55999994
   15.60472298   79.60030365    4.90999985    2.55999994
   15.60666752   84.36889648    4.90999985    2.55999994
   15.61000061   79.40660095    4.90999985    2.53999996
   15.61305618   81.32700348    4.90999985    2.55999994
   15.61638927   79.10579681    4.90999985    2.57999992
   15.61972237   79.15450287    4.90999985    2.59999990
   15.62277794   81.24960327    4.90999985    2.61999989
   15.62611103   80.47370148    4.90999985    2.64000010
   15.62944412   81.11910248    4.90999985    2.67000008
   15.63249969   76.37069702    4.90999985    2.69000006
   15.63583279   75.83059692    4.90999985    2.71000004
   15.64055538   75.83059692    4.90999985    2.71000004
   15.64472198   77.69930267    4.90999985    2.69000006
   15.64777756   79.19429779    4.90999985    2.71000004
   15.65111065   77.16049957    4.90999985    2.71000004
   15.65416622   79.22109985    4.90999985    2.69000006
   15.65499973   77.73940277    4.90999985    2.67000008
   15.65777779   75.72190094    4.90999985    2.67000008
   15.66111088   79.31620026    4.90999985    2.66000009
   15.66444397   78.29270172    4.90999985    2.66000009
   15.66750050   77.55039978    4.90999985    2.66000009
   15.67083359   77.59220123    4.90999985    2.66000009
   15.67388916   78.33699799    4.90999985    2.66000009
   15.67722225   77.63510132    4.90999985    2.67000008
   15.68055630   77.27420044    4.90999985    2.69000006
   15.68361092   75.75309753    4.90999985    2.69000006
   15.68694496   80.06549835    4.90999985    2.69000006
   15.69166660   80.06549835    4.90999985    2.69000006
   15.69583321   78.58159637    4.90999985    2.69000006
   15.69888878   76.74050140    4.90999985    2.69000006
   15.70222187   75.80919647    4.90999985    2.71000004
   15.70499992   77.77269745    4.90999985    2.71000004
   15.70583344   76.94439697    4.90999985    2.71000004
   15.70916653   75.86969757    4.90999985    2.73000002
   15.71249962   72.45980072    4.90999985    2.71000004
   15.71555519   75.89430237    4.90999985    2.73000002
   15.71888828   76.00370026    4.90999985    2.75000000
   15.72194386   75.20819855    4.90999985    2.75000000
   15.72527695   75.67549896    4.90999985    2.73000002
   15.72861099   77.12220001    4.90999985    2.73000002
   15.73166656   75.60910034    4.90999985    2.75000000
   15.73500061   73.74900055    4.90999985    2.75000000
   15.73833370   75.61789703    4.90999985    2.75000000
   15.74277782   75.61789703    4.90999985    2.75000000
   15.74694443   75.34120178    4.90999985    2.75000000
   15.75027752   74.91120148    4.90999985    2.75000000
   15.75333309   74.41439819    4.90999985    2.75000000
   15.75500011   77.22609711    4.90999985    2.75000000
   15.75694466   76.14510345    4.90999985    2.73000002
   15.76027775   74.25559998    4.90999985    2.75000000
   15.76361084   78.53350067    4.90999985    2.75000000
   15.76666641   76.08219910    4.90999985    2.75000000
   15.76999950   75.27459717    4.90999985    2.75000000
   15.77333355   76.18029785    4.90999985    2.76999998
   15.77638817   75.17050171    4.90999985    2.78999996
   15.77972221   79.13529968    4.90999985    2.76999998
   15.78277779   76.70189667    4.90999985    2.75000000
   15.78611183   73.38960266    4.90999985    2.78999996
   15.78944492   74.83280182    4.90999985    2.78999996
   15.79388905   74.83280182    4.90999985    2.76999998
   15.79805565   74.58730316    4.90999985    2.76999998
   15.80138874   74.15979767    4.90999985    2.75000000
   15.80472279   79.34999847    4.90999985    2.76999998
   15.80527782   73.74980164    4.90999985    2.76999998
   15.80805588   76.32360077    4.90999985    2.78999996
   15.81138897   75.65709686    4.90999985    2.76999998
   15.81444454   75.22090149    4.90999985    2.78999996
   15.81777763   74.30960083    4.90999985    2.80999994
   15.82111073   75.19689941    4.90999985    2.80999994
   15.82416630   75.92849731    4.90999985    2.78999996
   15.82750034   72.78170013    4.90999985    2.78999996
   15.83083344   82.66680145    4.90999985    2.78999996
   15.83388901   77.46749878    4.90999985    2.78999996
   15.83722210   74.63780212    4.90999985    2.80999994
   15.84027767   74.74079895    4.90999985    2.76999998
   15.84527779   74.74079895    4.90999985    2.80999994
   15.84944439   74.86519623    4.90999985    2.80999994
   15.85249996   75.76119995    4.90999985    2.80999994
   15.85527802   76.57949829    4.90999985    2.80999994
   15.85611153   77.02429962    4.90999985    2.82999992
   15.85944462   73.40609741    4.90999985    2.80999994
   15.86277771   75.76580048    4.90999985    2.84999990
   15.86583328   72.06909943    4.90999985    2.82999992
   15.86916637   74.08499908    4.90999985    2.84999990
   15.87222195   74.41570282    4.90999985    2.84999990
   15.87555599   73.80310059    4.90999985    2.84999990
   15.87888908   71.91880035    4.90999985    2.84999990
   15.88194466   73.66359711    4.90999985    2.84999990
   15.88527775   70.69629669    4.90999985    2.84999990
   15.88861084   72.56620026    4.90999985    2.84999990
   15.89166641   72.85209656    4.90999985    2.86999989
   15.89638901   72.85209656    4.90999985    2.86999989
   15.90055561   72.77410126    4.90999985    2.84999990
   15.90361118   76.56600189    4.90999985    2.84999990
   15.90527725   72.00530243    4.90999985    2.84999990
   15.90722179   78.07440186    4.90999985    2.84999990
   15.91055489   71.62899780    4.90999985    2.86999989
   15.91388893   70.66390228    4.90999985    2.84999990
   15.91694450   74.09519958    4.90999985    2.86999989
   15.92027855   73.87779999    4.90999985    2.86999989
   15.92333412   74.42680359    4.90999985    2.86999989
   15.92666721   74.38739777    4.90999985    2.86999989
   15.93000031   73.38159943    4.90999985    2.86999989
   15.93305588   71.83540344    4.90999985    2.89000010
   15.93638897   73.32939911    4.90999985    2.86999989
   15.93972206   72.54229736    4.90999985    2.89000010
   15.94277763   72.07559967    4.90999985    2.86999989
   15.94750023   72.07559967    4.90999985    2.89000010
   15.95166683   74.20529938    4.90999985    2.86999989
   15.95499992   71.73840332    4.90999985    2.89000010
   15.95555496   71.90440369    4.90999985    2.89000010
   15.95861053   73.71109772    4.90999985    2.86999989
   15.96194458   73.27500153    4.90999985    2.86999989
   15.96527767   75.56690216    4.90999985    2.89000010
   15.96833324   72.50379944    4.90999985    2.86999989
   15.97166634   74.89510345    4.90999985    2.86999989
   15.97472191   73.37740326    4.90999985    2.86999989
   15.97805500   72.58830261    4.90999985    2.86999989
   15.98138809   73.56649780    4.90999985    2.86999989
   15.98444462   74.37300110    4.90999985    2.86999989
   15.98777771   73.88549805    4.90999985    2.86999989
   15.99111176   72.92479706    4.90999985    2.86999989
   15.99416733   73.04199982    4.90999985    2.86999989
   15.99861145   73.04199982    4.90999985    2.86999989
   16.00277710   72.64129639    4.90999985    2.89000010
   16.00555611   71.94539642    4.86999989    2.89000010
   16.00638962   75.08609772    4.78000021    2.89000010
   16.00972176   72.01719666    4.44999981    2.89000010
   16.01305580   75.24980164    4.51000023    2.89000010
   16.01611137   72.69290161    4.34999990    2.89000010
   16.01944351   72.82219696    4.76000023    2.86999989
   16.02249908   72.65920258    4.90999985    2.86999989
   16.02583313   74.99649811    4.55999994    2.86999989
   16.02916718   71.89029694    3.91000009    2.89000010
   16.03222275   74.92179871    3.70000005    2.91000009
   16.03555489   72.93699646    4.03999996    2.89000010
   16.03888893   73.05580139    4.48999977    2.86999989
   16.04194450   72.31900024    4.53000021    2.89000010
   16.04527664   72.80840302    4.53999996    2.89000010
   16.04999924   72.80840302    4.73999977    2.86999989
   16.05388832   72.67050171    4.55999994    2.86999989
   16.05555534   71.86450195    4.55999994    2.86999989
   16.05749893   71.46070099    4.46999979    2.86999989
   16.06083298   74.23960114    4.38999987    2.89000010
   16.06416512   70.84729767    4.15999985    2.89000010
   16.06722260   70.65280151    4.00000000    2.89000010
   16.07055664   73.64550018    3.97000003    2.89000010
   16.07389069   74.75330353    4.01999998    2.86999989
   16.07694626   76.25319672    3.99000001    2.86999989
   16.08027840   72.82060242    3.99000001    2.89000010
   16.08333397   74.21209717    3.72000003    2.89000010
   16.08666801   72.55370331    3.68000007    2.89000010
   16.09000015   71.25859833    3.64000010    2.89000010
   16.09305573   71.56529999    3.68000007    2.89000010
   16.09638977   72.53109741    3.76999998    2.91000009
   16.10111237   72.53109741    3.51999998    2.89000010
   16.10527802   72.97019958    3.26999998    2.89000010
   16.10583305   72.34649658    3.26999998    2.89000010
   16.10888863   75.26789856    3.07999992    2.91000009
   16.11222267   73.15920258    2.86999989    2.89000010
   16.11555672   71.86289978    2.76999998    2.89000010
   16.11861038   72.62550354    2.78999996    2.89000010
   16.12194443   72.36579895    2.78999996    2.89000010
   16.12500000   70.69740295    2.78999996    2.89000010
   16.12833405   73.53250122    2.94000006    2.86999989
   16.13166618   73.00039673    3.16000009    2.89000010
   16.13472176   72.73580170    3.28999996    2.89000010
   16.13805580   72.95089722    3.50000000    2.89000010
   16.14138794   74.78829956    3.59999990    2.89000010
   16.14444351   75.14859772    3.68000007    2.89000010
   16.14777756   71.78510284    3.73000002    2.86999989
   16.15222168   71.78510284    3.75000000    2.89000010
   16.15638924   73.32009888    3.75000000    2.86999989
   16.15972137   71.98329926    3.86999989    2.86999989
   16.16277695   72.56620026    3.80999994    2.86999989
   16.16611099   72.13099670    3.64000010    2.89000010
   16.16916656   74.08190155    3.46000004    2.89000010
   16.17249870   72.14330292    3.39000010    2.89000010
   16.17583275   75.32160187    3.48000002    2.86999989
   16.17888832   71.78379822    3.89000010    2.89000010
   16.18222237   71.02439880    4.00000000    2.86999989
   16.18555450   73.07499695    3.99000001    2.86999989
   16.18861008   72.93080139    4.09999990    2.86999989
   16.19194412   71.70010376    4.26000023    2.86999989
   16.19499969   71.30449677    4.23999977    2.86999989
   16.19833183   70.19149780    4.15999985    2.86999989
   16.20333481   70.19149780    3.99000001    2.89000010
   16.20750046   72.85510254    4.03999996    2.89000010
   16.21083450   74.93319702    4.05999994    2.86999989
   16.21416664   73.49109650    4.28999996    2.86999989
   16.21722221   76.27490234    4.11999989    2.86999989
   16.22055626   72.70200348    3.99000001    2.89000010
   16.22361183   73.69650269    4.03999996    2.86999989
   16.22694588   71.27069855    3.91000009    2.86999989
   16.23027802   72.11260223    3.73000002    2.89000010
   16.23333359   73.99050140    3.57999992    2.89000010
   16.23666763   71.62999725    3.46000004    2.89000010
   16.23999977   73.52790070    3.50000000    2.89000010
   16.24305534   69.56179810    3.50000000    2.89000010
   16.24638939   72.33450317    3.41000009    2.89000010
   16.24944496   74.16909790    3.46000004    2.89000010
   16.25472260   74.16909790    4.01999998    2.89000010
   16.25861168   73.39959717    4.38999987    2.89000010
   16.26194382   70.83010101    4.28999996    2.89000010
   16.26527786   71.99929810    4.26000023    2.89000010
   16.26833344   71.79340363    3.93000007    2.89000010
   16.27166557   71.29329681    3.68000007    2.89000010
   16.27499962   71.27660370    3.45000005    2.89000010
   16.27805519   73.75399780    3.46000004    2.89000010
   16.28138924   72.52269745    3.41000009    2.89000010
   16.28444481   72.04319763    3.43000007    2.89000010
   16.28777695   71.20970154    3.30999994    2.89000010
   16.29111099   73.47509766    3.18000007    2.86999989
   16.29416656   76.48470306    3.16000009    2.86999989
   16.29749870   71.63780212    3.20000005    2.89000010
   16.30083275   71.57569885    3.30999994    2.89000010
   16.32222366   72.46140289    3.75000000    2.89000010
   16.32277870   70.73580170    3.75000000    2.89000010
   16.32583427   73.08390045    3.95000005    2.89000010
   16.32916832   72.89720154    3.97000003    2.86999989
   16.33222389   75.08350372    3.95000005    2.89000010
   16.33555603   72.02230072    4.17999983    2.86999989
   16.33889008   72.52040100    4.23999977    2.89000010
   16.34194565   74.66629791    4.28999996    2.89000010
   16.34527779   71.51210022    4.28999996    2.89000010
   16.34861183   76.33779907    4.32999992    2.89000010
   16.35166740   73.18969727    4.34999990    2.89000010
   16.35722351   73.18969727    4.30999994    2.86999989
   16.36111069   72.49040222    4.23999977    2.89000010
   16.36444473   71.56349945    4.05999994    2.86999989
   16.36777878   70.81819916    3.86999989    2.89000010
   16.37083435   73.84690094    3.72000003    2.89000010
   16.37222290   77.81520081    3.72000003    2.89000010
   16.37444496   71.81569672    3.75000000    2.89000010
   16.37777710   74.45140076    3.89000010    2.89000010
   16.38111115   73.36630249    3.99000001    2.89000010
   16.38416672   72.54599762    4.21999979    2.89000010
   16.38750076   75.54450226    4.53000021    2.86999989
   16.39055634   73.27909851    4.71999979    2.89000010
   16.39388847   74.38349915    4.69999981    2.86999989
   16.39722252   76.68520355    4.73999977    2.86999989
   16.40027809   75.51200104    4.73999977    2.86999989
   16.40361023   71.86810303    4.88999987    2.89000010
   16.40833282   71.86810303    4.90999985    2.89000010
   16.41250038   73.55500031    4.82999992    2.89000010
   16.41555595   73.76390076    4.71999979    2.89000010
   16.41888809   74.29160309    4.69999981    2.89000010
   16.42222214   72.62490082    4.88999987    2.89000010
   16.42277718   72.28130341    4.90999985    2.89000010
   16.42583275   71.94999695    4.90999985    2.86999989
   16.42916679   72.61930084    4.90999985    2.86999989
   16.43222237   73.52179718    4.90999985    2.86999989
   16.43555450   71.90910339    4.90999985    2.86999989
   16.43888855   76.63559723    4.90999985    2.86999989
   16.44194412   71.42530060    4.90999985    2.86999989
   16.44527626   72.61209869    4.90999985    2.86999989
   16.44861031   72.85749817    4.90999985    2.86999989
   16.45166779   71.71389771    4.90999985    2.86999989
   16.45499992   72.71160126    4.90999985    2.86999989
   16.45944595   72.71160126    4.90999985    2.86999989
   16.46361160   71.90290070    4.90999985    2.86999989
   16.46666718   72.94270325    4.90999985    2.86999989
   16.47000122   71.98249817    4.90999985    2.86999989
   16.47222328   71.96600342    4.90999985    2.86999989
   16.47361183   71.85500336    4.90999985    2.86999989
   16.47694588   74.29630280    4.90999985    2.86999989
   16.48027802   75.81980133    4.90999985    2.86999989
   16.48333359   72.23690033    4.90999985    2.86999989
   16.48666763   74.80770111    4.90999985    2.89000010
   16.48972321   71.50019836    4.90999985    2.86999989
   16.49305534   77.31079865    4.90999985    2.84999990
   16.49638939   73.73139954    4.90999985    2.86999989
   16.49944496   73.02320099    4.90999985    2.84999990
   16.50277710   71.96800232    4.90999985    2.84999990
   16.50611115   74.63999939    4.90999985    2.84999990
   16.51055527   74.63999939    4.90999985    2.86999989
   16.51472282   77.23370361    4.90999985    2.86999989
   16.51805496   76.64179993    4.90999985    2.84999990
   16.52111053   74.05629730    4.90999985    2.84999990
   16.52222252   72.55709839    4.90999985    2.84999990
   16.52472115   70.84200287    4.90999985    2.84999990
   16.52805519   75.72619629    4.90999985    2.86999989
   16.53138924   74.18520355    4.90999985    2.86999989
   16.53444481   72.98660278    4.90999985    2.84999990
   16.53777695   74.74849701    4.90999985    2.84999990
   16.54083252   75.35880280    4.90999985    2.84999990
   16.54416656   72.37580109    4.90999985    2.84999990
   16.54749870   73.61009979    4.90999985    2.84999990
   16.55055428   74.88410187    4.90999985    2.84999990
   16.55388832   74.99520111    4.90999985    2.84999990
   16.55722237   72.80819702    4.90999985    2.84999990
   16.56166649   72.80819702    4.90999985    2.84999990
   16.56583214   71.53489685    4.90999985    2.84999990
   16.56916809   74.66500092    4.90999985    2.84999990
   16.57222366   74.32230377    4.90999985    2.86999989
   16.57277870   72.57150269    4.90999985    2.86999989
   16.57611275   73.96430206    4.90999985    2.86999989
   16.57916832   76.76270294    4.90999985    2.86999989
   16.58250046   74.01139832    4.90999985    2.86999989
   16.58583450   71.94570160    4.90999985    2.86999989
   16.58889008   74.08039856    4.90999985    2.86999989
   16.59222221   75.51889801    4.90999985    2.86999989
   16.59527779   72.45210266    4.90999985    2.86999989
   16.59861183   73.35959625    4.90999985    2.86999989
   16.60194397   72.79010010    4.90999985    2.86999989
   16.60499954   72.36750031    4.90999985    2.84999990
   16.60833359   76.05870056    4.90999985    2.84999990
   16.61305618   76.05870056    4.90999985    2.84999990
   16.61722183   72.57740021    4.90999985    2.84999990
   16.62027740   73.94819641    4.90999985    2.84999990
   16.62222290   72.58899689    4.90999985    2.84999990
   16.62388992   73.62059784    4.90999985    2.84999990
   16.62722206   74.68920135    4.90999985    2.84999990
   16.63027763   71.84940338    4.90999985    2.84999990
   16.63361168   73.27459717    4.90999985    2.86999989
   16.63694382   74.58760071    4.90999985    2.84999990
   16.63999939   73.19989777    4.90999985    2.84999990
   16.64333344   73.93240356    4.90999985    2.84999990
   16.64666748   75.46179962    4.90999985    2.84999990
   16.64972115   72.76129913    4.90999985    2.84999990
   16.65305519   73.71990204    4.90999985    2.86999989
   16.65611076   74.02850342    4.90999985    2.86999989
   16.65944481   71.69270325    4.90999985    2.86999989
   16.66416550   71.69270325    4.90999985    2.86999989
   16.66833305   72.59059906    4.90999985    2.86999989
   16.67138863   74.09040070    4.90999985    2.86999989
   16.67249870   73.98439789    4.90999985    2.86999989
   16.67499924   72.75099945    4.90999985    2.86999989
   16.67833328   74.98259735    4.90999985    2.86999989
   16.68138885   73.17220306    4.90999985    2.86999989
   16.68472099   75.09369659    4.90999985    2.84999990
   16.68805504   73.80599976    4.90999985    2.84999990
   16.69111061   71.69819641    4.90999985    2.84999990
   16.69444275   73.74990082    4.90999985    2.86999989
   16.69777679   71.24659729    4.90999985    2.86999989
   16.70083427   74.11470032    4.90999985    2.86999989
   16.70416832   74.30819702    4.90999985    2.86999989
   16.70722389   75.77909851    4.90999985    2.86999989
   16.71055603   74.62950134    4.90999985    2.86999989
   16.71527863   74.62950134    4.90999985    2.86999989
   16.71944427   73.22570038    4.90999985    2.86999989
   16.72249985   75.35549927    4.90999985    2.86999989
   16.72305679   76.89620209    4.90999985    2.86999989
   16.72638893   74.74590302    4.90999985    2.86999989
   16.72944450   72.99340057    4.90999985    2.86999989
   16.73277855   74.36560059    4.90999985    2.84999990
   16.73611069   73.44629669    4.90999985    2.84999990
   16.73916626   75.73500061    4.90999985    2.86999989
   16.74250031   74.56680298    4.90999985    2.86999989
   16.74583435   73.50499725    4.90999985    2.84999990
   16.74888992   76.20500183    4.90999985    2.82999992
   16.75222206   77.60900116    4.90999985    2.82999992
   16.75527763   73.85399628    4.90999985    2.82999992
   16.75861168   73.86239624    4.90999985    2.82999992
   16.76194382   72.90450287    4.90999985    2.84999990
   16.76638794   72.90450287    4.90999985    2.82999992
   16.77055550   74.31890106    4.90999985    2.82999992
   16.77249908   75.35220337    4.90999985    2.82999992
   16.77416611   74.17659760    4.90999985    2.82999992
   16.77750015   76.77660370    4.90999985    2.84999990
   16.78055573   72.76519775    4.90999985    2.84999990
   16.78388786   70.48290253    4.90999985    2.84999990
   16.78722191   72.37789917    4.90999985    2.86999989
   16.79027748   74.16790009    4.90999985    2.86999989
   16.79361153   73.84639740    4.90999985    2.84999990
   16.79694366   73.30619812    4.90999985    2.84999990
   16.79999924   72.87319946    4.90999985    2.80999994
   16.80333328   72.76519775    4.90999985    2.82999992
   16.80638885   73.41760254    4.90999985    2.82999992
   16.80972099   77.79479980    4.90999985    2.80999994
   16.81305504   73.61889648    4.90999985    2.80999994
   16.81777954   73.61889648    4.90999985    2.82999992
   16.82194519   74.41600037    4.90999985    2.80999994
   16.82250023   73.56620026    4.90999985    2.80999994
   16.82527924   75.62490082    4.90999985    2.82999992
   16.82861137   76.09049988    4.90999985    2.80999994
   16.83194542   76.56479645    4.90999985    2.82999992
   16.83500099   76.36609650    4.90999985    2.78999996
   16.83833313   76.33789825    4.90999985    2.78999996
   16.84166718   73.30220032    4.90999985    2.80999994
   16.84472275   73.75430298    4.90999985    2.78999996
   16.84805679   76.05460358    4.90999985    2.75000000
   16.85111237   74.34559631    4.90999985    2.78999996
   16.85444450   78.18119812    4.90999985    2.73000002
   16.85777855   77.41660309    4.90999985    2.76999998
   16.86083412   77.11190033    4.90999985    2.78999996
   16.86416626   77.29149628    4.90999985    2.78999996
   16.86888885   77.29149628    4.90999985    2.78999996
   16.87305641   74.52670288    4.90999985    2.78999996
   16.87638855   75.86190033    4.90999985    2.78999996
   16.87944412   74.96209717    4.90999985    2.80999994
   16.88277817   73.22129822    4.90999985    2.78999996
   16.88611031   73.36630249    4.90999985    2.78999996
   16.88916588   76.05940247    4.90999985    2.78999996
   16.89249992   74.32170105    4.90999985    2.78999996
   16.89555550   75.73310089    4.90999985    2.78999996
   16.89888954   74.04290009    4.90999985    2.75000000
   16.90222168   74.11260223    4.90999985    2.76999998
   16.90527725   75.77469635    4.90999985    2.75000000
   16.90861130   76.57520294    4.90999985    2.75000000
   16.91194344   72.92019653    4.90999985    2.76999998
   16.91499901   74.45639801    4.90999985    2.78999996
   16.92000008   74.45639801    4.90999985    2.76999998
   16.92416573   79.79620361    4.90999985    2.76999998
   16.92749977   75.49340057    4.90999985    2.76999998
   16.93083191   77.44689941    4.90999985    2.75000000
   16.93388748   76.37460327    4.90999985    2.75000000
   16.93722153   81.33339691    4.90999985    2.71000004
   16.94027710   81.93990326    4.90999985    2.69000006
   16.94361115   78.61509705    4.90999985    2.69000006
   16.94694328   79.75340271    4.90999985    2.66000009
   16.95000076   79.00000000    4.90999985    2.64000010
   16.95333481   77.99780273    4.90999985    2.66000009
   16.95666695   78.41069794    4.90999985    2.67000008
   16.95972252   79.36160278    4.90999985    2.67000008
   16.96305656   83.15509796    4.90999985    2.66000009
   16.96611214   82.98169708    4.90999985    2.66000009
   16.97138977   82.98169708    4.90999985    2.67000008
   16.97555542   77.39430237    4.90999985    2.71000004
   16.97861099   75.78690338    4.90999985    2.69000006
   16.98194504   79.33779907    4.90999985    2.66000009
   16.98500061   77.59230042    4.90999985    2.69000006
   16.98833275   78.97299957    4.90999985    2.67000008
   16.99166679   76.21070099    4.90999985    2.67000008
   16.99472237   79.10910034    4.90999985    2.69000006
   16.99805641   79.25360107    4.90999985    2.66000009
   17.00138855   81.27010345    4.90999985    2.61999989
   17.00444412   79.02680206    4.90999985    2.61999989
   17.00777817   88.05079651    4.90999985    2.64000010
   17.01083374   83.42800140    4.90999985    2.66000009
   17.01416588   78.40119934    4.90999985    2.61999989
   17.01749992   79.86599731    4.90999985    2.64000010
   17.02249908   79.86599731    4.90999985    2.59999990
   17.02666664   80.20379639    4.90999985    2.59999990
   17.02972221   78.40499878    4.90999985    2.61999989
   17.03305435   79.90650177    4.90999985    2.59999990
   17.03638840   82.35739899    4.90999985    2.59999990
   17.03944397   84.96350098    4.90999985    2.57999992
   17.04277802   75.25090027    4.90999985    2.59999990
   17.04611015   80.63520050    4.90999985    2.59999990
   17.04916573   79.54660034    4.90999985    2.61999989
   17.05249977   82.88150024    4.90999985    2.64000010
   17.05555534   77.38430023    4.90999985    2.61999989
   17.05888748   87.08219910    4.90999985    2.51999998
   17.06222153   88.50530243    4.90999985    2.55999994
   17.06527710   81.03150177    4.90999985    2.57999992
   17.06861115   83.81069946    4.90999985    2.55999994
   17.07361221   83.81069946    4.90999985    2.55999994
   17.07777786   83.18440247    4.90999985    2.57999992
   17.08111191   80.07859802    4.90999985    2.59999990
   17.08416748   80.86199951    4.90999985    2.53999996
   17.08750153   82.65709686    4.90999985    2.50000000
   17.09055710   80.42120361    4.90999985    2.51999998
   17.09388924   77.76360321    4.90999985    2.53999996
   17.09722328   88.69660187    4.90999985    2.53999996
   17.10027885   82.42209625    4.90999985    2.51999998
   17.10361099   84.04969788    4.90999985    2.59999990
   17.10694504   79.36609650    4.90999985    2.50000000
   17.11000061   76.96739960    4.90999985    2.57999992
   17.11333466   79.45510101    4.90999985    2.55999994
   17.11638832   79.76170349    4.90999985    2.64000010
   17.11972237   81.34249878    4.90999985    2.64000010
   17.12472153   81.34249878    4.90999985    2.59999990
   17.12888908   80.32990265    4.90999985    2.57999992
   17.13222313   79.11740112    4.90999985    2.61999989
   17.13527679   79.13269806    4.90999985    2.61999989
   17.13861084   77.52719879    4.90999985    2.64000010
   17.14194489   79.10639954    4.90999985    2.69000006
   17.14500046   78.56729889    4.90999985    2.66000009
   17.14833260   80.77050018    4.90999985    2.69000006
   17.15166664   80.72480011    4.90999985    2.69000006
   17.15472221   80.77529907    4.90999985    2.59999990
   17.15805435   83.19100189    4.90999985    2.66000009
   17.16110992   84.73979950    4.90999985    2.50000000
   17.16444397   87.78340149    4.90999985    2.51999998
   17.16777802   82.22689819    4.90999985    2.50000000
   17.17083359   84.88030243    4.90999985    2.55999994
   17.17611122   84.88030243    4.90999985    2.44000006
   17.18000031   89.60299683    4.90999985    2.51999998
   17.18333244   95.41989899    4.90999985    2.50000000
   17.18666649   79.72619629    4.90999985    2.46000004
   17.18972206   86.80799866    4.90999985    2.53999996
   17.19305420   91.44879913    4.90999985    2.46000004
   17.19638824   93.78029633    4.90999985    2.46000004
   17.19944382   92.16889954    4.90999985    2.36999989
   17.20277786   90.44730377    4.90999985    2.36999989
   17.20583344   98.83190155    4.90999985    2.42000008
   17.20916748   87.23249817    4.90999985    2.25000000
   17.21250153   86.83730316    4.90999985    2.46000004
   17.21555710   90.99960327    4.90999985    2.51999998
   17.21888924   85.98000336    4.90999985    2.46000004
   17.22222328   85.14160156    4.90999985    2.50000000
   17.22722244   85.14160156    4.90999985    2.39000010
   17.23139000   88.21630096    4.90999985    2.28999996
   17.23472214   80.69570160    4.90999985    2.25000000
   17.23777771   83.87349701    4.90999985    2.32999992
   17.24111176   88.23650360    4.90999985    2.57999992
   17.24416733   84.73719788    4.90999985    2.57999992
   17.24749947   87.43289948    4.90999985    2.55999994
   17.25083351   99.55039978    4.90999985    2.46000004
   17.25388908   94.18840027    4.90999985    2.30999994
   17.25722313   92.03540039    4.90999985    2.36999989
   17.26055527   88.06400299    4.90999985    2.40000010
   17.26361084   91.24700165    4.90999985    2.48000002
   17.26694489   85.55629730    4.90999985    2.42000008
   17.27000046   90.61100006    4.90999985    2.59999990
   17.27333260   96.21769714    4.90999985    2.46000004
   17.27833366   96.21769714    4.90999985    2.44000006
   17.28249931  101.52799988    4.90999985    2.44000006
   17.28583336  102.29399872    4.90999985    2.40000010
   17.28888893   95.65609741    4.90999985    2.28999996
   17.29222107   87.78890228    4.90999985    2.42000008
   17.29527664   90.52380371    4.90999985    2.55999994
   17.29861069  103.51000214    4.90999985    2.40000010
   17.30194283   92.28610229    4.90999985    2.39000010
   17.30499840   96.98339844    4.90999985    2.46000004
   17.30833244  100.18599701    4.90999985    2.44000006
   17.31166649   87.59380341    4.90999985    2.48000002
   17.31472206   97.53079987    4.90999985    2.51999998
   17.31805611   88.69789886    4.90999985    2.46000004
   17.32139015   95.93830109    4.90999985    2.53999996
   17.34250069   95.93830109    4.90999985    2.23000002
   17.34666824   96.73249817    4.90999985    2.46000004
   17.35000038  114.15399933    4.90999985    2.32999992
   17.35305595   92.09629822    4.90999985    2.44000006
   17.35639000   90.94589996    4.90999985    2.61999989
   17.35944557   89.24690247    4.90999985    2.42000008
   17.36277771   97.21199799    4.90999985    2.71000004
   17.36611176   88.81520081    4.90999985    2.53999996
   17.36916733   86.57859802    4.90999985    2.57999992
   17.37249947   82.07779694    4.90999985    2.73000002
   17.37583351   86.57980347    4.90999985    2.67000008
   17.37888908   78.41149902    4.90999985    2.76999998
   17.38222313   86.34380341    4.90999985    2.78999996
   17.38527679   84.97850037    4.90999985    2.67000008
   17.38861084   82.23269653    4.90999985    2.66000009
   17.38999939   84.86830139    4.90999985    2.69000006
   17.39416695   84.86830139    4.90999985    2.76999998
   17.39833260   83.43750000    4.90999985    2.75000000
   17.40138817   85.01709747    4.90999985    2.57999992
   17.40472221   80.48269653    4.90999985    2.69000006
   17.40805435   80.45890045    4.90999985    2.78999996
   17.41138840   77.46050262    4.90999985    2.69000006
   17.41444397   75.67449951    4.90999985    2.78999996
   17.41777802   77.95670319    4.90999985    2.80999994
   17.42083359   76.40489960    4.90999985    2.78999996
   17.42416573   77.86969757    4.90999985    2.80999994
   17.42749977   85.10759735    4.90999985    2.69000006
   17.43055534   82.74770355    4.90999985    2.69000006
   17.43388748   80.74359894    4.90999985    2.75000000
   17.43722153   81.13849640    4.90999985    2.59999990
   17.43999863   80.02940369    4.90999985    2.69000006
   17.44083214   79.34839630    4.90999985    2.69000006
   17.44527626   79.34839630    4.90999985    2.75000000
   17.44944382   82.81500244    4.90999985    2.66000009
   17.45277786   83.33670044    4.90999985    2.64000010
   17.45583344   74.63819885    4.90999985    2.78999996
   17.45916748   75.01920319    4.90999985    2.80999994
   17.46222305   79.40200043    4.90999985    2.78999996
   17.46555710   80.01349640    4.90999985    2.73000002
   17.46888924   76.08570099    4.90999985    2.76999998
   17.47194481   76.95970154    4.90999985    2.73000002
   17.47527885   80.94560242    4.90999985    2.66000009
   17.47861099   79.64969635    4.90999985    2.69000006
   17.48166656   82.33630371    4.90999985    2.73000002
   17.48500061   79.93900299    4.90999985    2.73000002
   17.48805618   75.93910217    4.90999985    2.67000008
   17.48999977   80.74250031    4.90999985    2.71000004
   17.49194527   79.18609619    4.90999985    2.71000004
   17.49638939   79.18609619    4.90999985    2.73000002
   17.50055504   78.55490112    4.90999985    2.73000002
   17.50388908   74.58599854    4.90999985    2.66000009
   17.50694466   78.19110107    4.90999985    2.73000002
   17.51027870   78.25949860    4.90999985    2.80999994
   17.51361084   81.93389893    4.90999985    2.66000009
   17.51666641   78.44450378    4.90999985    2.71000004
   17.52000046   77.56349945    4.90999985    2.67000008
   17.52333260   91.99490356    4.90999985    2.61999989
   17.52638817   83.80590057    4.90999985    2.50000000
   17.52972221   85.31580353    4.90999985    2.57999992
   17.53277779   82.21459961    4.90999985    2.51999998
   17.53610992   79.47139740    4.90999985    2.50000000
   17.53944397   86.84670258    4.90999985    2.51999998
   17.53999901   90.71430206    4.90999985    2.51999998
   17.54305458  101.70400238    4.90999985    2.46000004
   17.54777718  101.70400238    4.90999985    2.32999992
   17.55166626   93.89209747    4.90999985    2.44000006
   17.55499840   93.82769775    4.90999985    2.46000004
   17.55833244   93.17050171    4.90999985    2.36999989
   17.56138802   87.20099640    4.90999985    2.46000004
   17.56472206   79.28019714    4.90999985    2.51999998
   17.56805611   85.65070343    4.90999985    2.48000002
   17.57111168   87.25569916    4.90999985    2.50000000
   17.57444572   89.83560181    4.90999985    2.46000004
   17.57750130  107.93199921    4.90999985    2.46000004
   17.58083344   93.64759827    4.90999985    2.26999998
   17.58416748   88.13909912    4.90999985    2.36999989
   17.58722305   96.15049744    4.90999985    2.46000004
   17.59000015   95.03769684    4.90999985    2.40000010
   17.59111214   93.92289734    4.90999985    2.39000010
   17.59416771  106.70400238    4.90999985    2.44000006
   17.59889030  106.70400238    4.90999985    2.39000010
   17.60305595   94.98860168    4.90999985    2.46000004
   17.60611153   89.34120178    4.90999985    2.46000004
   17.60944557   90.80819702    4.90999985    2.42000008
   17.61277771   92.07949829    4.90999985    2.51999998
   17.61583328   92.12429810    4.90999985    2.42000008
   17.61916733   89.01830292    4.90999985    2.40000010
   17.62222290   85.08529663    4.90999985    2.40000010
   17.62555504   90.33270264    4.90999985    2.51999998
   17.62888908   86.84790039    4.90999985    2.42000008
   17.63194466   86.85890198    4.90999985    2.44000006
   17.63527679   85.05960083    4.90999985    2.48000002
   17.63861084   92.61740112    4.90999985    2.42000008
   17.63999939   93.22750092    4.90999985    2.36999989
   17.64222145   87.67410278    4.90999985    2.44000006
   17.64527702   94.39360046    4.90999985    2.40000010
   17.64999962   94.39360046    4.90999985    2.34999990
   17.65416718   90.38500214    4.90999985    2.32999992
   17.65749931   89.59609985    4.90999985    2.42000008
   17.66055489   90.28639984    4.90999985    2.40000010
   17.66388893  100.59100342    4.90999985    2.40000010
   17.66694450   99.89189911    4.90999985    2.40000010
   17.67027664   94.75430298    4.90999985    2.30999994
   17.67361069   93.89389801    4.90999985    2.36999989
   17.67666626  102.18900299    4.90999985    2.32999992
   17.68000031   97.40200043    4.90999985    2.26999998
   17.68333244   99.32430267    4.90999985    2.32999992
   17.68638802   89.34420013    4.90999985    2.36999989
   17.68972206   94.55180359    4.90999985    2.42000008
   17.69027710   93.54209900    4.90999985    2.42000008
   17.69333267   95.85299683    4.90999985    2.40000010
   17.69666672  102.01300049    4.90999985    2.40000010
   17.70111275  102.01300049    4.90999985    2.32999992
   17.70527840  120.69599915    4.90999985    2.32999992
   17.70861244   96.53559875    4.90999985    2.32999992
   17.71166801  100.48100281    4.90999985    2.34999990
   17.71500015   94.56279755    4.90999985    2.34999990
   17.71833420   94.47129822    4.90999985    2.36999989
   17.72138977  132.92799377    4.90999985    2.21000004
   17.72472191  206.36300659    4.90999985    2.19000006
   17.72805595  225.46099854    4.90999985    2.13000011
   17.73111153  190.67500305    4.90999985    2.11999989
   17.73444557  185.92300415    4.90999985    2.13000011
   17.73750114   -1.00000000   -1.00000000   -1.00000000
   17.74111176   -1.00000000    4.90999985    1.98000002
   17.74444389   -1.00000000    4.90999985    1.91999996
   17.74749947   23.57019997    4.90999985    1.88000000
   17.75250053   23.57019997    4.90999985    1.96000004
   17.75638962   -1.00000000    4.90999985    1.94000006
   17.75972176   -1.00000000    4.90999985    1.94000006
   17.76305580   -1.00000000    4.90999985    2.01999998
   17.76611137   -1.00000000    4.90999985    1.96000004
   17.76944351   -1.00000000    4.90999985    1.89999998
   17.77277756   -1.00000000    4.90999985    1.88000000
   17.77583313   -1.00000000    4.90999985    1.91999996
   17.77916718   70.06479645    4.90999985    1.98000002
   17.78222275   89.77359772    4.90999985    2.05999994
   17.78555489   97.21990204    4.90999985    2.05999994
   17.78888893  156.74899292    4.90999985    2.05999994
   17.79027748   96.72889709    4.90999985    2.05999994
   17.79222107  205.22500610    4.90999985    2.01999998
   17.79555511  186.27999878    4.90999985    2.05999994
   17.79888916  170.98399353    4.90999985    2.05999994
   17.80360985  170.98399353    4.90999985    2.07999992
   17.80777740   47.92119980    4.90999985    2.01999998
   17.81083298  160.83700562    4.90999985    2.00000000
   17.81416512   -1.00000000   -1.00000000   -1.00000000
   17.81750107  184.19900513    4.90999985    2.00000000
   17.82055664  104.31099701    4.90999985    2.07999992
   17.82389069   -1.00000000    4.90999985    1.96000004
   17.82694626   -1.00000000    4.90999985    1.94000006
   17.83027840   23.57019997    4.90999985    1.94000006
   17.83361244  171.89100647    4.90999985    2.01999998
   17.83666801   36.27420044    4.90999985    2.01999998
   17.84000015   -1.00000000   -1.00000000   -1.00000000
   17.84361267   -1.00000000    4.90999985    1.96000004
   17.84694481   -1.00000000    4.90999985    1.88000000
   17.85000038   -1.00000000    4.90999985    1.85000002
   17.85472298   -1.00000000    4.90999985    1.85000002
   17.85888863   -1.00000000    4.90999985    1.76999998
   17.86222267   -1.00000000    4.90999985    1.71000004
   17.86527824   -1.00000000    4.90999985    1.66999996
   17.86861038   -1.00000000    4.90999985    1.61000001
   17.87166595   -1.00000000    4.90999985    1.55999994
   17.87500000   -1.00000000    4.90999985    1.55999994
   17.87833405   -1.00000000    4.90999985    1.50000000
   17.88138962   -1.00000000    4.90999985    1.46000004
   17.88472176   -1.00000000    4.90999985    1.48000002
   17.88805580   -1.00000000    4.90999985    1.41999996
   17.89138794   -1.00000000    4.90999985    1.46000004
   17.89472198   -1.00000000    4.90999985    1.44000006
   17.89777756   -1.00000000    4.90999985    1.51999998
   17.90111160   -1.00000000    4.90999985    1.50000000
   17.90999985   -1.00000000    4.90999985    1.53999996
   17.91305542   -1.00000000    4.90999985    1.55999994
   17.91638756   -1.00000000    4.90999985    1.60000002
   17.91972160   -1.00000000    4.90999985    1.63000000
   17.92277718   -1.00000000    4.90999985    1.66999996
   17.92611122   -1.00000000    4.90999985    1.69000006
   17.92916679   -1.00000000    4.90999985    1.66999996
   17.93249893   -1.00000000    4.90999985    1.69000006
   17.93583298   -1.00000000    4.90999985    1.63000000
   17.93888855   -1.00000000    4.90999985    1.64999998
   17.94249916   -1.00000000    4.90999985    1.63000000
   17.94583321   -1.00000000    4.90999985    1.63000000
   17.94888878   -1.00000000    4.90999985    1.69000006
   17.95222282   -1.00000000    4.90999985    1.69000006
   17.95694542   -1.00000000    4.90999985    1.66999996
   17.96111107   -1.00000000    4.90999985    1.73000002
   17.96444511   -1.00000000    4.90999985    1.75000000
   17.96777916   -1.00000000    4.90999985    1.78999996
   17.97083473   -1.00000000    4.90999985    1.80999994
   17.97416687   -1.00000000    4.90999985    1.73000002
   17.97750092   -1.00000000    4.90999985    1.76999998
   17.98055649   -1.00000000    4.90999985    1.75000000
   17.98388863   -1.00000000    4.90999985    1.75000000
   17.98694420   -1.00000000    4.90999985    1.78999996
   17.99027824   -1.00000000    4.90999985    1.75000000
   17.99388885   -1.00000000    4.90999985    1.83000004
   17.99722290   -1.00000000    4.90999985    1.78999996
   18.00055504   -1.00000000    4.90999985    1.83000004
   18.00361061   -1.00000000    4.90999985    1.85000002
   18.00833321   -1.00000000    4.90999985    1.89999998
   18.01250076   -1.00000000    4.90999985    1.83000004
   18.01555634   -1.00000000    4.90999985    1.76999998
   18.01888847   -1.00000000    4.90999985    1.83000004
   18.02222252   -1.00000000    4.90999985    1.71000004
   18.02527809   -1.00000000    4.90999985    1.75000000
   18.02861023   -1.00000000    4.90999985    1.75000000
   18.03166580   -1.00000000    4.90999985    1.75000000
   18.03499985   -1.00000000    4.90999985    1.75000000
   18.03833199   -1.00000000    4.90999985    1.71000004
   18.04166603   -1.00000000    4.90999985    1.73000002
   18.04500008   -1.00000000    4.90999985    1.69000006
   18.04833221   -1.00000000    4.90999985    1.73000002
   18.05138779   -1.00000000    4.90999985    1.75000000
   18.05472183   -1.00000000    4.90999985    1.83000004
   18.05944443   -1.00000000    4.90999985    1.85000002
   18.06361008   -1.00000000    4.90999985    1.76999998
   18.06694603   -1.00000000    4.90999985    1.73000002
   18.07000160   -1.00000000    4.90999985    1.76999998
   18.07333374   -1.00000000    4.90999985    1.73000002
   18.07638931   -1.00000000    4.90999985    1.73000002
   18.07972336   -1.00000000    4.90999985    1.66999996
   18.08305550   -1.00000000    4.90999985    1.63000000
   18.08611107   -1.00000000    4.90999985    1.51999998
   18.08944511   -1.00000000    4.90999985    1.50000000
   18.09305573   -1.00000000    4.90999985    1.55999994
   18.09611130   -1.00000000    4.90999985    1.51999998
   18.09944534   -1.00000000    4.90999985    1.46000004
   18.10250092   -1.00000000    4.90999985    1.50000000
   18.10583305   -1.00000000    4.90999985    1.46000004
   18.11472321   -1.00000000    4.90999985    1.46000004
   18.11777878   -1.00000000    4.90999985    1.48000002
   18.12111092   -1.00000000    4.90999985    1.46000004
   18.12444496   -1.00000000    4.90999985    1.51999998
   18.12750053   -1.00000000    4.90999985    1.46000004
   18.13083267   -1.00000000    4.90999985    1.41999996
   18.13416672   -1.00000000    4.90999985    1.48000002
   18.13722229   -1.00000000    4.90999985    1.36000001
   18.14055634   -1.00000000    4.90999985    1.48000002
   18.14388847   -1.00000000    4.90999985    1.39999998
   18.14722252   -1.00000000    4.90999985    1.30999994
   18.15027809   -1.00000000    4.90999985    1.39999998
   18.15361023   -1.00000000    4.90999985    1.34000003
   18.15694427   -1.00000000    4.90999985    1.38000000
   18.16583252   -1.00000000    4.90999985    1.34000003
   18.16916656   -1.00000000    4.90999985    1.36000001
   18.17222214   -1.00000000    4.90999985    1.34000003
   18.17555428   -1.00000000    4.90999985    1.41999996
   18.17888832   -1.00000000    4.90999985    1.51999998
   18.18194389   -1.00000000    4.90999985    1.46000004
   18.18527603   -1.00000000    4.90999985    1.51999998
   18.18833160   -1.00000000    4.90999985    1.58000004
   18.19194412   -1.00000000    4.90999985    1.46000004
   18.19527626   -1.00000000    4.90999985    1.46000004
   18.19861031   -1.00000000    4.90999985    1.46000004
   18.20166779   -1.00000000    4.90999985    1.44000006
   18.20499992   -1.00000000    4.90999985    1.36000001
   18.20805550   -1.00000000    4.90999985    1.36000001
   18.21694565   -1.00000000    4.90999985    1.55999994
   18.22027779   -1.00000000    4.90999985    1.36000001
   18.22333336   -1.00000000    4.90999985    1.41999996
   18.22666740   -1.00000000    4.90999985    1.50000000
   18.23000145   -1.00000000    4.90999985    1.38000000
   18.23305511   -1.00000000    4.90999985    1.36000001
   18.23638916   -1.00000000    4.90999985    1.51999998
   18.23972321   -1.00000000    4.90999985    1.60000002
   18.24305534   -1.00000000    4.90999985    1.51999998
   18.24638939   -1.00000000    4.90999985    1.66999996
   18.24972153   -1.00000000    4.90999985    1.48000002
   18.25277710   -1.00000000    4.90999985    1.39999998
   18.25611115   -1.00000000    4.90999985    1.38000000
   18.25944519   -1.00000000    4.90999985    1.33000004
   18.26833344   -1.00000000    4.90999985    1.44000006
   18.27138901   -1.00000000    4.90999985    1.44000006
   18.27472115   -1.00000000    4.90999985    1.51999998
   18.27777672   -1.00000000    4.90999985    1.41999996
   18.28111076   -1.00000000    4.90999985    1.55999994
   18.28444481   -1.00000000    4.90999985    1.44000006
   18.28750038   -1.00000000    4.90999985    1.53999996
   18.29083252   -1.00000000    4.90999985    1.48000002
   18.29444313   -1.00000000    4.90999985    1.51999998
   18.29777718   -1.00000000    4.90999985    1.46000004
   18.30083275   -1.00000000    4.90999985    1.41999996
   18.30416679   -1.00000000    4.90999985    1.38000000
   18.30749893   -1.00000000    4.90999985    1.46000004
   18.31055450   -1.00000000    4.90999985    1.41999996
   18.31944466   -1.00000000    4.90999985    1.50000000
   18.32250023   -1.00000000    4.90999985    1.51999998
   18.32583427   -1.00000000    4.90999985    1.51999998
   18.32916832   -1.00000000    4.90999985    1.51999998
   18.33222389   -1.00000000    4.90999985    1.50000000
   18.33555603   -1.00000000    4.90999985    1.46000004
   18.33889008   -1.00000000    4.90999985    1.44000006
   18.35861206   -1.00000000    4.90999985    1.34000003
   18.36194420   -1.00000000    4.90999985    1.30999994
   18.37083435   -1.00000000    4.90999985    1.19000006
   18.37388992   -1.00000000    4.90999985    1.26999998
   18.37722206   -1.00000000    4.90999985    1.25000000
   18.38027763   -1.00000000    4.90999985    1.23000002
   18.38361168   -1.00000000    4.90999985    1.28999996
   18.38694382   -1.00000000    4.90999985    1.36000001
   18.38999939   -1.00000000    4.90999985    1.25000000
   18.39333344   -1.00000000    4.90999985    1.23000002
   18.39666748   -1.00000000    4.90999985    1.33000004
   18.39972115   -1.00000000    4.90999985    1.36000001
   18.40305519   -1.00000000    4.90999985    1.38000000
   18.40666580   -1.00000000    4.90999985    1.33000004
   18.40999985   -1.00000000    4.90999985    1.38000000
   18.41305542   -1.00000000    4.90999985    1.28999996
   18.42194366   -1.00000000    4.90999985    1.39999998
   18.42499924   -1.00000000    4.90999985    1.46000004
   18.42833328   -1.00000000    4.90999985    1.41999996
   18.43166542   -1.00000000    4.90999985    1.41999996
   18.43472099   -1.00000000    4.90999985    1.34000003
   18.43805504   -1.00000000    4.90999985    1.41999996
   18.44111061   -1.00000000    4.90999985    1.41999996
   18.44444275   -1.00000000    4.90999985    1.39999998
   18.44777679   -1.00000000    4.90999985    1.34000003
   18.45083427   -1.00000000    4.90999985    1.44000006
   18.45416832   -1.00000000    4.90999985    1.41999996
   18.45777893   -1.00000000    4.90999985    1.44000006
   18.46111107   -1.00000000    4.90999985    1.36000001
   18.46416664   -1.00000000    4.90999985    1.39999998
   18.46888924   -1.00000000    4.90999985    1.50000000
   18.47305679   -1.00000000    4.90999985    1.53999996
   18.47638893   -1.00000000    4.90999985    1.44000006
   18.47972298   -1.00000000    4.90999985    1.58000004
   18.48277855   -1.00000000    4.90999985    1.53999996
   18.48611069   -1.00000000    4.90999985    1.51999998
   18.48916626   -1.00000000    4.90999985    1.53999996
   18.49250031   -1.00000000    4.90999985    1.55999994
   18.49583435   -1.00000000    4.90999985    1.58000004
   18.49888992   -1.00000000    4.90999985    1.66999996
   18.50222206   -1.00000000    4.90999985    1.64999998
   18.50555611   -1.00000000    4.90999985    1.61000001
   18.50888824   -1.00000000    4.90999985    1.63000000
   18.51194382   -1.00000000    4.90999985    1.55999994
   18.51527786   -1.00000000    4.90999985    1.66999996
   18.52027702   -1.00000000    4.90999985    1.58000004
   18.52416611   -1.00000000    4.90999985    1.66999996
   18.52750015   -1.00000000    4.90999985    1.69000006
   18.53083229   -1.00000000    4.90999985    1.75000000
   18.53388786   -1.00000000    4.90999985    1.60000002
   18.53722191   -1.00000000    4.90999985    1.76999998
   18.54055595   -1.00000000    4.90999985    1.60000002
   18.54361153   -1.00000000    4.90999985    1.61000001
   18.54694366   -1.00000000    4.90999985    1.73000002
   18.54999924   -1.00000000    4.90999985    1.69000006
   18.55333328   -1.00000000    4.90999985    1.69000006
   18.55694389   -1.00000000    4.90999985    1.63000000
   18.55999947   -1.00000000    4.90999985    1.75000000
   18.56333351   -1.00000000    4.90999985    1.60000002
   18.56666756   -1.00000000    4.90999985    1.60000002
   18.57139015   -1.00000000    4.90999985    1.75000000
   18.57555580   -1.00000000    4.90999985    1.64999998
   18.57861137   -1.00000000    4.90999985    1.60000002
   18.58194542   -1.00000000    4.90999985    1.50000000
   18.58527756   -1.00000000    4.90999985    1.51999998
   18.58833313   -1.00000000    4.90999985    1.60000002
   18.59166718   -1.00000000    4.90999985    1.44000006
   18.59500122   -1.00000000    4.90999985    1.39999998
   18.59805679   -1.00000000    4.90999985    1.33000004
   18.60138893   -1.00000000    4.90999985    1.34000003
   18.60444450   -1.00000000    4.90999985    1.33000004
   18.60805511   -1.00000000    4.90999985    1.33000004
   18.61138916   -1.00000000    4.90999985    1.26999998
   18.61444473   -1.00000000    4.90999985    1.28999996
   18.61777878   -1.00000000    4.90999985    1.30999994
   18.62666702   -1.00000000    4.90999985    1.38000000
   18.62972260   -1.00000000    4.90999985    1.38000000
   18.63305473   -1.00000000    4.90999985    1.38000000
   18.63638878   -1.00000000    4.90999985    1.38000000
   18.63944435   -1.00000000    4.90999985    1.48000002
   18.64277840   -1.00000000    4.90999985    1.41999996
   18.64611053   -1.00000000    4.90999985    1.44000006
   18.64916611   -1.00000000    4.90999985    1.50000000
   18.65250015   -1.00000000    4.90999985    1.48000002
   18.65555573   -1.00000000    4.90999985    1.51999998
   18.65944481   -1.00000000    4.90999985    1.55999994
   18.66250038   -1.00000000    4.90999985    1.60000002
   18.66583252   -1.00000000    4.90999985    1.60000002
   18.66888809   -1.00000000    4.90999985    1.55999994
   18.67361069   -1.00000000    4.90999985    1.46000004
   18.67777634   -1.00000000    4.90999985    1.39999998
   18.68111038   -1.00000000    4.90999985    1.41999996
   18.68416595   -1.00000000    4.90999985    1.48000002
   18.68750000   -1.00000000    4.90999985    1.55999994
   18.69083214   -1.00000000    4.90999985    1.63000000
   18.69388771   -1.00000000    4.90999985    1.44000006
   18.69722176   -1.00000000    4.90999985    1.58000004
   18.70055580   -1.00000000    4.90999985    1.64999998
   18.70361137   -1.00000000    4.90999985    1.60000002
   18.70722389   -1.00000000    4.90999985    1.53999996
   18.71055603   -1.00000000    4.90999985    1.50000000
   18.71361160   -1.00000000    4.90999985    1.48000002
   18.71694565   -1.00000000    4.90999985    1.48000002
   18.72027779   -1.00000000    4.90999985    1.48000002
   18.72888947   -1.00000000    4.90999985    1.51999998
   18.73222351   -1.00000000    4.90999985    1.50000000
   18.73527718   -1.00000000    4.90999985    1.55999994
   18.73861122   -1.00000000    4.90999985    1.50000000
   18.74194527   -1.00000000    4.90999985    1.50000000
   18.74500084   -1.00000000    4.90999985    1.53999996
   18.74833298   -1.00000000    4.90999985    1.51999998
   18.75166702   -1.00000000    4.90999985    1.53999996
   18.75472260   -1.00000000    4.90999985    1.53999996
   18.75833321   -1.00000000    4.90999985    1.53999996
   18.76166725   -1.00000000    4.90999985    1.53999996
   18.76472282   -1.00000000    4.90999985    1.50000000
   18.76805496   -1.00000000    4.90999985    1.55999994
   18.77138901   -1.00000000    4.90999985    1.51999998
   18.77611160   -1.00000000    4.90999985    1.51999998
   18.78027725   -1.00000000    4.90999985    1.50000000
   18.78333282   -1.00000000    4.90999985    1.48000002
   18.78666687   -1.00000000    4.90999985    1.46000004
   18.78999901   -1.00000000    4.90999985    1.46000004
   18.79305458   -1.00000000    4.90999985    1.50000000
   18.79638863   -1.00000000    4.90999985    1.50000000
   18.79972076   -1.00000000    4.90999985    1.48000002
   18.80277634   -1.00000000    4.90999985    1.46000004
   18.80611038   -1.00000000    4.90999985    1.48000002
   18.80972099   -1.00000000    4.90999985    1.46000004
   18.81305504   -1.00000000    4.90999985    1.48000002
   18.81611061   -1.00000000    4.90999985    1.48000002
   18.81944466   -1.00000000    4.90999985    1.48000002
   18.82250023   -1.00000000    4.90999985    1.50000000
   18.83139038   -1.00000000    4.90999985    1.50000000
   18.83444595   -1.00000000    4.90999985    1.48000002
   18.83777809   -1.00000000    4.90999985    1.51999998
   18.84111214   -1.00000000    4.90999985    1.51999998
   18.84416771   -1.00000000    4.90999985    1.53999996
   18.84749985   -1.00000000    4.90999985    1.55999994
   18.85055542   -1.00000000    4.90999985    1.53999996
   18.85388947   -1.00000000    4.90999985    1.55999994
   18.85750008   -1.00000000    4.90999985    1.55999994
   18.86083412   -1.00000000    4.90999985    1.55999994
   18.86388969   -1.00000000    4.90999985    1.60000002
   18.86722183   -1.00000000    4.90999985    1.61000001
   18.87055588   -1.00000000    4.90999985    1.61000001
   18.87361145   -1.00000000    4.90999985    1.58000004
   18.87833405   -1.00000000    4.90999985    1.58000004
   18.88249969   -1.00000000    4.90999985    1.55999994
   18.88583374   -1.00000000    4.90999985    1.51999998
   18.88888931   -1.00000000    4.90999985    1.50000000
   18.89222145   -1.00000000    4.90999985    1.46000004
   18.89555550   -1.00000000    4.90999985    1.46000004
   18.89861107   -1.00000000    4.90999985    1.46000004
   18.90194321   -1.00000000    4.90999985    1.44000006
   18.90527725   -1.00000000    4.90999985    1.41999996
   18.90861130   -1.00000000    4.90999985    1.41999996
   18.91194344   -1.00000000    4.90999985    1.39999998
   18.91499901   -1.00000000    4.90999985    1.39999998
   18.91833305   -1.00000000    4.90999985    1.41999996
   18.92166519   -1.00000000    4.90999985    1.39999998
   18.92472076   -1.00000000    4.90999985    1.39999998
   18.93361092   -1.00000000    4.90999985    1.38000000
   18.93694305   -1.00000000    4.90999985    1.34000003
   18.93999863   -1.00000000    4.90999985    1.34000003
   18.94333267   -1.00000000    4.90999985    1.34000003
   18.94666672   -1.00000000    4.90999985    1.33000004
   18.94972038   -1.00000000    4.90999985    1.33000004
   18.95305634   -1.00000000    4.90999985    1.30999994
   18.95639038   -1.00000000    4.90999985    1.30999994
   18.96000099   -1.00000000    4.90999985    1.30999994
   18.96305656   -1.00000000    4.90999985    1.26999998
   18.96638870   -1.00000000    4.90999985    1.25000000
   18.96972275   -1.00000000    4.90999985    1.23000002
   18.97277832   -1.00000000    4.90999985    1.21000004
   18.97611237   -1.00000000    4.90999985    1.21000004
   18.98472214   -1.00000000    4.90999985    1.23000002
   18.98805618   -1.00000000    4.90999985    1.23000002
   18.99138832   -1.00000000    4.90999985    1.23000002
   18.99444389   -1.00000000    4.90999985    1.19000006
   18.99777794   -1.00000000    4.90999985    1.16999996
   19.00083351   -1.00000000    4.90999985    1.16999996
   19.00416756   -1.00000000    4.90999985    1.14999998
   19.00777817   -1.00000000    4.90999985    1.13000000
   19.01083374   -1.00000000    4.90999985    1.13000000
   19.01416588   -1.00000000    4.90999985    1.11000001
   19.01749992   -1.00000000    4.90999985    1.11000001
   19.02055550   -1.00000000    4.90999985    1.09000003
   19.02388954   -1.00000000    4.90999985    1.11000001
   19.02722168   -1.00000000    4.90999985    1.09000003
   19.03610992   -1.00000000    4.90999985    1.11000001
   19.03916550   -1.00000000    4.90999985    1.09000003
   19.04249954   -1.00000000    4.90999985    1.09000003
   19.04555511   -1.00000000    4.90999985    1.09000003
   19.04888916   -1.00000000    4.90999985    1.07000005
   19.05222130   -1.00000000    4.90999985    1.07000005
   19.05527687   -1.00000000    4.90999985    1.05999994
   19.05888748   -1.00000000    4.90999985    1.05999994
   19.06194305   -1.00000000    4.90999985    1.07000005
   19.06527710   -1.00000000    4.90999985    1.05999994
   19.06861115   -1.00000000    4.90999985    1.03999996
   19.07166672   -1.00000000    4.90999985    1.03999996
   19.07500076   -1.00000000    4.90999985    1.03999996
   19.07833481   -1.00000000    4.90999985    1.05999994
   19.08722305   -1.00000000    4.90999985    1.07000005
   19.09027863   -1.00000000    4.90999985    1.09000003
   19.09361267   -1.00000000    4.90999985    1.07000005
   19.09694481   -1.00000000    4.90999985    1.09000003
   19.10000038   -1.00000000    4.90999985    1.11000001
   19.10333443   -1.00000000    4.90999985    1.11000001
   19.10666656   -1.00000000    4.90999985    1.07000005
   19.11027908   -1.00000000    4.90999985    1.07000005
   19.11333466   -1.00000000    4.90999985    1.09000003
   19.11666679   -1.00000000    4.90999985    1.09000003
   19.12000084   -1.00000000    4.90999985    1.07000005
   19.12305641   -1.00000000    4.90999985    1.09000003
   19.12638855   -1.00000000    4.90999985    1.09000003
   19.12972260   -1.00000000    4.90999985    1.13000000
   19.13833237   -1.00000000    4.90999985    1.07000005
   19.14166641   -1.00000000    4.90999985    1.03999996
   19.14472198   -1.00000000    4.90999985    1.09000003
   19.14805603   -1.00000000    4.90999985    1.07000005
   19.15138817   -1.00000000    4.90999985    1.05999994
   19.15444374   -1.00000000    4.90999985    1.05999994
   19.15805435   -1.00000000    4.90999985    1.03999996
   19.16110992   -1.00000000    4.90999985    1.00000000
   19.16444397   -1.00000000    4.90999985    1.01999998
   19.16777802   -1.00000000    4.90999985    1.00000000
   19.17083359   -1.00000000    4.90999985    0.98000002
   19.17416573   -1.00000000    4.90999985    0.95999998
   19.17749977   -1.00000000    4.90999985    0.94000000
   19.18055534   -1.00000000    4.90999985    0.92000002
   19.18944359   -1.00000000    4.90999985    0.89999998
   19.19277763   -1.00000000    4.90999985    0.88000000
   19.19610977   -1.00000000    4.90999985    0.88000000
   19.19916534   -1.00000000    4.90999985    0.88000000
   19.20250130   -1.00000000    4.90999985    0.88000000
   19.20555687   -1.00000000    4.90999985    0.88000000
   19.20916748   -1.00000000    4.90999985    0.88000000
   19.21250153   -1.00000000    4.90999985    0.86000001
   19.21555710   -1.00000000    4.90999985    0.81999999
   19.21888924   -1.00000000    4.90999985    0.81999999
   19.22194481   -1.00000000    4.90999985    0.80000001
   19.22527885   -1.00000000    4.90999985    0.80000001
   19.22861099   -1.00000000    4.90999985    0.80000001
   19.23166656   -1.00000000    4.90999985    0.80000001
   19.24083328   -1.00000000    4.90999985    0.79000002
   19.24388885   -1.00000000    4.90999985    0.79000002
   19.24722290   -1.00000000    4.90999985    0.79000002
   19.25027847   -1.00000000    4.90999985    0.76999998
   19.25361061   -1.00000000    4.90999985    0.79000002
   19.25694466   -1.00000000    4.90999985    0.79000002
   19.26055527   -1.00000000    4.90999985    0.79000002
   19.26388931   -1.00000000    4.90999985    0.80000001
   19.26694489   -1.00000000    4.90999985    0.81999999
   19.27027702   -1.00000000    4.90999985    0.81999999
   19.27333260   -1.00000000    4.90999985    0.81999999
   19.27666664   -1.00000000    4.90999985    0.81999999
   19.28000069   -1.00000000    4.90999985    0.83999997
   19.28305435   -1.00000000    4.90999985    0.83999997
   19.29194450   -1.00000000    4.90999985    0.83999997
   19.29500008   -1.00000000    4.90999985    0.80000001
   19.29833221   -1.00000000    4.90999985    0.80000001
   19.30166626   -1.00000000    4.90999985    0.80000001
   19.30472183   -1.00000000    4.90999985    0.80000001
   19.30833244   -1.00000000    4.90999985    0.80000001
   19.31166649   -1.00000000    4.90999985    0.79000002
   19.31472206   -1.00000000    4.90999985    0.79000002
   19.31805611   -1.00000000    4.90999985    0.79000002
   19.32111168   -1.00000000    4.90999985    0.75000000
   19.32444572   -1.00000000    4.90999985    0.75000000
   19.32777786   -1.00000000    4.90999985    0.73000002
   19.33083344   -1.00000000    4.90999985    0.73000002
   19.33416748   -1.00000000    4.90999985    0.73000002
   19.34305573   -1.00000000    4.90999985    0.70999998
   19.34638977   -1.00000000    4.90999985    0.70999998
   19.34944534   -1.00000000    4.90999985    0.70999998
   19.35277748   -1.00000000    4.90999985    0.70999998
   19.35611153   -1.00000000    4.90999985    0.73000002
   19.37555504   -1.00000000    4.90999985    0.75000000
   19.37888908   -1.00000000    4.90999985    0.79000002
   19.38194466   -1.00000000    4.90999985    0.76999998
   19.38527679   -1.00000000    4.90999985    0.79000002
   19.39416695   -1.00000000    4.90999985    0.79000002
   19.39749908   -1.00000000    4.90999985    0.79000002
   19.40083313   -1.00000000    4.90999985    0.79000002
   19.40388870   -1.00000000    4.90999985    0.79000002
   19.40722275   -1.00000000    4.90999985    0.79000002
   19.41055489   -1.00000000    4.90999985    0.80000001
   19.41361046   -1.00000000    4.90999985    0.81999999
   19.41694450   -1.00000000    4.90999985    0.81999999
   19.42000008   -1.00000000    4.90999985    0.83999997
   19.42361069   -1.00000000    4.90999985    0.83999997
   19.42694473   -1.00000000    4.90999985    0.86000001
   19.43000031   -1.00000000    4.90999985    0.83999997
   19.43333244   -1.00000000    4.90999985    0.86000001
   19.43666649   -1.00000000    4.90999985    0.86000001
   19.44555473   -1.00000000    4.90999985    0.86000001
   19.44861031   -1.00000000    4.90999985    0.86000001
   19.45194435   -1.00000000    4.90999985    0.88000000
   19.45527840   -1.00000000    4.90999985    0.89999998
   19.45833397   -1.00000000    4.90999985    0.89999998
   19.46166801   -1.00000000    4.90999985    0.89999998
   19.46472359   -1.00000000    4.90999985    0.88000000
   19.46805573   -1.00000000    4.90999985    0.89999998
   19.47138977   -1.00000000    4.90999985    0.89999998
   19.47472191   -1.00000000    4.90999985    0.88000000
   19.47805595   -1.00000000    4.90999985    0.88000000
   19.48139000   -1.00000000    4.90999985    0.88000000
   19.48444557   -1.00000000    4.90999985    0.89999998
   19.48777771   -1.00000000    4.90999985    0.89999998
   19.49666786   -1.00000000    4.90999985    0.89999998
   19.49972153   -1.00000000    4.90999985    0.88000000
   19.50305557   -1.00000000    4.90999985    0.88000000
   19.50638962   -1.00000000    4.90999985    0.88000000
   19.50944519   -1.00000000    4.90999985    0.88000000
   19.51277733   -1.00000000    4.90999985    0.89999998
   19.51611137   -1.00000000    4.90999985    0.89999998
   19.51916695   -1.00000000    4.90999985    0.89999998
   19.52249908   -1.00000000    4.90999985    0.89999998
   19.52583313   -1.00000000    4.90999985    0.94000000
   19.52916718   -1.00000000    4.90999985    0.94000000
   19.53249931   -1.00000000    4.90999985    0.94000000
   19.53555489   -1.00000000    4.90999985    0.94000000
   19.53888893   -1.00000000    4.90999985    0.95999998
   19.54777718   -1.00000000    4.90999985    0.98000002
   19.55111122   -1.00000000    4.90999985    0.98000002
   19.55416679   -1.00000000    4.90999985    0.95999998
   19.55749893   -1.00000000    4.90999985    0.95999998
   19.56083298   -1.00000000    4.90999985    0.98000002
   19.56388855   -1.00000000    4.90999985    0.95999998
   19.56722260   -1.00000000    4.90999985    0.98000002
   19.57055664   -1.00000000    4.90999985    0.95999998
   19.57416725   -1.00000000    4.90999985    0.94000000
   19.57722282   -1.00000000    4.90999985    0.95999998
   19.58055687   -1.00000000    4.90999985    0.94000000
   19.58361244   -1.00000000    4.90999985    0.92000002
   19.58694458   -1.00000000    4.90999985    0.92000002
   19.59027863   -1.00000000    4.90999985    0.92000002
   19.59889030   -1.00000000    4.90999985    0.98000002
   19.60222244   -1.00000000    4.90999985    0.98000002
   19.60555649   -1.00000000    4.90999985    0.98000002
   19.60861206   -1.00000000    4.90999985    0.98000002
   19.61194420   -1.00000000    4.90999985    1.00000000
   19.61527824   -1.00000000    4.90999985    1.00000000
   19.61833382   -1.00000000    4.90999985    1.00000000
   19.62166595   -1.00000000    4.90999985    0.98000002
   19.62527847   -1.00000000    4.90999985    0.98000002
   19.62833405   -1.00000000    4.90999985    0.98000002
   19.63166618   -1.00000000    4.90999985    1.00000000
   19.63472176   -1.00000000    4.90999985    1.00000000
   19.63805580   -1.00000000    4.90999985    0.98000002
   19.64138794   -1.00000000    4.90999985    0.98000002
   19.65027809   -1.00000000    4.90999985    1.01999998
   19.65333366   -1.00000000    4.90999985    1.00000000
   19.65666580   -1.00000000    4.90999985    0.98000002
   19.65972137   -1.00000000    4.90999985    0.98000002
   19.66305542   -1.00000000    4.90999985    0.98000002
   19.66638756   -1.00000000    4.90999985    0.98000002
   19.66944313   -1.00000000    4.90999985    0.98000002
   19.67277718   -1.00000000    4.90999985    0.98000002
   19.67611122   -1.00000000    4.90999985    0.98000002
   19.67944336   -1.00000000    4.90999985    0.98000002
   19.68249893   -1.00000000    4.90999985    0.95999998
   19.68583298   -1.00000000    4.90999985    0.98000002
   19.68916512   -1.00000000    4.90999985    0.98000002
   19.69222069   -1.00000000    4.90999985    1.00000000
   19.70138931   -1.00000000    4.90999985    1.01999998
   19.70444489   -1.00000000    4.90999985    1.01999998
   19.70777893   -1.00000000    4.90999985    1.01999998
   19.71111107   -1.00000000    4.90999985    1.03999996
   19.71416664   -1.00000000    4.90999985    1.03999996
   19.71750069   -1.00000000    4.90999985    1.03999996
   19.72083473   -1.00000000    4.90999985    1.05999994
   19.72416687   -1.00000000    4.90999985    1.05999994
   19.72750092   -1.00000000    4.90999985    1.03999996
   19.73055649   -1.00000000    4.90999985    1.03999996
   19.73388863   -1.00000000    4.90999985    1.09000003
   19.73722267   -1.00000000    4.90999985    1.05999994
   19.74027824   -1.00000000    4.90999985    1.05999994
   19.74361229   -1.00000000    4.90999985    1.05999994
   19.75250053   -1.00000000    4.90999985    1.05999994
   19.75583267   -1.00000000    4.90999985    1.03999996
   19.75888824   -1.00000000    4.90999985    1.03999996
   19.76222229   -1.00000000    4.90999985    1.01999998
   19.76555634   -1.00000000    4.90999985    1.03999996
   19.76861000   -1.00000000    4.90999985    1.01999998
   19.77194405   -1.00000000    4.90999985    1.01999998
   19.77527809   -1.00000000    4.90999985    1.05999994
   19.77861023   -1.00000000    4.90999985    1.03999996
   19.78194427   -1.00000000    4.90999985    1.01999998
   19.78499985   -1.00000000    4.90999985    1.01999998
   19.78833199   -1.00000000    4.90999985    1.01999998
   19.79138756   -1.00000000    4.90999985    1.01999998
   19.79472160   -1.00000000    4.90999985    1.03999996
   19.80360985   -1.00000000    4.90999985    1.01999998
   19.80694389   -1.00000000    4.90999985    1.01999998
   19.81027794   -1.00000000    4.90999985    1.00000000
   19.81333351   -1.00000000    4.90999985    1.01999998
   19.81666756   -1.00000000    4.90999985    1.00000000
   19.82000160   -1.00000000    4.90999985    1.01999998
   19.82305717   -1.00000000    4.90999985    1.03999996
   19.82694626   -1.00000000    4.90999985    1.03999996
   19.83000183   -1.00000000    4.90999985    1.05999994
   19.83333397   -1.00000000    4.90999985    1.05999994
   19.83638954   -1.00000000    4.90999985    1.05999994
   19.83972359   -1.00000000    4.90999985    1.07000005
   19.84305573   -1.00000000    4.90999985    1.05999994
   19.84611130   -1.00000000    4.90999985    1.05999994
   19.85499954   -1.00000000    4.90999985    1.01999998
   19.85805511   -1.00000000    4.90999985    1.00000000
   19.86138916   -1.00000000    4.90999985    1.00000000
   19.86444473   -1.00000000    4.90999985    0.98000002
   19.86777878   -1.00000000    4.90999985    0.98000002
   19.87111092   -1.00000000    4.90999985    0.95999998
   19.87472153   -1.00000000    4.90999985    0.95999998
   19.87777710   -1.00000000    4.90999985    0.95999998
   19.88111115   -1.00000000    4.90999985    0.94000000
   19.88416672   -1.00000000    4.90999985    0.94000000
   19.88750076   -1.00000000    4.90999985    0.89999998
   19.89083290   -1.00000000    4.90999985    0.89999998
   19.89388847   -1.00000000    4.90999985    0.89999998
   19.89722252   -1.00000000    4.90999985    0.88000000
   19.90611076   -1.00000000    4.90999985    0.83999997
   19.90916634   -1.00000000    4.90999985    0.83999997
   19.91250038   -1.00000000    4.90999985    0.83999997
   19.91583252   -1.00000000    4.90999985    0.81999999
   19.91888809   -1.00000000    4.90999985    0.81999999
   19.92222214   -1.00000000    4.90999985    0.81999999
   19.92583275   -1.00000000    4.90999985    0.81999999
   19.92888832   -1.00000000    4.90999985    0.81999999
   19.93222237   -1.00000000    4.90999985    0.81999999
   19.93555450   -1.00000000    4.90999985    0.81999999
   19.93861008   -1.00000000    4.90999985    0.81999999
   19.94194412   -1.00000000    4.90999985    0.81999999
   19.94499969   -1.00000000    4.90999985    0.80000001
   19.94833183   -1.00000000    4.90999985    0.81999999
   19.95722389   -1.00000000    4.90999985    0.83999997
   19.96055603   -1.00000000    4.90999985    0.83999997
   19.96361160   -1.00000000    4.90999985    0.83999997
   19.96694565   -1.00000000    4.90999985    0.83999997
   19.97027779   -1.00000000    4.90999985    0.83999997
   19.97333336   -1.00000000    4.90999985    0.83999997
   19.97694588   -1.00000000    4.90999985    0.83999997
   19.98027802   -1.00000000    4.90999985    0.86000001
   19.98361206   -1.00000000    4.90999985    0.83999997
   19.98666763   -1.00000000    4.90999985    0.86000001
   19.98999977   -1.00000000    4.90999985    0.88000000
   19.99333382   -1.00000000    4.90999985    0.88000000
   19.99638939   -1.00000000    4.90999985    0.88000000
   19.99972153   -1.00000000    4.90999985    0.88000000
   20.00833321   -1.00000000    4.90999985    0.92000002
   20.01166725   -1.00000000    4.90999985    0.94000000
   20.01499939   -1.00000000    4.90999985    0.94000000
   20.01805496   -1.00000000    4.90999985    0.92000002
   20.02138901   -1.00000000    4.90999985    0.92000002
   20.02472115   -1.00000000    4.90999985    0.92000002
   20.02805519   -1.00000000    4.90999985    0.92000002
   20.03138924   -1.00000000    4.90999985    0.94000000
   20.03444481   -1.00000000    4.90999985    0.94000000
   20.03777695   -1.00000000    4.90999985    0.94000000
   20.04111099   -1.00000000    4.90999985    0.98000002
   20.04416656   -1.00000000    4.90999985    0.98000002
   20.04749870   -1.00000000    4.90999985    0.98000002
   20.05055428   -1.00000000    4.90999985    0.94000000
   20.05972099   -1.00000000    4.90999985    0.98000002
   20.06277657   -1.00000000    4.90999985    0.95999998
   20.06611061   -1.00000000    4.90999985    0.95999998
   20.06916809   -1.00000000    4.90999985    0.94000000
   20.07250023   -1.00000000    4.90999985    0.92000002
   20.07611275   -1.00000000    4.90999985    0.92000002
   20.07916832   -1.00000000    4.90999985    0.89999998
   20.08250046   -1.00000000    4.90999985    0.88000000
   20.08555603   -1.00000000    4.90999985    0.88000000
   20.08889008   -1.00000000    4.90999985    0.86000001
   20.09222221   -1.00000000    4.90999985    0.86000001
   20.09527779   -1.00000000    4.90999985    0.86000001
   20.09861183   -1.00000000    4.90999985    0.88000000
   20.10194397   -1.00000000    4.90999985    0.86000001
   20.11083412   -1.00000000    4.90999985    0.94000000
   20.11388969   -1.00000000    4.90999985    0.94000000
   20.11722183   -1.00000000    4.90999985    0.95999998
   20.12055588   -1.00000000    4.90999985    1.00000000
   20.12361145   -1.00000000    4.90999985    1.01999998
   20.12750053   -1.00000000    4.90999985    1.03999996
   20.13055611   -1.00000000    4.90999985    1.03999996
   20.13388824   -1.00000000    4.90999985    1.05999994
   20.13694382   -1.00000000    4.90999985    1.07000005
   20.14027786   -1.00000000    4.90999985    1.09000003
   20.14361191   -1.00000000    4.90999985    1.09000003
   20.14666748   -1.00000000    4.90999985    1.13000000
   20.14999962   -1.00000000    4.90999985    1.14999998
   20.15333366   -1.00000000    4.90999985    1.16999996
   20.16194344   -1.00000000    4.90999985    1.16999996
   20.16527748   -1.00000000    4.90999985    1.19000006
   20.16833305   -1.00000000    4.90999985    1.21000004
   20.17166519   -1.00000000    4.90999985    1.21000004
   20.17527771   -1.00000000    4.90999985    1.19000006
   20.17833328   -1.00000000    4.90999985    1.16999996
   20.18166542   -1.00000000    4.90999985    1.14999998
   20.18472099   -1.00000000    4.90999985    1.13000000
   20.18805504   -1.00000000    4.90999985    1.14999998
   20.19138718   -1.00000000    4.90999985    1.14999998
   20.19444275   -1.00000000    4.90999985    1.14999998
   20.19777679   -1.00000000    4.90999985    1.19000006
   20.20111275   -1.00000000    4.90999985    1.23000002
   20.20416832   -1.00000000    4.90999985    1.26999998
   20.21305656   -1.00000000    4.90999985    1.36000001
   20.21638870   -1.00000000    4.90999985    1.44000006
   20.21972275   -1.00000000    4.90999985    1.50000000
   20.22277832   -1.00000000    4.90999985    1.55999994
   20.22638893   -1.00000000    4.90999985    1.60000002
   20.22944450   -1.00000000    4.90999985    1.63000000
   20.23277855   -1.00000000    4.90999985    1.64999998
   20.23611069   -1.00000000    4.90999985    1.63000000
   20.23916626   -1.00000000    4.90999985    1.60000002
   20.24250031   -1.00000000    4.90999985    1.51999998
   20.24583435   -1.00000000    4.90999985    1.50000000
   20.24888992   -1.00000000    4.90999985    1.44000006
   20.25222206   -1.00000000    4.90999985    1.38000000
   20.25527763   -1.00000000    4.90999985    1.33000004
   20.26444435   -1.00000000    4.90999985    1.23000002
   20.26749992   -1.00000000    4.90999985    1.19000006
   20.27083397   -1.00000000    4.90999985    1.16999996
   20.27388954   -1.00000000    4.90999985    1.14999998
   20.27777672   -1.00000000    4.90999985    1.14999998
   20.28083229   -1.00000000    4.90999985    1.14999998
   20.28416634   -1.00000000    4.90999985    1.14999998
   20.28750038   -1.00000000    4.90999985    1.16999996
   20.29055595   -1.00000000    4.90999985    1.16999996
   20.29388809   -1.00000000    4.90999985    1.14999998
   20.29694366   -1.00000000    4.90999985    1.16999996
   20.30027771   -1.00000000    4.90999985    1.14999998
   20.30360985   -1.00000000    4.90999985    1.16999996
   20.30666542   -1.00000000    4.90999985    1.14999998
   20.31555557   -1.00000000    4.90999985    1.14999998
   20.31861115   -1.00000000    4.90999985    1.13000000
   20.32194519   -1.00000000    4.90999985    1.11000001
   20.32555580   -1.00000000    4.90999985    1.13000000
   20.32861137   -1.00000000    4.90999985    1.11000001
   20.33194542   -1.00000000    4.90999985    1.07000005
   20.33527756   -1.00000000    4.90999985    1.05999994
   20.33833313   -1.00000000    4.90999985    1.01999998
   20.34166718   -1.00000000    4.90999985    0.98000002
   20.34500122   -1.00000000    4.90999985    0.95999998
   20.34805679   -1.00000000    4.90999985    0.94000000
   20.35138893   -1.00000000    4.90999985    0.92000002
   20.35444450   -1.00000000    4.90999985    0.89999998
   20.35777855   -1.00000000    4.90999985    0.89999998
   20.36666679   -1.00000000    4.90999985    0.83999997
   20.37000084   -1.00000000    4.90999985    0.83999997
   20.37305641   -1.00000000    4.90999985    0.81999999
   20.39305496   -1.00000000    4.90999985    0.86000001
   20.39638901   -1.00000000    4.90999985    0.86000001
   20.39944458   -1.00000000    4.90999985    0.86000001
   20.40277672   -1.00000000    4.90999985    0.86000001
   20.40611076   -1.00000000    4.90999985    0.86000001
   20.40916634   -1.00000000    4.90999985    0.83999997
   20.41805458   -1.00000000    4.90999985    0.83999997
   20.42111015   -1.00000000    4.90999985    0.83999997
   20.42444420   -1.00000000    4.90999985    0.86000001
   20.42777634   -1.00000000    4.90999985    0.86000001
   20.43083191   -1.00000000    4.90999985    0.86000001
   20.43416595   -1.00000000    4.90999985    0.86000001
   20.43750000   -1.00000000    4.90999985    0.83999997
   20.44111061   -1.00000000    4.90999985    0.83999997
   20.44416618   -1.00000000    4.90999985    0.81999999
   20.44749832   -1.00000000    4.90999985    0.81999999
   20.45083427   -1.00000000    4.90999985    0.80000001
   20.45388985   -1.00000000    4.90999985    0.79000002
   20.45722389   -1.00000000    4.90999985    0.79000002
   20.46055603   -1.00000000    4.90999985    0.75000000
   20.46916771   -1.00000000    4.90999985    0.70999998
   20.47249985   -1.00000000    4.90999985    0.70999998
   20.47555542   -1.00000000    4.90999985    0.69000000
   20.47888947   -1.00000000    4.90999985    0.69000000
   20.48222351   -1.00000000    4.90999985    0.69000000
   20.48527718   -1.00000000    4.90999985    0.69000000
   20.48861122   -1.00000000    4.90999985    0.69000000
   20.49222183   -1.00000000    4.90999985    0.69000000
   20.49527740   -1.00000000    4.90999985    0.70999998
   20.49861145   -1.00000000    4.90999985    0.70999998
   20.50194359   -1.00000000    4.90999985    0.73000002
   20.50499916   -1.00000000    4.90999985    0.75000000
   20.50833321   -1.00000000    4.90999985    0.73000002
   20.51166725   -1.00000000    4.90999985    0.75000000
   20.52055550   -1.00000000    4.90999985    0.79000002
   20.52388954   -1.00000000    4.90999985    0.80000001
   20.52722168   -1.00000000    4.90999985    0.81999999
   20.53027725   -1.00000000    4.90999985    0.80000001
   20.53361130   -1.00000000    4.90999985    0.80000001
   20.53694344   -1.00000000    4.90999985    0.80000001
   20.54055595   -1.00000000    4.90999985    0.80000001
   20.54361153   -1.00000000    4.90999985    0.80000001
   20.54694366   -1.00000000    4.90999985    0.79000002
   20.55027771   -1.00000000    4.90999985    0.79000002
   20.55333328   -1.00000000    4.90999985    0.76999998
   20.55666542   -1.00000000    4.90999985    0.76999998
   20.55999947   -1.00000000    4.90999985    0.76999998
   20.56305504   -1.00000000    4.90999985    0.76999998
   20.57166672   -1.00000000    4.90999985    0.75000000
   20.57472229   -1.00000000    4.90999985    0.75000000
   20.57805634   -1.00000000    4.90999985    0.75000000
   20.58111191   -1.00000000    4.90999985    0.75000000
   20.58444595   -1.00000000    4.90999985    0.73000002
   20.58777809   -1.00000000    4.90999985    0.73000002
   20.59138870   -1.00000000    4.90999985    0.75000000
   20.59444427   -1.00000000    4.90999985    0.75000000
   20.59777832   -1.00000000    4.90999985    0.76999998
   20.60111237   -1.00000000    4.90999985    0.76999998
   20.60416794   -1.00000000    4.90999985    0.79000002
   20.60750008   -1.00000000    4.90999985    0.81999999
   20.61083412   -1.00000000    4.90999985    0.83999997
   20.61388969   -1.00000000    4.90999985    0.86000001
   20.62277794   -1.00000000    4.90999985    0.92000002
   20.62583351   -1.00000000    4.90999985    0.92000002
   20.62916756   -1.00000000    4.90999985    0.95999998
   20.63249969   -1.00000000    4.90999985    0.95999998
   20.63555527   -1.00000000    4.90999985    0.95999998
   20.63888931   -1.00000000    4.90999985    0.98000002
   20.64249992   -1.00000000    4.90999985    0.95999998
   20.64583397   -1.00000000    4.90999985    0.94000000
   20.64888954   -1.00000000    4.90999985    0.94000000
   20.65222168   -1.00000000    4.90999985    0.92000002
   20.65527725   -1.00000000    4.90999985    0.94000000
   20.65861130   -1.00000000    4.90999985    0.94000000
   20.66194344   -1.00000000    4.90999985    0.95999998
   20.66499901   -1.00000000    4.90999985    1.00000000
   20.67388916   -1.00000000    4.90999985    1.13000000
   20.67722130   -1.00000000    4.90999985    1.19000006
   20.68027687   -1.00000000    4.90999985    1.21000004
   20.68361092   -1.00000000    4.90999985    1.23000002
   20.68694305   -1.00000000    4.90999985    1.28999996
   20.68999863   -1.00000000    4.90999985    1.30999994
   20.69361115   -1.00000000    4.90999985    1.33000004
   20.69694328   -1.00000000    4.90999985    1.34000003
   20.70027924   -1.00000000    4.90999985    1.34000003
   20.70333481   -1.00000000    4.90999985    1.36000001
   20.70666695   -1.00000000    4.90999985    1.41999996
   20.71000099   -1.00000000    4.90999985    1.51999998
   20.71305656   -1.00000000    4.90999985    1.60000002
   20.71638870   -1.00000000    4.90999985    1.64999998
   20.72111130   -1.00000000    4.90999985    1.73000002
   20.72527885   -1.00000000    4.90999985    1.50000000
   20.72833443   -1.00000000    4.90999985    1.34000003
   20.73166656   -1.00000000    4.90999985    1.39999998
   20.73500061   -1.00000000    4.90999985    1.50000000
   20.73805618   -1.00000000    4.90999985    1.55999994
   20.74166679   -1.00000000    4.90999985    1.55999994
   20.74500084   -1.00000000    4.90999985    1.58000004
   20.74833298   -1.00000000    4.90999985    1.63000000
   20.75138855   -1.00000000    4.90999985    1.66999996
   20.75472260   -1.00000000   -1.00000000   -1.00000000
   20.75805473   -1.00000000   -1.00000000   -1.00000000
   20.76111031   -1.00000000   -1.00000000   -1.00000000
   20.76444435   46.33300018    4.90999985    1.78999996
   20.76777840  215.41200256    4.90999985    1.78999996
   20.77222252  215.41200256    4.90999985    1.91999996
   20.77638817  237.76100159    4.90999985    1.98000002
   20.77972221  144.86399841    4.90999985    1.96000004
   20.78277779  203.48300171    4.90999985    2.00000000
   20.78610992  113.63400269    4.90999985    2.03999996
   20.78916550  130.28700256    4.90999985    2.15000010
   20.79055595  112.19599915    4.90999985    2.17000008
   20.79305458   96.69930267    4.90999985    2.17000008
   20.79611015  161.23300171    4.90999985    2.21000004
   20.79944420  159.58900452    4.90999985    2.11999989
   20.80277634  170.40600586    4.90999985    2.00000000
   20.80583191   -1.00000000   -1.00000000   -1.00000000
   20.80916595   -1.00000000    4.90999985    1.66999996
   20.81250000   -1.00000000    4.90999985    1.61000001
   20.81555557   -1.00000000    4.90999985    1.66999996
   20.81888962   -1.00000000    4.90999985    1.66999996
   20.82333374   -1.00000000    4.90999985    1.51999998
   20.82750130   -1.00000000    4.90999985    1.58000004
   20.83083344   -1.00000000    4.90999985    1.51999998
   20.83388901   -1.00000000    4.90999985    1.30999994
   20.83722305   -1.00000000    4.90999985    1.16999996
   20.84055710   -1.00000000    4.90999985    1.26999998
   20.84416771   -1.00000000    4.90999985    1.16999996
   20.84749985   -1.00000000    4.90999985    1.25000000
   20.85055542   -1.00000000    4.90999985    1.34000003
   20.85388947   -1.00000000    4.90999985    1.48000002
   20.85694504   -1.00000000    4.90999985    1.50000000
   20.86027908   -1.00000000    4.90999985    1.46000004
   20.86361122   -1.00000000    4.90999985    1.55999994
   20.86666679   -1.00000000    4.90999985    1.51999998
   20.87000084  129.25799561    4.90999985    1.63000000
   20.87444496  129.25799561    4.90999985    1.63000000
   20.87861061  174.74200439    4.90999985    1.80999994
   20.88194466   -1.00000000    4.90999985    1.78999996
   20.88527679   81.02149963    4.90999985    1.76999998
   20.88833237  206.92799377    4.90999985    1.98000002
   20.89111137   97.70179749    4.90999985    2.13000011
   20.89194489  100.72000122    4.90999985    2.19000006
   20.89527702   90.96219635    4.90999985    2.32999992
   20.89861107   86.59339905    4.90999985    2.34999990
   20.90166664  134.01699829    4.90999985    2.34999990
   20.90499878  136.43099976    4.90999985    2.25000000
   20.90805435  345.29998779    4.90999985    2.21000004
   20.91138840   92.79789734    4.90999985    2.03999996
   20.91472244   -1.00000000    4.90999985    1.71000004
   20.91777802   -1.00000000    4.90999985    1.69000006
   20.92111015   -1.00000000    4.90999985    1.53999996
   20.92583275   -1.00000000    4.90999985    1.63000000
   20.93000031   -1.00000000    4.90999985    1.78999996
   20.93305397  178.67399597    4.90999985    1.85000002
   20.93638802  402.72900391    4.90999985    1.98000002
   20.93833160   -1.00000000    4.90999985    1.53999996
   20.93861008   -1.00000000    4.90999985    1.78999996
   20.93861008  178.67399597    4.90999985    1.85000002
   20.93861008  402.72900391    4.90999985    1.98000002
   20.93888855  136.43099976    4.90999985    2.25000000
   20.93888855  345.29998779    4.90999985    2.21000004
   20.93888855   92.79789734    4.90999985    2.03999996
   20.93916512   -1.00000000    4.90999985    1.71000004
   20.93916512   -1.00000000    4.90999985    1.69000006
   20.94111061   -1.00000000    4.90999985    1.80999994
   20.94444275   -1.00000000    4.90999985    1.75000000
   20.94749832   -1.00000000    4.90999985    1.63000000
   20.95083427   -1.00000000    4.90999985    1.63000000
   20.95416832   87.50039673    4.90999985    1.75000000
   20.95722389  136.53199768    4.90999985    1.91999996
   20.96055603  265.60400391    4.90999985    2.00000000
   20.96389008   -1.00000000    4.90999985    1.75000000
   20.96805573   -1.00000000    4.90999985    1.63000000
   20.97194481   -1.00000000    4.90999985    1.69000006
   20.97527885   -1.00000000    4.90999985    1.75000000
   20.97861099  225.58900452    4.90999985    1.88000000
   20.98166656  104.36299896    4.90999985    1.83000004
   20.98500061   -1.00000000    4.90999985    1.76999998
   20.98833275  158.42900085    4.90999985    1.83000004
   20.98888969  138.59800720    4.90999985    1.83000004
   20.99194527  212.25900269    4.90999985    0.40000001
   20.99500084  136.28599548    3.30999994    0.13000000
   20.99833298  175.32499695    2.40000010    0.03000000
   21.00166702  320.86700439    2.40000010    0.03000000
   21.00472260  124.90100098    2.40000010    0.03000000
   21.00805473  101.34799957    2.40000010    0.03000000
   21.01111031  123.94200134    2.40000010    0.03000000
   21.01444435   97.71340179    2.40000010    0.03000000
   21.01916695   97.71340179    2.40000010    0.03000000
   21.02333260  142.46000671    2.40000010    0.03000000
   21.02638817  187.68600464    2.40000010    0.03000000
   21.02972221  125.45999908    2.40000010    0.03000000
   21.03277779   92.72850037    2.40000010    0.03000000
   21.03610992  113.39299774    2.40000010    0.03000000
   21.03888893   93.09110260    2.40000010    0.03000000
   21.03999901   90.13919830    2.40000010    0.03000000
   21.04305458   88.24810028    2.40000010    0.03000000
   21.04638863  137.24499512    2.40000010    0.03000000
   21.04972076   95.52320099    2.40000010    0.03000000
   21.05277634   98.38150024    2.40000010    0.03000000
   21.05611038   80.95379639    2.40000010    0.03000000
   21.05916595   84.65080261    2.40000010    0.03000000
   21.06250000  100.25800323    2.40000010    0.03000000
   21.06583214  100.49800110    2.40000010    0.03000000
   21.07027817  100.49800110    2.40000010    0.03000000
   21.07444572   91.45030212    2.40000010    0.03000000
   21.07750130   79.73439789    2.40000010    0.03000000
   21.08083344   97.86160278    2.40000010    0.03000000
   21.08416748  114.34200287    2.40000010    0.03000000
   21.08722305  150.86999512    2.40000010    0.03000000
   21.08889008  205.49899292    2.40000010    0.03000000
   21.09111214  105.22200012    2.40000010    0.03000000
   21.09416771   87.10890198    2.40000010    0.03000000
   21.09749985   97.94120026    2.40000010    0.03000000
   21.10083389   90.34169769    2.40000010    0.03000000
   21.10388947  102.80699921    2.40000010    0.03000000
   21.10722351   78.30190277    2.40000010    0.03000000
   21.11027908   99.22779846    2.40000010    0.03000000
   21.11361122  138.90400696    2.40000010    0.03000000
   21.11694527   87.75640106    2.40000010    0.03000000
   21.12138939   87.75640106    2.40000010    0.03000000
   21.12555504  100.22299957    2.40000010    0.03000000
   21.12888908   99.53099823    2.40000010    0.03000000
   21.13194466  102.77400208    2.40000010    0.03000000
   21.13527679  101.51899719    2.40000010    0.03000000
   21.13861084  115.20600128    2.40000010    0.03000000
   21.13916588  106.82299805    2.40000010    0.03000000
   21.14194489   92.79219818    2.40000010    0.03000000
   21.14527702   79.47640228    2.40000010    0.03000000
   21.14861107  106.01899719    2.40000010    0.03000000
   21.15166664   97.93640137    2.40000010    0.03000000
   21.15499878   87.65429688    2.40000010    0.03000000
   21.15805435   98.41549683    2.40000010    0.03000000
   21.16166687   99.46690369    2.40000010    0.03000000
   21.16499901  107.49800110    2.40000010    0.03000000
   21.16833305  100.19300079    2.40000010    0.03000000
   21.17249870  100.19300079    2.40000010    0.03000000
   21.17666626  112.35500336    2.40000010    0.03000000
   21.18000031  103.03700256    2.40000010    0.03000000
   21.18333244  103.36900330    2.40000010    0.03000000
   21.18638802  103.81400299    2.40000010    0.03000000
   21.18916512   93.77980042    2.40000010    0.03000000
   21.18999863   99.23549652    2.40000010    0.03000000
   21.19333267  102.25599670    2.40000010    0.03000000
   21.19666672  113.19100189    2.40000010    0.03000000
   21.19972038  108.44499969    2.40000010    0.03000000
   21.20305634  113.81700134    2.40000010    0.03000000
   21.20611191  102.62300110    2.40000010    0.03000000
   21.20944595   92.53600311    2.40000010    0.03000000
   21.21277809  109.90399933    2.40000010    0.03000000
   21.21583366   98.07009888    2.40000010    0.03000000
   21.21916771  108.68599701    2.40000010    0.03000000
   21.22389030  108.68599701    2.40000010    0.03000000
   21.22805595  101.58799744    2.40000010    0.03000000
   21.23111153  110.29100037    2.40000010    0.03000000
   21.23444557  103.30799866    2.40000010    0.03000000
   21.23750114  103.88899994    2.40000010    0.03000000
   21.23916626  103.09400177    2.40000010    0.03000000
   21.24111176  101.09300232    2.40000010    0.03000000
   21.24444389  106.07399750    2.40000010    0.03000000
   21.24777794  108.50399780    2.40000010    0.03000000
   21.25083351   96.82920074    2.40000010    0.03000000
   21.25416756   76.81520081    2.40000010    0.03000000
   21.25749969   99.44760132    2.40000010    0.03000000
   21.26055527   92.44619751    2.40000010    0.03000000
   21.26388931   84.70369720    2.40000010    0.03000000
   21.26694489  108.31700134    2.40000010    0.03000000
   21.27027702  128.88200378    2.40000010    0.03000000
