    HOUR (UT)   FLARE FACTOR    SKY TESTER    SUN TESTER
   11.40166664   -1.00000000   -1.00000000   -1.00000000
   11.44166660   95.62180328    4.90999985    2.67000008
   11.44472218  105.23400116    4.90999985    2.67000008
   11.44805527   89.41600037    4.90999985    2.69000006
   11.45138836   94.59079742    4.90999985    2.67000008
   11.45444393   99.40609741    4.90999985    2.67000008
   11.45777798   97.33670044    4.90999985    2.67000008
   11.46111107   99.42340088    4.90999985    2.67000008
   11.46416664   98.23960114    4.90999985    2.69000006
   11.47027779   98.23960114    4.90999985    2.69000006
   11.47416592   93.39600372    4.90999985    2.69000006
   11.47749996   89.88710022    4.90999985    2.67000008
   11.48083305   97.31459808    4.90999985    2.69000006
   11.48388958   98.02829742    4.90999985    2.69000006
   11.48722267   99.75990295    4.90999985    2.69000006
   11.49055576   96.93579865    4.90999985    2.69000006
   11.49388885   -1.00000000    4.90999985    2.69000006
   11.49694443   -1.00000000    4.90999985    2.69000006
   11.50027752  103.15200043    4.90999985    2.69000006
   11.50361156   -1.00000000    4.90999985    2.69000006
   11.50666714   -1.00000000    4.90999985    2.69000006
   11.51000023   -1.00000000    4.90999985    2.69000006
   11.51333332   -1.00000000    4.90999985    2.69000006
   11.51638889  219.23399353    4.90999985    2.71000004
   11.52138901  219.23399353    4.90999985    2.71000004
   11.52555561   93.62729645    4.90999985    2.69000006
   11.52861118  102.41799927    4.90999985    2.69000006
   11.53194427   92.35520172    4.90999985    2.69000006
   11.53527832   93.90650177    4.90999985    2.69000006
   11.53833389   86.71130371    4.90999985    2.69000006
   11.54166698   95.35510254    4.90999985    2.71000004
   11.54194450   89.97119904    4.90999985    2.69000006
   11.54527855   93.48560333    4.90999985    2.69000006
   11.54833412   91.89279938    4.90999985    2.71000004
   11.55166721   87.87049866    4.90999985    2.71000004
   11.55500031   92.80549622    4.90999985    2.71000004
   11.55805588   88.44699860    4.90999985    2.71000004
   11.56138897   87.38680267    4.90999985    2.71000004
   11.56472206   90.51049805    4.90999985    2.71000004
   11.56777763   89.70709991    4.90999985    2.71000004
   11.57250023   89.70709991    4.90999985    2.71000004
   11.57666683   89.61360168    4.90999985    2.71000004
   11.57999992   90.82119751    4.90999985    2.71000004
   11.58305550   88.76119995    4.90999985    2.71000004
   11.58638859   97.03630066    4.90999985    2.71000004
   11.58972168   91.23400116    4.90999985    2.71000004
   11.59166622   90.90429688    4.90999985    2.71000004
   11.59333324   93.57649994    4.90999985    2.71000004
   11.59666634   88.78160095    4.90999985    2.71000004
   11.60000038   90.02420044    4.90999985    2.71000004
   11.60305595   91.87750244    4.90999985    2.73000002
   11.60638905   95.80200195    4.90999985    2.71000004
   11.60944462   89.62149811    4.90999985    2.71000004
   11.61277771   88.63749695    4.90999985    2.71000004
   11.61611176   92.51670074    4.90999985    2.71000004
   11.61916637   93.04650116    4.90999985    2.73000002
   11.62361145   93.04650116    4.90999985    2.73000002
   11.62777805   86.83799744    4.90999985    2.73000002
   11.63111115   88.33650208    4.90999985    2.73000002
   11.63416672   96.16380310    4.90999985    2.73000002
   11.63749981   92.31929779    4.90999985    2.71000004
   11.64083290   92.94259644    4.90999985    2.73000002
   11.64166641   94.49179840    4.90999985    2.73000002
   11.64416695   87.30400085    4.90999985    2.73000002
   11.64750004   89.45780182    4.90999985    2.73000002
   11.65083313   95.06680298    4.90999985    2.73000002
   11.65388870   93.48470306    4.90999985    2.73000002
   11.65722179   90.94840240    4.90999985    2.73000002
   11.66027737   88.00309753    4.90999985    2.75000000
   11.66361046   87.20549774    4.90999985    2.75000000
   11.66694450   87.34539795    4.90999985    2.73000002
   11.67000008   84.91899872    4.90999985    2.75000000
   11.67472267   84.91899872    4.90999985    2.73000002
   11.67888927   88.73190308    4.90999985    2.73000002
   11.68222237   86.61049652    4.90999985    2.73000002
   11.68555546   87.72409821    4.90999985    2.73000002
   11.68861103   87.56469727    4.90999985    2.73000002
   11.69166660   91.18240356    4.90999985    2.75000000
   11.69222260   90.19969940    4.90999985    2.75000000
   11.69555569   92.19719696    4.90999985    2.73000002
   11.69888878   91.27230072    4.90999985    2.75000000
   11.70194435   90.91889954    4.90999985    2.73000002
   11.70527744   88.99140167    4.90999985    2.75000000
   11.70833302   94.79080200    4.90999985    2.75000000
   11.71166611   97.08570099    4.90999985    2.73000002
   11.71500015   89.67169952    4.90999985    2.75000000
   11.71805477   93.12079620    4.90999985    2.75000000
   11.72138882   87.27629852    4.90999985    2.75000000
   11.72611046   87.27629852    4.90999985    2.75000000
   11.73027706   88.32039642    4.90999985    2.75000000
   11.73333359   88.45770264    4.90999985    2.75000000
   11.73666668   79.29799652    4.90999985    2.75000000
   11.73972225   83.76190186    4.90999985    2.73000002
   11.74166679   87.98899841    4.90999985    2.73000002
   11.74333382   82.26619720    4.90999985    2.73000002
   11.74666691   88.56449890    4.90999985    2.75000000
   11.75000000   86.42939758    4.90999985    2.75000000
   11.75305557   91.07430267    4.90999985    2.75000000
   11.75638866   88.31259918    4.90999985    2.76999998
   11.75944424   81.27179718    4.90999985    2.75000000
   11.76277733   86.02850342    4.90999985    2.75000000
   11.76611137   83.67130280    4.90999985    2.75000000
   11.76916599   86.84809875    4.90999985    2.75000000
   11.77250004   90.35410309    4.90999985    2.75000000
   11.77722168   90.35410309    4.90999985    2.76999998
   11.78138828   88.22679901    4.90999985    2.75000000
   11.78444481   84.66349792    4.90999985    2.75000000
   11.78777790   87.18520355    4.90999985    2.75000000
   11.79111195   84.68900299    4.90999985    2.76999998
   11.79166698   86.28730011    4.90999985    2.75000000
   11.79472256   93.28119659    4.90999985    2.75000000
   11.79777813   81.98729706    4.90999985    2.76999998
   11.80111122   87.45169830    4.90999985    2.76999998
   11.80416679   93.41690063    4.90999985    2.76999998
   11.80749989   91.36810303    4.90999985    2.76999998
   11.81083393   95.40039825    4.90999985    2.76999998
   11.81388950   81.40499878    4.90999985    2.75000000
   11.81722260   93.22949982    4.90999985    2.76999998
   11.82055569   85.28040314    4.90999985    2.75000000
   11.82361126   89.46610260    4.90999985    2.76999998
   11.82833290   89.46610260    4.90999985    2.76999998
   11.83249950   92.14459991    4.90999985    2.76999998
   11.83583260   90.03450012    4.90999985    2.76999998
   11.83888817   87.56629944    4.90999985    2.76999998
   11.84166622   93.38749695    4.90999985    2.76999998
   11.84249973   92.15720367    4.90999985    2.76999998
   11.84583282   84.15840149    4.90999985    2.76999998
   11.84916592   87.54570007    4.90999985    2.76999998
   11.85222244   86.11940002    4.90999985    2.76999998
   11.85555553   87.93009949    4.90999985    2.76999998
   11.85888958   86.58989716    4.90999985    2.76999998
   11.86194515   83.90899658    4.90999985    2.78999996
   11.86527824   85.16680145    4.90999985    2.78999996
   11.86861134   82.00289917    4.90999985    2.76999998
   11.87166691   84.23210144    4.90999985    2.76999998
   11.87500000   87.11340332    4.90999985    2.76999998
   11.87944412   87.11340332    4.90999985    2.76999998
   11.88361073   78.78220367    4.90999985    2.76999998
   11.88694477   84.83450317    4.90999985    2.78999996
   11.89000034   84.93180084    4.90999985    2.76999998
   11.89166641   90.00749969    4.90999985    2.78999996
   11.89388847   82.34089661    4.90999985    2.76999998
   11.89694405   87.49289703    4.90999985    2.78999996
   11.90027714   85.35620117    4.90999985    2.78999996
   11.90333271   85.90959930    4.90999985    2.78999996
   11.90666676   85.46820068    4.90999985    2.76999998
   11.90999985   84.30719757    4.90999985    2.78999996
   11.91305542   82.72859955    4.90999985    2.78999996
   11.91638851   83.39489746    4.90999985    2.78999996
   11.91944504   85.88289642    4.90999985    2.78999996
   11.92277813   84.48880005    4.90999985    2.78999996
   11.92611122   83.22570038    4.90999985    2.80999994
   11.93083382   83.22570038    4.90999985    2.78999996
   11.93472195   86.96099854    4.90999985    2.78999996
   11.93805599   85.35510254    4.90999985    2.78999996
   11.94138908   91.02200317    4.90999985    2.78999996
   11.94194412   86.05999756    4.90999985    2.80999994
   11.94472218   88.42769623    4.90999985    2.78999996
   11.94805527   89.92749786    4.90999985    2.80999994
   11.95138836   92.74739838    4.90999985    2.78999996
   11.95444393   90.84420013    4.90999985    2.80999994
   11.95777798   85.50849915    4.90999985    2.78999996
   11.96111107   91.15599823    4.90999985    2.80999994
   11.96416664   90.52570343    4.90999985    2.80999994
   11.96749973   81.22779846    4.90999985    2.78999996
   11.97055531   85.88539886    4.90999985    2.80999994
   11.97388840   85.83959961    4.90999985    2.80999994
   11.97722149   86.19840240    4.90999985    2.78999996
   11.98194408   86.19840240    4.90999985    2.80999994
   11.98611164   84.41280365    4.90999985    2.78999996
   11.98916721   85.90409851    4.90999985    2.80999994
   11.99194431   93.20259857    4.90999985    2.78999996
   11.99277782   86.57959747    4.90999985    2.80999994
   11.99611092   81.42630005    4.90999985    2.80999994
   11.99944496   86.20300293    4.90999985    2.80999994
   12.00249958   83.00009918    4.90999985    2.80999994
   12.00583363   87.31169891    4.90999985    2.82999992
   12.00916672   90.20439911    4.90999985    2.82999992
   12.01222229   92.83580017    4.90999985    2.80999994
   12.01555538   85.97180176    4.90999985    2.80999994
   12.01888847   86.80269623    4.90999985    2.80999994
   12.02194405   89.78820038    4.90999985    2.80999994
   12.02611065   91.78549957    4.90999985    2.80999994
   12.02972221   90.61599731    4.90999985    2.80999994
   12.03388977   90.61599731    4.90999985    2.80999994
   12.03916740   87.48560333    4.90999985    2.82999992
   12.04222298   85.63939667    4.90999985    2.82999992
   12.04388905   86.38079834    4.90999985    2.80999994
   12.04777813   85.68910217    4.90999985    2.80999994
   12.05138874   84.23690033    4.90999985    2.80999994
   12.05555534   86.29039764    4.90999985    2.80999994
   12.05944443   92.75350189    4.90999985    2.80999994
   12.06361103   89.35130310    4.90999985    2.80999994
   12.06777763   81.79989624    4.90999985    2.80999994
   12.07138920   90.70159912    4.90999985    2.82999992
   12.07499981   84.05870056    4.90999985    2.82999992
   12.07833290   86.65789795    4.90999985    2.82999992
   12.08166695   83.19730377    4.90999985    2.82999992
   12.08583260   83.19730377    4.90999985    2.80999994
   12.09000015   88.78489685    4.90999985    2.80999994
   12.09194374   78.50939941    4.90999985    2.82999992
   12.09361076   92.30280304    4.90999985    2.82999992
   12.09694386   84.44599915    4.90999985    2.82999992
   12.10000038   82.52950287    4.90999985    2.80999994
   12.10333347   84.60089874    4.90999985    2.82999992
   12.10666752   92.35240173    4.90999985    2.82999992
   12.11000061   85.10549927    4.90999985    2.82999992
   12.11333370   88.75800323    4.90999985    2.82999992
   12.11666679   82.01499939    4.90999985    2.82999992
   12.11999989   80.33070374    4.90999985    2.82999992
   12.12333393   87.10500336    4.90999985    2.82999992
   12.12666702   90.88110352    4.90999985    2.82999992
   12.13000011   91.39479828    4.90999985    2.82999992
   12.13694477   91.39479828    4.90999985    2.82999992
   12.14111137   92.66899872    4.90999985    2.82999992
   12.14194393   89.24400330    4.90999985    2.82999992
   12.14499950   91.95939636    4.90999985    2.82999992
   12.14833355   88.34249878    4.90999985    2.82999992
   12.15166664   87.05159760    4.90999985    2.82999992
   12.15499973   87.84680176    4.90999985    2.82999992
   12.15833282   89.12809753    4.90999985    2.82999992
   12.16222191   89.00189972    4.90999985    2.82999992
   12.16555500   89.47640228    4.90999985    2.82999992
   12.16972256   94.60919952    4.90999985    2.82999992
   12.17361164   88.05300140    4.90999985    2.82999992
   12.17694473   92.04499817    4.90999985    2.82999992
   12.18000031   88.63449860    4.90999985    2.80999994
   12.18361092   86.96779633    4.90999985    2.82999992
   12.18833351   86.96779633    4.90999985    2.82999992
   12.19250011   85.16850281    4.90999985    2.82999992
   12.19583321   90.73339844    4.90999985    2.82999992
   12.19916630   84.63349915    4.90999985    2.82999992
   12.20249939   86.90699768    4.90999985    2.84999990
   12.20611095   87.07409668    4.90999985    2.82999992
   12.20944405   84.02739716    4.90999985    2.82999992
   12.21305561   84.07790375    4.90999985    2.82999992
   12.21611118   85.95059967    4.90999985    2.84999990
   12.21944427   84.99199677    4.90999985    2.82999992
   12.22277737   91.81559753    4.90999985    2.82999992
   12.22638798   88.45960236    4.90999985    2.82999992
   12.22972202   88.00579834    4.90999985    2.82999992
   12.23277760   87.82029724    4.90999985    2.82999992
   12.23944473   87.82029724    4.90999985    2.82999992
   12.24388885   83.07900238    4.90999985    2.84999990
   12.24722290   87.28099823    4.90999985    2.82999992
   12.25083351   84.98470306    4.90999985    2.84999990
   12.25416660   84.15039825    4.90999985    2.82999992
   12.25749969   89.76080322    4.90999985    2.84999990
   12.26055527   82.49790192    4.90999985    2.84999990
   12.26388931   89.47290039    4.90999985    2.82999992
   12.26749992   77.18609619    4.90999985    2.84999990
   12.27083302   87.71499634    4.90999985    2.82999992
   12.27416611   84.16300201    4.90999985    2.82999992
   12.27750015   81.59960175    4.90999985    2.84999990
   12.28083324   81.08350372    4.90999985    2.82999992
   12.28388977   85.39109802    4.90999985    2.84999990
   12.29055595   85.39109802    4.90999985    2.84999990
   12.29472256   84.78669739    4.90999985    2.84999990
   12.29833412   86.81649780    4.90999985    2.84999990
   12.30138874   82.51660156    4.90999985    2.82999992
   12.30472279   87.29589844    4.90999985    2.82999992
   12.30805588   92.69259644    4.90999985    2.82999992
   12.31138897   87.45420074    4.90999985    2.82999992
   12.31472206   90.30690002    4.90999985    2.84999990
   12.31805515   88.47480011    4.90999985    2.84999990
   12.32138920   91.40609741    4.90999985    2.82999992
   12.32444477   90.68499756    4.90999985    2.84999990
   12.32750034   86.20379639    4.90999985    2.82999992
   12.33055592   81.86660004    4.90999985    2.80999994
   12.33388901   85.37359619    4.90999985    2.82999992
   12.33722210   88.77680206    4.90999985    2.82999992
   12.34194374   88.77680206    4.90999985    2.82999992
   12.34611034   83.11080170    4.90999985    2.82999992
   12.34916592   86.13999939    4.90999985    2.82999992
   12.35249996   89.38220215    4.90999985    2.82999992
   12.35583401   82.21130371    4.90999985    2.82999992
   12.35916710   91.54709625    4.90999985    2.82999992
   12.36305618   84.92520142    4.90999985    2.84999990
   12.36638927   87.14250183    4.90999985    2.82999992
   12.36972237   87.44589996    4.90999985    2.82999992
   12.37277794   92.06259918    4.90999985    2.82999992
   12.37611103   91.16069794    4.90999985    2.82999992
   12.37944412   89.97360229    4.90999985    2.84999990
   12.38249969   91.30599976    4.90999985    2.84999990
   12.38583279   86.00810242    4.90999985    2.84999990
   12.38916683   82.08239746    4.90999985    2.84999990
   12.39333344   82.08239746    4.90999985    2.82999992
   12.39777756   82.35260010    4.90999985    2.82999992
   12.40111065   88.17009735    4.90999985    2.84999990
   12.40416622   87.10160065    4.90999985    2.84999990
   12.40777779   85.26090240    4.90999985    2.84999990
   12.41111088   87.96980286    4.90999985    2.84999990
   12.41444397   85.80989838    4.90999985    2.84999990
   12.41750050   86.00170135    4.90999985    2.84999990
   12.42083359   87.14929962    4.90999985    2.82999992
   12.42416668   83.45079803    4.90999985    2.84999990
   12.42750072   86.65370178    4.90999985    2.84999990
   12.43055630   86.34680176    4.90999985    2.84999990
   12.43388939   82.80809784    4.90999985    2.84999990
   12.43722248   86.94819641    4.90999985    2.84999990
   12.44055557   85.69750214    4.90999985    2.84999990
   12.45916653   64.67810059    4.90999985    2.86999989
   12.46138859   87.21739960    4.90999985    2.86999989
   12.46472168   87.66049957    4.90999985    2.86999989
   12.46805477   84.93789673    4.90999985    2.84999990
   12.47166634   85.65219879    4.90999985    2.84999990
   12.47499943   86.97969818    4.90999985    2.84999990
   12.47805500   90.14640045    4.90999985    2.84999990
   12.48138809   89.51850128    4.90999985    2.84999990
   12.48500061   78.68489838    4.90999985    2.84999990
   12.48805618   84.02380371    4.90999985    2.86999989
   12.49138927   85.94149780    4.90999985    2.84999990
   12.49583340   85.94149780    4.90999985    2.84999990
   12.50027752   85.55500031    4.90999985    2.84999990
   12.50361156   85.89630127    4.90999985    2.84999990
   12.50666714   85.44570160    4.90999985    2.84999990
   12.50861073   90.13240051    4.90999985    2.84999990
   12.51055527   86.88739777    4.90999985    2.84999990
   12.51388931   83.93360138    4.90999985    2.86999989
   12.51694393   85.34790039    4.90999985    2.86999989
   12.52027798   84.22149658    4.90999985    2.86999989
   12.52361107   80.86019897    4.90999985    2.84999990
   12.52694416   89.87689972    4.90999985    2.86999989
   12.53027725   84.97810364    4.90999985    2.86999989
   12.53333378   88.99649811    4.90999985    2.84999990
   12.53666687   86.55010223    4.90999985    2.86999989
   12.54083347   86.63839722    4.90999985    2.86999989
   12.54805565   86.63839722    4.90999985    2.86999989
   12.55222225   81.69529724    4.90999985    2.84999990
   12.55555534   86.82199860    4.90999985    2.86999989
   12.56166649   88.78160095    4.90999985    2.86999989
   12.56583309   90.82620239    4.90999985    2.86999989
   12.57055569   90.44069672    4.90999985    2.86999989
   12.57555580   82.44789886    4.90999985    2.84999990
   12.58027744   81.37760162    4.90999985    2.86999989
   12.58277798   84.85939789    4.90999985    2.86999989
   12.58611107   84.50710297    4.90999985    2.86999989
   12.58944416   90.42350006    4.90999985    2.84999990
   12.59277725   88.03109741    4.90999985    2.86999989
   12.59833336   88.03109741    4.90999985    2.86999989
   12.60277843   86.71279907    4.90999985    2.86999989
   12.60611153   87.68409729    4.90999985    2.86999989
   12.60888958   85.91359711    4.90999985    2.86999989
   12.61027813   85.42929840    4.90999985    2.86999989
   12.61555576   86.66439819    4.90999985    2.86999989
   12.61888885   82.27760315    4.90999985    2.86999989
   12.62194443   79.91790009    4.90999985    2.86999989
   12.62555599   88.53990173    4.90999985    2.84999990
   12.62861156   86.23609924    4.90999985    2.84999990
   12.63194466   83.72370148    4.90999985    2.86999989
   12.63527775   83.95739746    4.90999985    2.86999989
   12.63861084   81.26399994    4.90999985    2.86999989
   12.64194393   84.07039642    4.90999985    2.84999990
   12.64499950   81.43979645    4.90999985    2.84999990
   12.64944458   81.43979645    4.90999985    2.84999990
   12.65388870   81.50000000    4.90999985    2.84999990
   12.65722179   83.78620148    4.90999985    2.86999989
   12.65888882   84.84069824    4.90999985    2.84999990
   12.66111088   82.98139954    4.90999985    2.84999990
   12.66444397   83.65879822    4.90999985    2.84999990
   12.66777802   90.67939758    4.90999985    2.86999989
   12.67111111   84.90239716    4.90999985    2.84999990
   12.67416668   90.46520233    4.90999985    2.86999989
   12.67750072   81.39749908    4.90999985    2.86999989
   12.68083382   86.81919861    4.90999985    2.86999989
   12.68416691   85.57620239    4.90999985    2.86999989
   12.68750000   82.56130219    4.90999985    2.86999989
   12.69166660   82.57430267    4.90999985    2.86999989
   12.69527817   85.63169861    4.90999985    2.86999989
   12.70138836   85.63169861    4.90999985    2.86999989
   12.70583344   83.99369812    4.90999985    2.86999989
   12.70944405   85.28019714    4.90999985    2.89000010
   12.71027756   84.90059662    4.90999985    2.86999989
   12.71361065   83.63439941    4.90999985    2.86999989
   12.71749973   84.01139832    4.90999985    2.86999989
   12.72111034   83.10220337    4.90999985    2.89000010
   12.72472191   82.15350342    4.90999985    2.86999989
   12.72833252   79.84739685    4.90999985    2.89000010
   12.73166656   81.91439819    4.90999985    2.89000010
   12.73500061   83.45749664    4.90999985    2.89000010
   12.73833370   81.55829620    4.90999985    2.89000010
   12.74166679   81.38439941    4.90999985    2.89000010
   12.74499989   83.72750092    4.90999985    2.86999989
   12.74833393   84.96019745    4.90999985    2.89000010
   12.75277805   84.96019745    4.90999985    2.89000010
   12.75722218   81.90309906    4.90999985    2.89000010
   12.75888920   84.18219757    4.90999985    2.89000010
   12.76138878   87.70539856    4.90999985    2.89000010
   12.76444435   81.98210144    4.90999985    2.86999989
   12.76777744   83.82630157    4.90999985    2.86999989
   12.77166653   79.12090302    4.90999985    2.89000010
   12.77499962   80.67369843    4.90999985    2.89000010
   12.77861118   83.61910248    4.90999985    2.89000010
   12.78222179   78.79930115    4.90999985    2.89000010
   12.78555584   76.63259888    4.90999985    2.89000010
   12.78861141   78.84380341    4.90999985    2.89000010
   12.79194450   77.90940094    4.90999985    2.89000010
   12.79555607   77.63629913    4.90999985    2.89000010
   12.79944515   78.77480316    4.90999985    2.89000010
   12.80416679   78.77480316    4.90999985    2.89000010
   12.80916691   84.11239624    4.90999985    2.91000009
   12.81000042   77.37590027    4.90999985    2.89000010
   12.81333351   77.66510010    4.90999985    2.89000010
   12.81666660   84.00520325    4.90999985    2.89000010
   12.81972218   79.77700043    4.90999985    2.89000010
   12.82305527   77.25749969    4.90999985    2.89000010
   12.82638836   77.96350098    4.90999985    2.86999989
   14.16861153   -1.00000000   -1.00000000   -1.00000000
   14.26000023   75.08550262    4.90999985    2.94000006
   14.26305580   71.18979645    4.90999985    2.96000004
   14.26638889   77.67819977    4.90999985    2.94000006
   14.26972198   74.74620056    4.90999985    2.94000006
   14.27277756   73.83450317    4.90999985    2.96000004
   14.27611065   74.98529816    4.90999985    2.94000006
   14.27916622   76.98560333    4.90999985    2.96000004
   14.28249931   78.44390106    4.90999985    2.94000006
   14.28833389   78.44390106    4.90999985    2.94000006
   14.29250050   79.18910217    4.90999985    2.94000006
   14.29583359   74.01850128    4.90999985    2.96000004
   14.29916668   78.00980377    4.90999985    2.94000006
   14.30222225   77.15059662    4.90999985    2.94000006
   14.30555534   83.40309906    4.90999985    2.96000004
   14.30861092   81.01059723    4.90999985    2.94000006
   14.30972195   82.38559723    4.90999985    2.94000006
   14.31222248   76.93289948    4.90999985    2.94000006
   14.31555557   77.87409973    4.90999985    2.94000006
   14.31861115   74.84380341    4.90999985    2.94000006
   14.32194424   75.84100342    4.90999985    2.94000006
   14.32527733   72.59600067    4.90999985    2.96000004
   14.32833290   72.68609619    4.90999985    2.94000006
   14.33166695   73.84510040    4.90999985    2.94000006
   14.33472157   72.54109955    4.90999985    2.98000002
   14.33972168   72.54109955    4.90999985    2.94000006
   14.34388828   73.57749939    4.90999985    2.96000004
   14.34694386   74.93859863    4.90999985    2.96000004
   14.35027790   73.95760345    4.90999985    2.96000004
   14.35333347   77.77559662    4.90999985    2.96000004
   14.35666752   72.08049774    4.90999985    2.96000004
   14.35972214   72.47850037    4.90999985    2.98000002
   14.36027813   77.77120209    4.90999985    2.98000002
   14.36361122   71.93240356    4.90999985    2.96000004
   14.36666679   78.03260040    4.90999985    2.96000004
   14.36999989   73.90519714    4.90999985    2.96000004
   14.37333393   73.71209717    4.90999985    2.96000004
   14.37638855   73.30619812    4.90999985    2.96000004
   14.48500061   -1.00000000   -1.00000000   -1.00000000
   15.13416672   -1.00000000   -1.00000000   -1.00000000
   15.27277756   -1.00000000   -1.00000000   -1.00000000
   15.49750042   63.72719955    4.90999985    3.01999998
   15.50055599   77.47270203    4.90999985    3.03999996
   15.50388908   78.53289795    4.90999985    3.03999996
   15.50722218   77.17520142    4.90999985    3.01999998
   15.51027775   78.95099640    4.90999985    3.01999998
   15.51361084   72.79290009    4.90999985    3.01999998
   15.51666641   80.30159760    4.90999985    3.01999998
   15.51999950   77.09429932    4.90999985    3.01999998
   15.52611065   77.09429932    4.90999985    3.01999998
   15.53027725   75.16750336    4.90999985    3.01999998
   15.53333378   78.71790314    4.90999985    3.01999998
   15.53666687   77.69190216    4.90999985    3.01999998
   15.53972244   76.28119659    4.90999985    3.01999998
   15.54305553   79.26850128    4.90999985    3.01999998
   15.54638958   73.33129883    4.90999985    3.01999998
   15.54750061   74.34320068    4.90999985    3.01999998
   15.54972267   75.48909760    4.90999985    3.00000000
   15.55305576   71.11479950    4.90999985    3.01999998
   15.55638885   75.23979950    4.90999985    3.01999998
   15.55944443   72.45700073    4.90999985    3.03999996
   15.56277752   74.01059723    4.90999985    3.01999998
   15.56583309   72.44309998    4.90999985    3.01999998
   15.56916618   71.71269989    4.90999985    3.01999998
   15.57250023   74.20829773    4.90999985    3.01999998
   15.57722187   74.20829773    4.90999985    3.01999998
   15.58138847   74.40450287    4.90999985    3.01999998
   15.58444405   73.03410339    4.90999985    3.01999998
   15.58777714   73.78739929    4.90999985    3.01999998
   15.59111118   71.99400330    4.90999985    3.00000000
   15.59416676   74.22540283    4.90999985    3.01999998
   15.59749985   73.31990051    4.90999985    3.01999998
   15.59777737   69.29190063    4.90999985    3.01999998
   15.60111141   72.70200348    4.90999985    3.01999998
   15.60444450   77.30400085    4.90999985    3.00000000
   15.60750008   72.80660248    4.90999985    3.01999998
   15.61083412   75.53890228    4.90999985    3.01999998
   15.61388969   74.54910278    4.90999985    3.01999998
   15.61722279   79.94879913    4.90999985    3.03999996
   15.62055588   72.79499817    4.90999985    3.03999996
   15.62361145   74.21829987    4.90999985    3.03999996
   15.62833309   74.21829987    4.90999985    3.03999996
   15.63249969   73.05539703    4.90999985    3.03999996
   15.63583279   73.57499695    4.90999985    3.03999996
   15.63888836   70.98549652    4.90999985    3.03999996
   15.64222240   72.93699646    4.90999985    3.01999998
   15.64527798   76.11750031    4.90999985    3.01999998
   15.64750004   74.80349731    4.90999985    3.03999996
   15.64888859   70.18280029    4.90999985    3.03999996
   15.65222168   71.45249939    4.90999985    3.03999996
   15.65555477   69.52359772    4.90999985    3.01999998
   15.65861034   71.80909729    4.90999985    3.01999998
   15.66194439   71.76129913    4.90999985    3.03999996
   15.66527748   71.30310059    4.90999985    3.03999996
   15.66833401   68.57070160    4.90999985    3.03999996
   15.67166710   71.52570343    4.90999985    3.03999996
   15.67527771   74.14150238    4.90999985    3.03999996
   15.67944431   74.14150238    4.90999985    3.03999996
   15.68361092   73.20020294    4.90999985    3.03999996
   15.68694496   73.48549652    4.90999985    3.01999998
   15.69000053   76.05380249    4.90999985    3.03999996
   15.69333363   72.40209961    4.90999985    3.03999996
   15.69666672   74.91290283    4.90999985    3.03999996
   15.69750023   71.23329926    4.90999985    3.03999996
   15.69999981   70.84149933    4.90999985    3.01999998
   15.70333290   76.63610077    4.90999985    3.03999996
   15.70666695   73.80750275    4.90999985    3.03999996
   15.70972157   71.58159637    4.90999985    3.01999998
   15.71305561   76.62290192    4.90999985    3.01999998
   15.71638870   73.59059906    4.90999985    3.03999996
   15.71944427   75.27680206    4.90999985    3.03999996
   15.72277737   79.33799744    4.90999985    3.03999996
   15.72583294   70.13009644    4.90999985    2.96000004
   15.73083305   70.13009644    4.90999985    3.03999996
   15.73472214   77.00789642    4.90999985    2.94000006
   15.73805618   79.09950256    4.90999985    2.98000002
   15.74138927   86.48709869    4.90999985    2.80999994
   15.74444485   85.20030212    4.90999985    2.75000000
   15.74750042   99.34279633    4.90999985    3.03999996
   15.74805546  218.84300232    4.90999985    3.03999996
   15.75138855  122.23100281    4.90999985    2.17000008
   15.75472260  312.57998657    4.90999985    2.21000004
   15.75777817  227.72599792    4.90999985    1.94000006
   15.76111126   -1.00000000    4.90999985    1.85000002
   15.76444435   96.89420319    4.90999985    2.13000011
   15.76749992   83.03620148    4.90999985    2.67000008
   15.77083302  166.33099365    4.90999985    2.53999996
   15.77388859   81.34140015    4.90999985    2.17000008
   15.77722168   78.13510132    4.90999985    2.98000002
   15.78194427   78.13510132    4.90999985    2.98000002
   15.78611183   75.80719757    4.90999985    3.00000000
   15.78916740   75.21089935    4.90999985    3.00000000
   15.79250050   77.23470306    4.90999985    3.00000000
   15.79583359   71.92160034    4.90999985    3.03999996
   15.79750061   73.98290253    4.90999985    3.00000000
   15.79916668   69.46009827    4.90999985    3.01999998
   15.80249977   72.30429840    4.90999985    3.01999998
   15.80583382   71.05719757    4.90999985    3.03999996
   15.80888939   73.26239777    4.90999985    3.03999996
   15.81222248   74.96690369    4.90999985    3.03999996
   15.81555557   72.27950287    4.90999985    3.03999996
   15.81861115   72.02690125    4.90999985    3.03999996
   15.82194424   73.09310150    4.90999985    3.03999996
   15.82499981   71.34970093    4.90999985    3.01999998
   15.82833290   73.74909973    4.90999985    3.03999996
   15.83305550   73.74909973    4.90999985    3.01999998
   15.83722210   70.20030212    4.90999985    3.01999998
   15.84055519   71.56040192    4.90999985    3.03999996
   15.84361076   71.82420349    4.90999985    3.03999996
   15.84694386   71.45739746    4.90999985    3.03999996
   15.84749985   71.83129883    4.90999985    3.03999996
   15.85055637   71.09310150    4.90999985    3.01999998
   15.85361195   72.10990143    4.90999985    3.01999998
   15.85694504   71.19899750    4.90999985    3.03999996
   15.86027813   69.40969849    4.90999985    3.03999996
   15.86333370   70.12619781    4.90999985    3.03999996
   15.86666679   70.44930267    4.90999985    3.03999996
   15.86972237   72.97630310    4.90999985    3.01999998
   15.87305546   69.71849823    4.90999985    3.03999996
   15.87638855   75.25430298    4.90999985    3.03999996
   15.87944412   71.09539795    4.90999985    3.03999996
   15.88416672   71.09539795    4.90999985    3.03999996
   15.88833332   71.11150360    4.90999985    3.03999996
   15.89166641   72.60040283    4.90999985    3.03999996
   15.89472198   72.36750031    4.90999985    3.01999998
   15.89750004   74.01840210    4.90999985    3.03999996
   15.89861107   74.57969666    4.90999985    3.03999996
   15.90166664   78.61289978    4.90999985    3.01999998
   15.90499973   78.33619690    4.90999985    2.91000009
   15.90833282  103.46499634    4.90999985    2.32999992
   15.91138840   -1.00000000    4.90999985    2.40000010
   15.91472149  119.37000275    4.90999985    2.51999998
   15.91777802   -1.00000000    4.90999985    1.71000004
   15.92111111   -1.00000000    4.90999985    1.39999998
   15.92444515   -1.00000000    4.90999985    1.75000000
   15.92750072   -1.00000000    4.90999985    1.19000006
   15.93083382   -1.00000000    4.90999985    1.26999998
   15.93555546   -1.00000000    4.90999985    1.28999996
   15.93944454   -1.00000000    4.90999985    1.76999998
   15.94277763   -1.00000000    4.90999985    1.25000000
   15.94611073   -1.00000000    4.90999985    1.63000000
   15.94750023  111.92099762    4.90999985    1.61000001
   15.94972229   -1.00000000   -1.00000000   -1.00000000
   15.95277786   77.13439941    4.90999985    2.19000006
   15.95611095  103.09300232    4.90999985    2.11999989
   15.95944405   88.51029968    4.90999985    2.91000009
   15.96249962   74.93260193    4.90999985    2.93000007
   15.96583271   74.08989716    4.90999985    2.89000010
   15.96888828   74.85240173    4.90999985    3.01999998
   15.97222137   72.20729828    4.90999985    2.94000006
   15.97555542   70.22810364    4.90999985    2.98000002
   15.97861099   72.44219971    4.90999985    3.01999998
   15.98194408   73.10810089    4.90999985    3.01999998
   15.98666668   73.10810089    4.90999985    3.03999996
   15.99083328   70.39569855    4.90999985    3.01999998
   15.99388885   71.64040375    4.90999985    3.01999998
   15.99722290   70.12000275    4.90999985    3.03999996
   15.99777794   73.32759857    4.90999985    3.01999998
   16.00083351   75.29160309    4.90999985    3.01999998
   16.00388908   71.58110046    4.90999985    3.01999998
   16.00722313   71.10929871    4.90999985    3.03999996
   16.01055527   73.01629639    4.90999985    3.03999996
   16.01361084   71.94419861    4.90999985    3.03999996
   16.01694489   74.62370300    4.90999985    3.03999996
   16.02000046   72.73519897    4.90999985    3.03999996
   16.02333260   72.98179626    4.90999985    3.01999998
   16.02666664   75.27449799    4.90999985    3.03999996
   16.02972221   71.92120361    4.90999985    3.03999996
   16.03305435   70.46610260    4.90999985    3.03999996
   16.03777695   70.46610260    4.90999985    3.03999996
   16.04194450   69.06069946    4.90999985    3.03999996
   16.04527664   70.25029755    4.90999985    3.03999996
   16.04777718   71.81800079    4.90999985    3.03999996
   16.04888916   71.12300110    4.90999985    3.03999996
   16.05194283   70.64399719    4.90999985    3.03999996
   16.05527687   73.52960205    4.90999985    3.03999996
   16.05861092   74.41139984    4.90999985    3.03999996
   16.06166649   69.92169952    4.90999985    3.03999996
   16.06499863   72.94280243    4.90999985    3.03999996
   16.06805611   71.28620148    4.90999985    3.01999998
   16.07139015   71.59940338    4.90999985    3.03999996
   16.07472229   71.84829712    4.90999985    3.03999996
   16.07777786   72.39489746    4.90999985    3.03999996
   16.08111191   71.96710205    4.90999985    3.03999996
   16.08444595   74.04450226    4.90999985    3.03999996
   16.08889008   74.04450226    4.90999985    3.03999996
   16.09305573   74.81150055    4.90999985    3.03999996
   16.09638977   71.28029633    4.90999985    3.01999998
   16.09777832   70.99749756    4.90999985    3.03999996
   16.10000038   70.13549805    4.90999985    3.01999998
   16.10305595   72.38439941    4.90999985    3.03999996
   16.10639000   71.22419739    4.90999985    3.01999998
   16.10972214   73.10729980    4.90999985    3.03999996
   16.11277771   73.02239990    4.90999985    3.03999996
   16.11611176   70.53510284    4.90999985    3.03999996
   16.11916733   73.16190338    4.90999985    3.03999996
   16.12249947   72.00930023    4.90999985    3.01999998
   16.12583351   71.24960327    4.90999985    3.03999996
   16.12888908   71.13990021    4.90999985    3.03999996
   16.13222313   72.00379944    4.90999985    3.03999996
   16.13555527   72.93209839    4.90999985    3.05999994
   16.13999939   72.93209839    4.90999985    3.01999998
   16.14416695   73.23500061    4.90999985    3.03999996
   16.14749908   71.62860107    4.90999985    3.03999996
   16.14805603   71.21949768    4.90999985    3.03999996
   16.15138817   71.05819702    4.90999985    3.03999996
   16.15444374   71.29640198    4.90999985    3.01999998
   16.15777779   72.79440308    4.90999985    3.03999996
   16.16110992   71.14949799    4.90999985    3.03999996
   16.16416550   71.76309967    4.90999985    3.03999996
   16.16749954   71.72109985    4.90999985    3.03999996
   16.17055511   73.27040100    4.90999985    3.03999996
   16.17388916   70.52749634    4.90999985    3.03999996
   16.17722130   73.73470306    4.90999985    3.03999996
   16.18027687   74.85359955    4.90999985    3.03999996
   16.18361092   72.10540009    4.90999985    3.03999996
   16.18694305   71.55709839    4.90999985    3.03999996
   16.19138718   71.55709839    4.90999985    3.01999998
   16.19555473   70.12609863    4.90999985    3.03999996
   16.19805527   71.35569763    4.90999985    3.03999996
   16.19916534   71.49729919    4.90999985    3.03999996
   16.20222282   71.99700165    4.90999985    3.05999994
   16.20555687   73.57659912    4.90999985    3.03999996
   16.20861244   71.48190308    4.90999985    3.03999996
   16.21194458   74.68730164    4.90999985    3.03999996
   16.21527863   70.86299896    4.90999985    3.03999996
   16.21833420   75.83239746    4.90999985    3.03999996
   16.22166634   72.16040039    4.90999985    3.03999996
   16.22500038   72.50189972    4.90999985    3.03999996
   16.22805595   72.93289948    4.90999985    3.01999998
   16.23139000   70.47059631    4.90999985    3.01999998
   16.23444557   70.89109802    4.90999985    3.01999998
   16.23777771   70.44570160    4.90999985    3.01999998
   16.24250031   70.44570160    4.90999985    3.01999998
   16.24666786   72.12789917    4.90999985    3.03999996
   16.24805641   73.03500366    4.90999985    3.03999996
   16.25027847   76.16699982    4.90999985    3.03999996
   16.25333405   71.15049744    4.90999985    3.03999996
   16.25666618   71.32649994    4.90999985    3.03999996
   16.26000023   70.86569977    4.90999985    3.03999996
   16.26305580   70.98259735    4.90999985    3.03999996
   16.26638794   73.48490143    4.90999985    3.03999996
   16.26944351   70.51010132    4.90999985    3.03999996
   16.27277756   71.64990234    4.90999985    3.03999996
   16.27611160   70.31719971    4.90999985    3.03999996
   16.27916718   71.73840332    4.90999985    3.03999996
   16.28249931   71.68419647    4.90999985    3.01999998
   16.28583336   72.34020233    4.90999985    3.01999998
   16.28888893   71.45939636    4.90999985    3.03999996
   16.29361153   71.45939636    4.90999985    3.03999996
   16.29777718   71.12210083    4.90999985    3.03999996
   16.29833221   72.91850281    4.90999985    3.01999998
   16.30166626   72.51519775    4.90999985    3.01999998
   16.30472183   71.66500092    4.90999985    3.03999996
   16.30805397   72.83270264    4.90999985    3.03999996
   16.31138802   73.88760376    4.90999985    3.01999998
   16.31444359   73.33570099    4.90999985    3.01999998
   16.31777954   78.64839935    4.90999985    3.03999996
   16.32111168   73.90390015    4.90999985    3.03999996
   16.32416725   72.08820343    4.90999985    3.01999998
   16.32750130   72.24559784    4.90999985    3.03999996
   16.33055687   71.42330170    4.90999985    3.01999998
   16.33388901   74.59179688    4.90999985    3.03999996
   16.33722305   71.00900269    4.90999985    3.03999996
   16.34027863   73.83280182    4.90999985    3.05999994
   16.34472275   73.83280182    4.90999985    3.01999998
   16.34889030   69.78520203    4.90999985    3.03999996
   16.35222244   70.03420258    4.90999985    3.03999996
   16.35555649   71.42430115    4.90999985    3.03999996
   16.35861206   71.68509674    4.90999985    3.03999996
   16.36194420   73.29290009    4.90999985    3.03999996
   16.36527824   70.11129761    4.90999985    3.03999996
   16.36833382   71.31860352    4.90999985    3.01999998
   16.37166595   71.94110107    4.90999985    3.01999998
   16.37472153   71.69709778    4.90999985    3.01999998
   16.37805557   71.70379639    4.90999985    3.03999996
   16.38138962   74.95320129    4.90999985    3.03999996
   16.38444519   70.33239746    4.90999985    3.01999998
   16.38777733   70.89199829    4.90999985    3.01999998
   16.39111137   70.16200256    4.90999985    3.01999998
   16.39611053   70.16200256    4.90999985    3.01999998
   16.40027809   69.15270233    4.90999985    3.03999996
   16.40333366   71.24720001    4.90999985    3.03999996
   16.40666580   69.45610046    4.90999985    3.01999998
   16.40972137   70.12400055    4.90999985    3.01999998
   16.41305542   70.01159668    4.90999985    3.03999996
   16.41638756   72.48609924    4.90999985    3.03999996
   16.41944313   71.90630341    4.90999985    3.03999996
   16.42277718   70.64250183    4.90999985    3.03999996
   16.42611122   71.26080322    4.90999985    3.01999998
   16.42916679   71.75119781    4.90999985    3.01999998
   16.43249893   76.69490051    4.90999985    3.01999998
   16.43555450   71.12580109    4.90999985    3.03999996
   16.43888855   74.04789734    4.90999985    3.01999998
   16.44222069   74.40370178    4.90999985    3.03999996
   16.44722176   74.40370178    4.90999985    3.01999998
   16.45138931   73.27189636    4.90999985    3.03999996
   16.45472336   73.30079651    4.90999985    3.01999998
   16.45777893   70.07389832    4.90999985    3.03999996
   16.46111107   71.53620148    4.90999985    3.03999996
   16.46416664   73.83219910    4.90999985    3.03999996
   16.46750069   70.25579834    4.90999985    3.01999998
   16.47083473   72.60880280    4.90999985    3.01999998
   16.47389030   75.91210175    4.90999985    3.03999996
   16.47722244   72.83979797    4.90999985    3.01999998
   16.48055649   73.55500031    4.90999985    3.01999998
   16.48361206   73.55509949    4.90999985    3.01999998
   16.48694420   71.07319641    4.90999985    3.01999998
   16.48999977   70.96690369    4.90999985    3.01999998
   16.49333382   75.81770325    4.90999985    3.01999998
   16.51472282   71.79029846    4.90999985    3.01999998
   16.51527786   70.54669952    4.90999985    3.01999998
   16.51861000   72.28189850    4.90999985    3.01999998
   16.52166557   71.74810028    4.90999985    3.03999996
   16.52499962   70.73239899    4.90999985    3.03999996
   16.52805519   71.73619843    4.90999985    3.03999996
   16.53138924   70.16639709    4.90999985    3.01999998
   16.53472137   68.50599670    4.90999985    3.01999998
   16.53777695   71.59339905    4.90999985    3.03999996
   16.54111099   70.14489746    4.90999985    3.03999996
   16.54444313   72.54740143    4.90999985    3.01999998
   16.54972076   72.54740143    4.90999985    3.01999998
   16.55388832   72.89659882    4.90999985    3.01999998
   16.55694389   70.98090363    4.90999985    3.01999998
   16.56027794   71.39489746    4.90999985    3.01999998
   16.56361008   71.46019745    4.90999985    3.03999996
   16.56472206   72.38089752    4.90999985    3.03999996
   16.56722260   71.15640259    4.90999985    3.03999996
   16.57027817   71.01869965    4.90999985    3.03999996
   16.57361221   71.99939728    4.90999985    3.03999996
   16.57694626   72.53189850    4.90999985    3.01999998
   16.58000183   71.19490051    4.90999985    3.03999996
   16.58333397   69.86389923    4.90999985    3.03999996
   16.58638954   74.15429688    4.90999985    3.03999996
   16.58972359   70.76010132    4.90999985    3.03999996
   16.59305573   72.28780365    4.90999985    3.03999996
   16.59611130   69.12920380    4.90999985    3.03999996
   16.60083389   69.12920380    4.90999985    3.03999996
   16.60499954   70.30120087    4.90999985    3.03999996
   16.60833359   71.79620361    4.90999985    3.03999996
   16.61138916   71.60070038    4.90999985    3.03999996
   16.61472321   70.26689911    4.90999985    3.03999996
   16.61527824   69.89579773    4.90999985    3.03999996
   16.61833382   70.68669891    4.90999985    3.01999998
   16.62166595   71.40019989    4.90999985    3.03999996
   16.62500000   72.27919769    4.90999985    3.03999996
   16.62805557   71.22740173    4.90999985    3.01999998
   16.63138962   71.76930237    4.90999985    3.01999998
   16.63444519   70.51069641    4.90999985    3.03999996
   16.63777733   70.49590302    4.90999985    3.03999996
   16.64111137   72.08599854    4.90999985    3.03999996
   16.64416695   70.40959930    4.90999985    3.03999996
   16.64749908   72.23239899    4.90999985    3.03999996
   16.65194321   72.23239899    4.90999985    3.03999996
   16.65611076   72.42610168    4.90999985    3.03999996
   16.65944481   76.13580322    4.90999985    3.01999998
   16.66277695   71.47699738    4.90999985    3.03999996
   16.66472244   76.23400116    4.90999985    3.03999996
   16.66638756   70.39880371    4.90999985    3.01999998
   16.66944313   69.83439636    4.90999985    3.03999996
   16.67277718   73.48410034    4.90999985    3.03999996
   16.67611122   71.09390259    4.90999985    3.01999998
   16.67916679   74.20269775    4.90999985    3.03999996
   16.68249893   70.71440125    4.90999985    3.03999996
   16.68555450   71.15270233    4.90999985    3.03999996
   16.68888855   69.84719849    4.90999985    3.01999998
   16.69222069   71.39600372    4.90999985    3.01999998
   16.69527626   71.95619965    4.90999985    3.03999996
   16.69861031   70.68460083    4.90999985    3.01999998
   16.70333481   70.68460083    4.90999985    3.03999996
   16.70722389   71.34909821    4.90999985    3.01999998
   16.71055603   71.96250153    4.90999985    3.01999998
   16.71389008   72.87249756    4.90999985    3.03999996
   16.71472359   73.25160217    4.90999985    3.01999998
   16.71750069   71.96070099    4.90999985    3.01999998
   16.72055626   70.97049713    4.90999985    3.03999996
   16.72389030   72.25559998    4.90999985    3.03999996
   16.72722244   72.41040039    4.90999985    3.03999996
   16.73027802   71.59110260    4.90999985    3.01999998
   16.73361206   73.03610229    4.90999985    3.03999996
   16.73694420   74.58499908    4.90999985    3.03999996
   16.73999977   72.20079803    4.90999985    3.01999998
   16.74333382   67.72470093    4.90999985    3.01999998
   16.74638939   70.70159912    4.90999985    3.03999996
   16.74972153   72.31099701    4.90999985    3.03999996
   16.75444412   72.31099701    4.90999985    3.01999998
   16.75861168   70.24919891    4.90999985    3.01999998
   16.76194382   70.37599945    4.90999985    3.01999998
   16.76499939   70.39150238    4.90999985    3.03999996
   16.76555634   73.42259979    4.90999985    3.01999998
   16.76861000   69.57879639    4.90999985    3.01999998
   16.77194405   70.09040070    4.90999985    3.01999998
   16.77527809   69.45989990    4.90999985    3.03999996
   16.77833366   73.54499817    4.90999985    3.03999996
   16.78166580   74.09799957    4.90999985    3.03999996
   16.78472137   72.77829742    4.90999985    3.03999996
   16.78805542   70.17050171    4.90999985    3.01999998
   16.79138756   72.26090240    4.90999985    3.03999996
   16.79444313   70.40699768    4.90999985    3.01999998
   16.79777718   72.95410156    4.90999985    3.01999998
   16.80111122   71.01059723    4.90999985    3.03999996
   16.80555534   71.01059723    4.90999985    3.01999998
   16.80972099   69.85820007    4.90999985    3.01999998
   16.81305504   69.16110229    4.90999985    3.01999998
   16.81499863   74.10240173    4.90999985    3.01999998
   16.81666756   71.66799927    4.90999985    3.03999996
   16.81972313   76.34069824    4.90999985    3.03999996
   16.82305717   72.04730225    4.90999985    3.01999998
   16.82638931   72.22969818    4.90999985    3.03999996
   16.82944489   72.46949768    4.90999985    3.03999996
   16.83277893   71.13159943    4.90999985    3.01999998
   16.83583450   70.62349701    4.90999985    3.03999996
   16.83916664   72.76100159    4.90999985    3.01999998
   16.84250069   73.02660370    4.90999985    3.03999996
   16.84555626   73.82350159    4.90999985    3.03999996
   16.84889030   70.93979645    4.90999985    3.01999998
   16.85222244   71.05349731    4.90999985    3.01999998
   16.85694504   71.05349731    4.90999985    3.03999996
   16.86083412   68.58129883    4.90999985    3.01999998
   16.86416626   70.95310211    4.90999985    3.01999998
   16.86499977   71.51339722    4.90999985    3.01999998
   16.86777878   70.06189728    4.90999985    3.03999996
   16.87083435   68.34510040    4.90999985    3.03999996
   16.87416649   70.12259674    4.90999985    3.03999996
   16.87750053   71.45169830    4.90999985    3.03999996
   16.88055611   70.65670013    4.90999985    3.03999996
   16.88388824   70.42120361    4.90999985    3.01999998
   16.88722229   69.97769928    4.90999985    3.01999998
   16.89027786   73.54650116    4.90999985    3.03999996
   16.89361191   71.20169830    4.90999985    3.01999998
   16.89666748   71.32900238    4.90999985    3.03999996
   16.89999962   71.70320129    4.90999985    3.01999998
   16.90333366   75.10980225    4.90999985    3.03999996
   16.90805435   75.10980225    4.90999985    3.03999996
   16.91222191   70.78459930    4.90999985    3.03999996
   16.91499901   72.58219910    4.90999985    3.01999998
   16.91583252   71.80380249    4.90999985    3.01999998
   16.91888809   69.66880035    4.90999985    3.03999996
   16.92222214   74.74500275    4.90999985    3.01999998
   16.92555428   71.38719940    4.90999985    3.01999998
   16.92860985   72.44719696    4.90999985    3.03999996
   16.93194389   73.73560333    4.90999985    3.03999996
   16.93527603   73.71130371    4.90999985    3.03999996
   16.93833160   72.47080231    4.90999985    3.03999996
   16.94166565   72.29100037    4.90999985    3.03999996
   16.94472122   70.31800079    4.90999985    3.03999996
   16.94805527   73.87619781    4.90999985    3.01999998
   16.95138931   73.47720337    4.90999985    3.03999996
   16.95444489   72.19319916    4.90999985    3.03999996
   16.95916748   72.19319916    4.90999985    3.03999996
   16.96333504   73.77829742    4.90999985    3.01999998
   16.96500015   74.41439819    4.90999985    3.03999996
   16.96694565   75.85449982    4.90999985    3.01999998
   16.97027779   72.92630005    4.90999985    3.03999996
   16.97333336   72.27909851    4.90999985    3.01999998
   16.97666740   71.41510010    4.90999985    3.03999996
   16.97972298   72.86650085    4.90999985    3.03999996
   16.98305511   73.39150238    4.90999985    3.01999998
   16.98638916   70.57250214    4.90999985    3.01999998
   16.98944473   71.81800079    4.90999985    3.03999996
   16.99277878   71.90750122    4.90999985    3.03999996
   16.99611092   73.00509644    4.90999985    3.03999996
   16.99916649   71.30000305    4.90999985    3.03999996
   17.00250053   72.44480133    4.90999985    3.03999996
   17.00583267   75.60340118    4.90999985    3.03999996
   17.01027870   75.60340118    4.90999985    3.03999996
   17.01444435   72.17939758    4.90999985    3.03999996
   17.01499939   73.67369843    4.90999985    3.03999996
   17.01805496   70.44419861    4.90999985    3.03999996
   17.02138901   72.27690125    4.90999985    3.03999996
   17.02444458   73.22000122    4.90999985    3.03999996
   17.02777672   73.93389893    4.90999985    3.03999996
   17.03083229   72.37329865    4.90999985    3.03999996
   17.03416634   71.94989777    4.90999985    3.01999998
   17.03750038   73.23639679    4.90999985    3.01999998
   17.04055595   71.29229736    4.90999985    3.01999998
   17.04388809   71.41459656    4.90999985    3.03999996
   17.04722214   70.67279816    1.14999998    3.09999990
   17.05027771   70.51509857    0.05000000    0.25999999
   17.05360985   71.66560364    0.05000000    0.05000000
   17.05666542   73.98249817    0.05000000    0.05000000
   17.06138802   73.98249817    0.05000000    0.05000000
   17.06555557   72.97930145    0.05000000    0.05000000
   17.06888962   73.33080292    0.05000000    0.05000000
   17.07222366   71.64920044    0.05000000    0.05000000
   17.07527924   72.17209625    0.05000000    0.05000000
   17.07861137   74.40959930    0.05000000    0.05000000
   17.08194542   74.72679901    0.05000000    0.05000000
   17.08500099   74.89980316    0.05000000    0.05000000
   17.08833313   73.88559723    0.05000000    0.05000000
   17.09138870   71.07170105    0.05000000    0.05000000
   17.09472275   71.73390198    0.05000000    0.05000000
   17.09805679   72.35590363    0.05000000    0.05000000
   17.10111237   72.17780304    0.05000000    0.05000000
   17.10444450   70.26419830    0.05000000    0.05000000
   17.10777855   75.66120148    0.05000000    0.05000000
   17.11277771   75.66120148    0.05000000    0.05000000
   17.11694527   71.95659637    0.05000000    0.05000000
   17.12000084   71.47799683    0.05000000    0.05000000
   17.12333298   71.74690247    0.05000000    0.05000000
   17.12666702   70.57009888    0.05000000    0.05000000
   17.12972260   71.67729950    0.05000000    0.05000000
   17.13305473   74.53890228    0.05000000    0.05000000
   17.13611031   74.05519867    0.05000000    0.05000000
   17.13944435   72.12380219    0.05000000    0.05000000
   17.14277840   74.26930237    0.05000000    0.05000000
   17.14583397   71.64029694    0.05000000    0.05000000
   17.14916611   72.13670349    0.05000000    0.05000000
   17.15250015   73.72280121    0.05000000    0.05000000
   17.15555573   75.97720337    0.05000000    0.05000000
   17.15888786   73.86380005    0.05000000    0.05000000
   17.16388893   73.86380005    0.05000000    0.05000000
   17.16805458   69.27159882    0.05000000    0.05000000
   17.17138863   70.05329895    0.05000000    0.05000000
   17.17444420   71.90550232    0.05000000    0.05000000
   17.17777634   71.10040283    0.05000000    0.05000000
   17.18111038   70.71730042    0.05000000    0.05000000
   17.18416595   71.51200104    0.05000000    0.05000000
   17.18750000   71.75140381    0.05000000    0.05000000
   17.19055557   72.59470367    0.05000000    0.05000000
   17.19388771   70.40789795    0.05000000    0.05000000
   17.19722176   74.18800354    0.05000000    0.05000000
   17.20027924   72.78630066    0.05000000    0.05000000
   17.20361137   70.88320160    0.05000000    0.05000000
   17.20694542   70.86910248    0.05000000    0.05000000
   17.21000099   72.39620209    0.05000000    0.05000000
   17.21500015   72.39620209    0.05000000    0.05000000
   17.21916771   70.44640350    0.05000000    0.05000000
   17.22249985   71.58599854    0.05000000    0.05000000
   17.22555542   70.73090363    0.05000000    0.05000000
   17.22888947   69.70030212    0.05000000    0.05000000
   17.23222351   69.18060303    0.05000000    0.05000000
   17.23527718   69.23970032    0.05000000    0.05000000
   17.23861122   70.05570221    0.05000000    0.05000000
   17.24194527   69.32250214    0.05000000    0.05000000
   17.24500084   73.31050110    0.05000000    0.05000000
   17.24833298   70.46949768    0.05000000    0.05000000
   17.25138855   70.88970184    0.05000000    0.05000000
   17.25472260   70.40519714    0.05000000    0.05000000
   17.25805473   70.07240295    0.05000000    0.05000000
   17.26138878   70.60500336    0.05000000    0.05000000
   17.26611137   70.60500336    0.05000000    0.05000000
   17.27027702   70.21219635    0.05000000    0.05000000
   17.27361107   70.06790161    0.05000000    0.05000000
   17.27694511   73.81179810    0.05000000    0.05000000
   17.28000069   69.84490204    0.05000000    0.05000000
   17.28333282   71.12010193    0.05000000    0.05000000
   17.28666687   72.90869904    0.05000000    0.05000000
   17.28972244   70.30770111    0.05000000    0.05000000
   17.29305458   73.81510162    0.05000000    0.05000000
   17.29611015   72.93199921    0.05000000    0.05000000
   17.29944420   71.25959778    0.05000000    0.05000000
   17.30277634   71.28469849    0.05000000    0.05000000
   17.30583191   72.59449768    0.05000000    0.05000000
   17.30916595   70.67040253    0.05000000    0.05000000
   17.31250000   71.26869965    0.05000000    0.05000000
   17.31750107   71.26869965    0.05000000    0.05000000
   17.32166672   76.74880219    0.05000000    0.05000000
   17.32472229   72.76619720    0.05000000    0.05000000
   17.32805634   71.73069763    0.05000000    0.05000000
   17.33139038   71.70420074    0.05000000    0.05000000
   17.33444595   73.71859741    0.05000000    0.05000000
   17.33777809   70.03730011    0.05000000    0.05000000
   17.34083366   73.72370148    0.05000000    0.05000000
   17.34416771   70.45839691    0.05000000    0.05000000
   17.34749985   72.89649963    0.05000000    0.05000000
   17.35055542   71.77529907    0.05000000    0.05000000
   17.35388947   72.49449921    0.05000000    0.05000000
   17.35722351   70.57060242    0.05000000    0.05000000
   17.36027908   74.39140320    0.05000000    0.05000000
   17.36361122   71.79190063    0.05000000    0.05000000
   17.36861038   71.79190063    0.05000000    0.05000000
   17.37277794   72.15299988    0.05000000    0.05000000
   17.37583351   74.42489624    0.05000000    0.05000000
   17.37916756   74.05580139    0.05000000    0.05000000
   17.38249969   72.73169708    0.05000000    0.05000000
   17.38555527   70.11139679    0.05000000    0.05000000
   17.38888931   73.16310120    0.05000000    0.05000000
   17.39194489   71.95890045    0.05000000    0.05000000
   17.39527702   70.17780304    0.05000000    0.05000000
   17.39861107   73.99829865    0.05000000    0.05000000
   17.40166664   71.88580322    0.05000000    0.05000000
   17.40499878   76.02369690    0.05000000    0.05000000
   17.40833282   73.45310211    0.05000000    0.05000000
   17.41138840   73.75379944    0.05000000    0.05000000
   17.41472244   70.81710052    0.05000000    0.05000000
   17.41972160   70.81710052    0.05000000    0.05000000
   17.42388916   70.83979797    0.05000000    0.05000000
   17.42722130   71.47170258    0.05000000    0.05000000
   17.43027687   71.57009888    0.05000000    0.05000000
   17.43361092   71.74169922    0.05000000    0.05000000
   17.43694305   71.35430145    0.05000000    0.05000000
   17.43999863   70.22799683    0.05000000    0.05000000
   17.44333267   74.89859772    0.05000000    0.05000000
   17.44638824   73.94020081    0.05000000    0.05000000
   17.44972038   71.18699646    0.05000000    0.05000000
   17.45305634   71.89309692    0.05000000    0.05000000
   17.45611191   71.41320038    0.05000000    0.05000000
   17.45944595   71.94670105    0.05000000    0.05000000
   17.46277809   71.47910309    0.05000000    0.05000000
   17.46583366   75.51550293    0.05000000    0.05000000
   17.47083473   75.51550293    0.05000000    0.05000000
   17.47500038   71.21700287    0.05000000    0.05000000
   17.47833443   70.45400238    0.05000000    0.05000000
   17.48166656   70.52200317    0.05000000    0.05000000
   17.48472214   69.91600037    0.05000000    0.05000000
   17.48805618   69.85330200    0.05000000    0.05000000
   17.49111176   71.90579987    0.05000000    0.05000000
   17.49444389   71.82340240    0.05000000    0.05000000
   17.49777794   73.73419952    0.05000000    0.05000000
   17.50083351   73.63600159    0.05000000    0.05000000
   17.50416756   74.19170380    0.05000000    0.05000000
   17.50749969   71.24800110    0.05000000    0.05000000
   17.51055527   72.58070374    0.05000000    0.05000000
   17.51388931   71.72219849    0.05000000    0.05000000
   17.53499985   71.72219849    0.05000000    0.05000000
   17.53916550   72.90319824    0.05000000    0.05000000
   17.54249954   72.01100159    0.05000000    0.05000000
   17.54555511   72.57170105    0.05000000    0.05000000
   17.54888916   72.84860229    0.05000000    0.05000000
   17.55194283   70.68309784    0.05000000    0.05000000
   17.55527687   75.88459778    0.05000000    0.05000000
   17.55861092   70.59639740    0.05000000    0.05000000
   17.56166649   71.59609985    0.05000000    0.05000000
   17.56499863   71.27069855    0.05000000    0.05000000
   17.56833458   70.58390045    0.05000000    0.05000000
   17.57139015   72.64800262    0.05000000    0.05000000
   17.57472229   72.47589874    0.05000000    0.05000000
   17.57777786   71.49269867    0.05000000    0.05000000
   17.58111191   71.59049988    0.05000000    0.05000000
   17.58250046   71.14659882    0.05000000    0.05000000
   17.58666801   71.14659882    0.05000000    0.05000000
   17.59083366   71.77149963    0.05000000    0.05000000
   17.59388924   70.33439636    0.05000000    0.05000000
   17.59722328   71.75129700    0.05000000    0.05000000
   17.60027885   82.09349823    0.05000000    0.05000000
   17.60361099   82.06349945    0.05000000    0.05000000
   17.60694504   98.78690338    0.05000000    0.05000000
   17.61000061  102.02200317    0.05000000    0.05000000
   17.61333466   96.67389679    0.05000000    0.05000000
   17.61666679   80.65650177    0.05000000    0.05000000
   17.61972237   80.58999634    0.05000000    0.05000000
   17.62305641   83.13040161    0.05000000    0.05000000
   17.62638855   76.44619751    0.05000000    0.05000000
   17.62944412   78.18589783    0.05000000    0.05000000
   17.63249969   79.13020325    0.05000000    0.05000000
   17.63333321   86.05639648    0.05000000    0.05000000
   17.63777733   86.05639648    0.05000000    0.05000000
   17.64194489   75.46019745    0.05000000    0.05000000
   17.64527702   72.15640259    0.05000000    0.05000000
   17.64833260   73.74559784    0.05000000    0.05000000
   17.65166664   70.66010284    0.05000000    0.05000000
   17.65472221   78.79920197    0.05000000    0.05000000
   17.65805435   74.30410004    0.05000000    0.05000000
   17.66138840   73.10859680    0.05000000    0.05000000
   17.66444397   70.36720276    0.05000000    0.05000000
   17.66777802   71.48269653    0.05000000    0.05000000
   17.67083359   71.75240326    0.05000000    0.05000000
   17.67416573   72.13580322    0.05000000    0.05000000
   17.67749977   71.37270355    0.05000000    0.05000000
   17.68055534   72.68599701    0.05000000    0.05000000
   17.68249893   73.02610016    0.05000000    0.05000000
   17.68416595   70.02490234    0.05000000    0.05000000
   17.68888855   70.02490234    0.05000000    0.05000000
   17.69305420   72.40769958    0.05000000    0.05000000
   17.69638824   70.30370331    0.05000000    0.05000000
   17.69944382   73.65879822    0.05000000    0.05000000
   17.70277786   72.94120026    0.05000000    0.05000000
   17.70611191   70.20559692    0.05000000    0.05000000
   17.70916748   69.68550110    0.05000000    0.05000000
   17.71250153   70.38929749    0.05000000    0.05000000
   17.71555710   72.27839661    0.05000000    0.05000000
   17.71888924   76.10459900    0.05000000    0.05000000
   17.72222328   71.45069885    0.05000000    0.05000000
   17.72527885   70.68319702    0.05000000    0.05000000
   17.72861099   71.57900238    0.05000000    0.05000000
   17.73194504   70.31220245    0.05000000    0.05000000
   17.73250008   72.42810059    0.05000000    0.05000000
   17.73555565   70.35690308    0.05000000    0.05000000
   17.73999977   70.35690308    0.05000000    0.05000000
   17.74416733   73.43370056    0.05000000    0.05000000
   17.74749947   73.49510193    0.05000000    0.05000000
   17.75083351   71.37300110    0.05000000    0.05000000
   17.75388908   73.50270081    0.05000000    0.05000000
   17.75722313   74.93859863    0.05000000    0.05000000
   17.76055527   72.86160278    0.05000000    0.05000000
   17.76361084   72.53649902    0.05000000    0.05000000
   17.76694489   73.13839722    0.05000000    0.05000000
   17.77000046   70.64499664    0.05000000    0.05000000
   17.77333260   69.49919891    0.05000000    0.05000000
   17.77666664   69.77570343    0.05000000    0.05000000
   17.77972221   71.91480255    0.05000000    0.05000000
   17.78249931   72.10099792    0.05000000    0.05000000
   17.78361130   70.22219849    0.05000000    0.05000000
   17.78666687   72.15450287    0.05000000    0.05000000
   17.79138756   72.15450287    0.05000000    0.05000000
   17.79555511   71.66929626    0.05000000    0.05000000
   17.79861069   71.59780121    0.05000000    0.05000000
   17.80194283   71.02780151    0.05000000    0.05000000
   17.80527687   70.89520264    0.05000000    0.05000000
   17.80833244   72.15940094    0.05000000    0.05000000
   17.81166649   70.65529633    0.05000000    0.05000000
   17.81472206   72.24120331    0.05000000    0.05000000
   17.81805611   71.82869720    0.05000000    0.05000000
   17.82139015   71.48439789    0.05000000    0.05000000
   17.82444572   72.82289886    0.05000000    0.05000000
   17.82777786   70.73590088    0.05000000    0.05000000
   17.83111191   70.90670013    0.05000000    0.05000000
   17.83250046   70.72419739    0.05000000    0.05000000
   17.83472252   71.00779724    0.05000000    0.05000000
   17.83777809   69.88980103    0.05000000    0.05000000
   17.84250069   69.88980103    0.05000000    0.05000000
   17.84666824   72.60089874    0.05000000    0.05000000
   17.85000038   71.89859772    0.05000000    0.05000000
   17.85305595   71.11840057    0.05000000    0.05000000
   17.85639000   69.37799835    0.05000000    0.05000000
   17.85944557   69.59249878    0.05000000    0.05000000
   17.86277771   74.09770203    0.05000000    0.05000000
   17.86611176   76.49359894    0.05000000    0.05000000
   17.86916733   71.43910217    0.05000000    0.05000000
   17.87249947   75.35579681    0.05000000    0.05000000
   17.87583351   72.44499969    0.05000000    0.05000000
   17.87888908   70.35479736    0.05000000    0.05000000
   17.88222313   69.79250336    0.05000000    0.05000000
   17.88277817   70.41079712    0.05000000    0.05000000
   17.88583374   68.69180298    0.05000000    0.05000000
   17.88916588   69.38770294    0.05000000    0.05000000
   17.89361191   69.38770294    0.05000000    0.05000000
   17.89777756   70.48400116    0.05000000    0.05000000
   17.90111160   70.96019745    0.05000000    0.05000000
   17.90416718   69.49770355    0.05000000    0.05000000
   17.90749931   69.63210297    0.05000000    0.05000000
   17.91083336   71.37169647    0.05000000    0.05000000
   17.91388893   71.42279816    0.05000000    0.05000000
   17.91722107   72.64700317    0.05000000    0.05000000
   17.92055511   71.06960297    0.05000000    0.05000000
   17.92361069   70.98359680    0.05000000    0.05000000
   17.92694473   69.39260101    0.05000000    0.05000000
   17.93000031   71.54759979    0.05000000    0.05000000
   17.93277740   72.30870056    0.05000000    0.05000000
   17.93361092   73.96279907    0.05000000    0.05000000
   17.93694305   71.77189636    0.05000000    0.05000000
   17.94027710   70.24400330    0.05000000    0.05000000
   17.94472122   70.24400330    0.05000000    0.05000000
   17.94888878   69.76889801    0.05000000    0.05000000
   17.95222282   69.60700226    0.05000000    0.05000000
   17.95555687   69.52490234    0.05000000    0.05000000
   17.95861244   72.34660339    0.05000000    0.05000000
   17.96194458   71.77760315    0.05000000    0.05000000
   17.96527863   71.69570160    0.05000000    0.05000000
   17.96833420   71.66809845    0.05000000    0.05000000
   17.97166634   70.61450195    0.05000000    0.05000000
   17.97472191   71.48880005    0.05000000    0.05000000
   17.97805595   74.01679993    0.05000000    0.05000000
   17.98139000   71.59349823    0.05000000    0.05000000
   17.98277855   69.54889679    0.05000000    0.05000000
   17.98472214   69.88400269    0.05000000    0.05000000
   17.98805618   70.15200043    0.05000000    0.05000000
   17.99138832   70.71459961    0.05000000    0.05000000
   17.99611092   70.71459961    0.05000000    0.05000000
   18.00027847   71.92109680    0.05000000    0.05000000
   18.00333405   71.72309875    0.05000000    0.05000000
   18.00666618   69.42030334    0.05000000    0.05000000
   18.00972176   69.69619751    0.05000000    0.05000000
   18.01305580   69.54340363    0.05000000    0.05000000
   18.01638794   70.78109741    0.05000000    0.05000000
   18.01944351   72.74870300    0.05000000    0.05000000
   18.02277756   73.59760284    0.05000000    0.05000000
   18.02611160   74.05259705    0.05000000    0.05000000
   18.02916718   71.04979706    0.05000000    0.05000000
   18.03249931   76.12550354    0.05000000    0.05000000
   18.03305435   73.21849823    0.05000000    0.05000000
   18.03610992   70.32150269    0.05000000    0.05000000
   18.03944397   70.83860016    0.05000000    0.05000000
   18.04277802   67.47630310    0.05000000    0.05000000
   18.04722214   67.47630310    0.05000000    0.05000000
   18.05138779   72.51349640    0.05000000    0.05000000
   18.05444336   72.27829742    0.05000000    0.05000000
   18.05777740   71.82129669    0.05000000    0.05000000
   18.06110954   69.87259674    0.05000000    0.05000000
   18.06416512   72.22540283    0.05000000    0.05000000
   18.06750107   69.87920380    0.05000000    0.05000000
   18.07083511   70.61340332    0.05000000    0.05000000
   18.07389069   71.68329620    0.05000000    0.05000000
   18.07722282   70.59429932    0.05000000    0.05000000
   18.08027840   67.98000336    0.05000000    0.05000000
   18.08305550   69.20159912    0.05000000    0.05000000
   18.08388901   69.68139648    0.05000000    0.05000000
   18.08722305   69.57250214    0.05000000    0.05000000
   18.09055710   70.09809875    0.05000000    0.05000000
   18.09361267   70.02210236    0.05000000    0.05000000
   18.09833336   70.02210236    0.05000000    0.05000000
   18.10250092   73.39559937    0.05000000    0.05000000
   18.10583305   72.02709961    0.05000000    0.05000000
   18.10888863   68.48770142    0.05000000    0.05000000
   18.11222267   71.23010254    0.05000000    0.05000000
   18.11555672   71.97699738    0.05000000    0.05000000
   18.11861038   72.03990173    0.05000000    0.05000000
   18.12194443   72.52929688    0.05000000    0.05000000
   18.12500000   71.66609955    0.05000000    0.05000000
   18.12833405   70.38410187    0.05000000    0.05000000
   18.13166618   71.09020233    0.05000000    0.05000000
   18.13305473   71.21790314    0.05000000    0.05000000
   18.13500023   70.60119629    0.05000000    0.05000000
   18.13833237   70.39260101    0.05000000    0.05000000
   18.14166641   69.60289764    0.05000000    0.05000000
   18.14472198   70.61789703    0.05000000    0.05000000
   18.14944458   70.61789703    0.05000000    0.05000000
   18.15361023   68.56169891    0.05000000    0.05000000
   18.15694427   71.95359802    0.05000000    0.05000000
   18.16027832   70.29740143    0.05000000    0.05000000
   18.16333389   68.09680176    0.05000000    0.05000000
   18.16666603   69.32949829    0.05000000    0.05000000
   18.16972160   70.70179749    0.05000000    0.05000000
   18.17305565   71.99790192    0.05000000    0.05000000
   18.17638779   72.61309814    0.05000000    0.05000000
   18.17944336   69.10949707    0.05000000    0.05000000
   18.18277740   68.58470154    0.05000000    0.05000000
   18.18333244   70.77439880    0.05000000    0.05000000
   18.18666649   69.73970032    0.05000000    0.05000000
   18.18972206   69.50730133    0.05000000    0.05000000
   18.19305420   71.99169922    0.05000000    0.05000000
   18.19610977   71.35189819    0.05000000    0.05000000
   18.20083427   71.35189819    0.05000000    0.05000000
   18.20499992   70.56269836    0.05000000    0.05000000
   18.20805550   71.17259979    0.05000000    0.05000000
   18.21138954   69.53320313    0.05000000    0.05000000
   18.21444511   73.73040009    0.05000000    0.05000000
   18.21777916   70.37480164    0.05000000    0.05000000
   18.22111130   71.11499786    0.05000000    0.05000000
   18.22416687   72.24629974    0.05000000    0.05000000
   18.22750092   71.15660095    0.05000000    0.05000000
   18.23083305   71.87879944    0.05000000    0.05000000
   18.23333359   70.92099762    0.05000000    0.05000000
   18.23444557   69.80280304    0.05000000    0.05000000
   18.23750114   72.21710205    0.05000000    0.05000000
   18.24083328   74.95709991    0.05000000    0.05000000
   18.24416733   72.42130280    0.05000000    0.05000000
   18.24722290   70.00170135    0.05000000    0.05000000
   18.25194359   70.00170135    0.05000000    0.05000000
   18.25611115   70.77980042    0.05000000    0.05000000
   18.25916672   72.63819885    0.05000000    0.05000000
   18.26250076   70.81079865    0.05000000    0.05000000
   18.26583290   72.10910034    0.05000000    0.05000000
   18.26888847   71.86309814    0.05000000    0.05000000
   18.27222252   71.69640350    0.05000000    0.05000000
   18.27555466   71.85890198    0.05000000    0.05000000
   18.27861023   71.32209778    0.05000000    0.05000000
   18.28194427   70.90450287    0.05000000    0.05000000
   18.28333282   70.14129639    0.05000000    0.05000000
   18.28555489   72.97170258    0.05000000    0.05000000
   18.28861046   72.94879913    0.05000000    0.05000000
   18.29194450   70.44539642    0.05000000    0.05000000
   18.29527664   72.59839630    0.05000000    0.05000000
   18.29833221   70.33979797    0.05000000    0.05000000
   18.30305481   70.33979797    0.05000000    0.05000000
   18.30722237   72.27890015    0.05000000    0.05000000
   18.31055450   72.41429901    0.05000000    0.05000000
   18.31361008   69.32250214    0.05000000    0.05000000
   18.31694603   76.75379944    0.05000000    0.05000000
   18.32000160   72.40730286    0.05000000    0.05000000
   18.32333374   73.26850128    0.05000000    0.05000000
   18.32666779   71.99169922    0.05000000    0.05000000
   18.32972336   72.41870117    0.05000000    0.05000000
   18.33305550   69.89129639    0.05000000    0.05000000
   18.33361244   72.50890350    0.05000000    0.05000000
   18.33694458   73.68740082    0.05000000    0.05000000
   18.34000015   71.12100220    0.05000000    0.05000000
   18.34333420   71.79699707    0.05000000    0.05000000
   18.34638977   71.43489838    0.05000000    0.05000000
   18.34972191   72.59069824    0.05000000    0.05000000
   18.35416794   72.59069824    0.05000000    0.05000000
   18.35833359   71.15470123    0.05000000    0.05000000
   18.36166763   71.05390167    0.05000000    0.05000000
   18.36472321   71.08390045    0.05000000    0.05000000
   18.36805534   71.67130280    0.05000000    0.05000000
   18.37138939   73.52860260    0.05000000    0.05000000
   18.37444496   72.59510040    0.05000000    0.05000000
   18.37777710   71.98380280    0.05000000    0.05000000
   18.38111115   70.47180176    0.05000000    0.05000000
   18.38361168   73.43859863    0.05000000    0.05000000
   18.38472176   72.76190186    0.05000000    0.05000000
   18.38777733   71.43810272    0.05000000    0.05000000
   18.39111137   70.81800079    0.05000000    0.05000000
   18.39444351   70.93720245    0.05000000    0.05000000
   18.39749908   71.14099884    0.05000000    0.05000000
   18.40083313   71.43849945    0.05000000    0.05000000
   18.40555573   71.43849945    0.05000000    0.05000000
   18.40944481   72.28739929    0.05000000    0.05000000
   18.41277695   76.03469849    0.05000000    0.05000000
   18.41611099   72.65200043    0.05000000    0.05000000
   18.41916656   70.44570160    0.05000000    0.05000000
   18.42249870   70.01519775    0.05000000    0.05000000
   18.42583275   70.38590240    0.05000000    0.05000000
   18.42888832   69.27999878    0.05000000    0.05000000
   18.43222237   73.24590302    0.05000000    0.05000000
   18.43361092   70.65380096    0.05000000    0.05000000
   18.43583298   72.01450348    0.05000000    0.05000000
   18.43888855   71.68530273    0.05000000    0.05000000
   18.44222069   71.40750122    0.05000000    0.05000000
   18.44555473   70.75769806    0.05000000    0.05000000
   18.44861031   71.38569641    0.05000000    0.05000000
   18.45194435   70.90910339    0.05000000    0.05000000
   18.45666695   70.90910339    0.05000000    0.05000000
   18.46083450   66.28299713    0.05000000    0.05000000
   18.46389008   67.28340149    0.05000000    0.05000000
   18.46722221   71.97570038    0.05000000    0.05000000
   18.47055626   69.04609680    0.05000000    0.05000000
   18.47361183   70.43280029    0.05000000    0.05000000
   18.47694588   73.37449646    0.05000000    0.05000000
   18.48000145   72.97740173    0.05000000    0.05000000
   18.48333359   71.12100220    0.05000000    0.05000000
   18.48388863   67.21119690    0.05000000    0.05000000
   18.48722267   70.92790222    0.05000000    0.05000000
   18.49027824   70.30220032    0.05000000    0.05000000
   18.49361229   72.20970154    0.05000000    0.05000000
   18.49694443   70.83540344    0.05000000    0.05000000
   18.50000000   72.80590057    0.05000000    0.05000000
   18.50333405   71.47100067    0.05000000    0.05000000
   18.50777817   71.47100067    0.05000000    0.05000000
   18.51194382   69.90920258    0.05000000    0.05000000
   18.51527786   71.48359680    0.05000000    0.05000000
   18.51833344   69.97959900    0.05000000    0.05000000
   18.52166557   71.08609772    0.05000000    0.05000000
   18.52472115   72.22270203    0.05000000    0.05000000
   18.52805519   72.53869629    0.05000000    0.05000000
   18.53138924   72.60469818    0.05000000    0.05000000
   18.54833221   71.13249969    0.05000000    0.05000000
   18.55111122   70.90820313    0.05000000    0.05000000
   18.55416679   72.43299866    0.05000000    0.05000000
   18.55916595   72.43299866    0.05000000    0.05000000
   18.56333351   72.11000061    0.05000000    0.05000000
   18.56666756   69.13379669    0.05000000    0.05000000
   18.56972313   74.13749695    0.05000000    0.05000000
   18.57305717   74.39270020    0.05000000    0.05000000
   18.57638931   69.63970184    0.05000000    0.05000000
   18.57944489   77.15779877    0.05000000    0.05000000
   18.58277893   71.84670258    0.05000000    0.05000000
   18.58583450   74.11720276    0.05000000    0.05000000
   18.58916664   71.51899719    0.05000000    0.05000000
   18.59250069   70.91079712    0.05000000    0.05000000
   18.59555626   70.39910126    0.05000000    0.05000000
   18.59833336   71.68240356    0.05000000    0.05000000
   18.59916687   72.11260223    0.05000000    0.05000000
   18.60250092   70.53099823    0.05000000    0.05000000
   18.60583305   70.68240356    0.05000000    0.05000000
   18.61027908   70.68240356    0.05000000    0.05000000
   18.61444473   70.88809967    0.05000000    0.05000000
   18.61777878   71.07060242    0.05000000    0.05000000
   18.62111092   70.27850342    0.05000000    0.05000000
   18.62416649   72.52459717    0.05000000    0.05000000
   18.62750053   69.03179932    0.05000000    0.05000000
   18.63083267   70.09970093    0.05000000    0.05000000
   18.63388824   71.47940063    0.05000000    0.05000000
   18.63722229   70.66989899    0.05000000    0.05000000
   18.64055634   71.48780060    0.05000000    0.05000000
   18.64361191   71.47550201    0.05000000    0.05000000
   18.64694405   71.75900269    0.05000000    0.05000000
   18.64833260   74.55500031    0.05000000    0.05000000
   18.65027809   72.19609833    0.05000000    0.05000000
   18.65361023   71.79190063    0.05000000    0.05000000
   18.65694427   71.99939728    0.05000000    0.05000000
   18.66166687   71.99939728    0.05000000    0.05000000
   18.66583252   70.78569794    0.05000000    0.05000000
   18.66888809   71.31960297    0.05000000    0.05000000
   18.67222214   70.20659637    0.05000000    0.05000000
   18.67527771   72.51889801    0.05000000    0.05000000
   18.67860985   74.71440125    0.05000000    0.05000000
   18.68194389   75.60299683    0.05000000    0.05000000
   18.68499947   72.93730164    0.05000000    0.05000000
   18.68833160   71.76460266    0.05000000    0.05000000
   18.69166565   72.11260223    0.05000000    0.05000000
   18.69472122   68.82409668    0.05000000    0.05000000
   18.69805527   70.25530243    0.05000000    0.05000000
   18.69861031   70.57839966    0.05000000    0.05000000
   18.70194435   70.94779968    0.05000000    0.05000000
   18.70499992   67.83599854    0.05000000    0.05000000
   18.70833397   72.05490112    0.05000000    0.05000000
   18.71277809   72.05490112    0.05000000    0.05000000
   18.71694565   70.04599762    0.05000000    0.05000000
   18.72000122   71.55960083    0.05000000    0.05000000
   18.72333336   74.35739899    0.05000000    0.05000000
   18.72666740   70.60880280    0.05000000    0.05000000
   18.72972298   71.07319641    0.05000000    0.05000000
   18.73305511   70.26110077    0.05000000    0.05000000
   18.73638916   69.83519745    0.05000000    0.05000000
   18.73944473   71.11840057    0.05000000    0.05000000
   18.74277878   70.71230316    0.05000000    0.05000000
   18.74583435   70.02899933    0.05000000    0.05000000
   18.74861145   71.81929779    0.05000000    0.05000000
   18.74944496   70.40390015    0.05000000    0.05000000
   18.75277710   70.85839844    0.05000000    0.05000000
   18.75611115   70.01219940    0.05000000    0.05000000
   18.75916672   70.74890137    0.05000000    0.05000000
   18.76388931   70.74890137    0.05000000    0.05000000
   18.76805496   72.22859955    0.05000000    0.05000000
   18.77138901   69.54650116    0.05000000    0.05000000
   18.77444458   72.13990021    0.05000000    0.05000000
   18.77777672   71.26869965    0.05000000    0.05000000
   18.78111076   73.29000092    0.05000000    0.05000000
   18.78416634   74.48010254    0.05000000    0.05000000
   18.78750038   71.72109985    0.05000000    0.05000000
   18.79083252   73.84619904    0.05000000    0.05000000
   18.79388809   71.92859650    0.05000000    0.05000000
   18.79722214   73.48629761    0.05000000    0.05000000
   18.79861069   70.95659637    0.05000000    0.05000000
   18.80055428   71.37229919    0.05000000    0.05000000
   18.80388832   74.93029785    0.05000000    0.05000000
   18.80722237   74.93070221    0.05000000    0.05000000
   18.81027794   71.50730133    0.05000000    0.05000000
   18.81499863   71.50730133    0.05000000    0.05000000
   18.81916809   72.85949707    0.05000000    0.05000000
   18.82250023   68.63330078    0.05000000    0.05000000
   18.82583427   69.67410278    0.05000000    0.05000000
   18.82888985   71.52519989    0.05000000    0.05000000
   18.83222389   73.89170074    0.05000000    0.05000000
   18.83527756   70.45249939    0.05000000    0.05000000
   18.83861160   71.14469910    0.05000000    0.05000000
   18.84194565   73.13739777    0.05000000    0.05000000
   18.84500122   71.46649933    0.05000000    0.05000000
   18.84833336   71.65329742    0.05000000    0.05000000
   18.84889030   73.12090302    0.05000000    0.05000000
   18.85222244   75.38300323    0.05000000    0.05000000
   18.85527802   72.66709900    0.05000000    0.05000000
   18.85861206   71.45149994    0.05000000    0.05000000
   18.86166763   73.60620117    0.05000000    0.05000000
   18.86638832   73.60620117    0.05000000    0.05000000
   18.87055588   72.90209961    0.05000000    0.05000000
   18.87361145   72.74069977    0.05000000    0.05000000
   18.87694550   73.05120087    0.05000000    0.05000000
   18.88000107   71.26090240    0.05000000    0.05000000
   18.88333321   71.08799744    0.05000000    0.05000000
   18.88666725   72.79180145    0.05000000    0.05000000
   18.88972282   72.02960205    0.05000000    0.05000000
   18.89305496   71.15570068    0.05000000    0.05000000
   18.89638901   71.38500214    0.05000000    0.05000000
   18.89888954   72.52120209    0.05000000    0.05000000
   18.89999962   72.91139984    0.05000000    0.05000000
   18.90305519   72.88159943    0.05000000    0.05000000
   18.90638924   75.50060272    0.05000000    0.05000000
   18.90972137   71.77539825    0.05000000    0.05000000
   18.91277695   70.99720001    0.05000000    0.05000000
   18.91749954   70.99720001    0.05000000    0.05000000
   18.92166519   72.05210114    0.05000000    0.05000000
   18.92472076   70.63420105    0.05000000    0.05000000
   18.92805481   73.53029633    0.05000000    0.05000000
   18.93138885   72.89959717    0.05000000    0.05000000
   18.93444443   73.61560059    0.05000000    0.05000000
   18.93777657   72.80200195    0.05000000    0.05000000
   18.94111061   70.47100067    0.05000000    0.05000000
   18.94416618   73.70010376    0.05000000    0.05000000
   18.94749832   73.64720154    0.05000000    0.05000000
   18.94888878   79.45120239    0.05000000    0.05000000
   18.95111275   72.71739960    0.05000000    0.05000000
   18.95416832   71.46420288    0.05000000    0.05000000
   18.95750046   75.04609680    0.05000000    0.05000000
   18.96083450   71.28739929    0.05000000    0.05000000
   18.96389008   72.31060028    0.05000000    0.05000000
   18.96861076   72.31060028    0.05000000    0.05000000
   18.97277832   76.37629700    0.05000000    0.05000000
   18.97611237   81.27120209    0.05000000    0.05000000
   18.97916794   72.90319824    0.05000000    0.05000000
   18.98250008   77.95040131    0.05000000    0.05000000
   18.98555565   75.53289795    0.05000000    0.05000000
   18.98888969   73.23909760    0.05000000    0.05000000
   18.99222183   72.62750244    0.05000000    0.05000000
   18.99527740   71.50620270    0.05000000    0.05000000
   18.99861145   78.47740173    0.05000000    0.05000000
   18.99916649   75.66149902    0.05000000    0.05000000
   19.00222206   81.73130035    0.05000000    0.05000000
   19.00555611   73.32050323    0.05000000    0.05000000
   19.00888824   71.85630035    0.05000000    0.05000000
   19.01194382   73.33750153    0.05000000    0.05000000
   19.01527786   72.71610260    0.05000000    0.05000000
   19.01972198   72.71610260    0.05000000    0.05000000
   19.02388954   72.10169983    0.05000000    0.05000000
   19.02722168   71.60340118    0.05000000    0.05000000
   19.03055573   73.18820190    0.05000000    0.05000000
   19.03361130   74.11440277    0.05000000    0.05000000
   19.03694344   71.88860321    0.05000000    0.05000000
   19.03999901   79.00650024    0.05000000    0.05000000
   19.04333305   70.71949768    0.05000000    0.05000000
   19.04666710   75.72850037    0.05000000    0.05000000
   19.04916573   76.44930267    0.05000000    0.05000000
   19.05027771   86.08409882    0.05000000    0.05000000
   19.05333328   73.04810333    0.05000000    0.05000000
   19.05666542   72.80300140    0.05000000    0.05000000
   19.05999947   75.30699921    0.05000000    0.05000000
   19.06305504   74.25839996    0.05000000    0.05000000
   19.06638718   73.80760193    0.05000000    0.05000000
   19.07111168   73.80760193    0.05000000    0.05000000
   19.07500076   79.67710114    0.05000000    0.05000000
   19.07833481   79.02220154    0.05000000    0.05000000
   19.08166695   72.29260254    0.05000000    0.05000000
   19.08472252   75.30580139    0.05000000    0.05000000
   19.08805656   72.90689850    0.05000000    0.05000000
   19.09138870   83.57009888    0.05000000    0.05000000
   19.09444427   78.91600037    0.05000000    0.05000000
   19.09777832   79.78659821    0.05000000    0.05000000
   19.09916687   75.17240143    0.05000000    0.05000000
   19.10138893   74.56379700    0.05000000    0.05000000
   19.10444450   81.63539886    0.05000000    0.05000000
   19.10777855   85.40940094    0.05000000    0.05000000
   19.11111069   79.47650146    0.05000000    0.05000000
   19.11416626   81.58840179    0.05000000    0.05000000
   19.11750031   74.40969849    0.05000000    0.05000000
   19.12222290   74.40969849    0.05000000    0.05000000
   19.12638855   81.95069885    0.05000000    0.05000000
   19.12944412   82.32759857    0.05000000    0.05000000
   19.13277817   86.45269775    0.05000000    0.05000000
   19.13611031   87.04350281    0.05000000    0.05000000
   19.13916588   78.96669769    0.05000000    0.05000000
   19.14249992   79.09110260    0.05000000    0.05000000
   19.14555550   86.75839996    0.05000000    0.05000000
   19.14888954   87.72429657    0.05000000    0.05000000
   19.14944458   78.03649902    0.05000000    0.05000000
   19.15277672   87.74839783    0.05000000    0.05000000
   19.15583229   90.92949677    0.05000000    0.05000000
   19.15916634   85.06449890    0.05000000    0.05000000
   19.16250038   78.42150116    0.05000000    0.05000000
   19.16555595   88.32820129    0.05000000    0.05000000
   19.16888809   87.69550323    0.05000000    0.05000000
   19.17333221   87.69550323    0.05000000    0.05000000
   19.17749977   82.58709717    0.05000000    0.05000000
   19.18083191   73.20680237    0.05000000    0.05000000
   19.18388748   82.54180145    0.05000000    0.05000000
   19.18722153   78.92890167    0.05000000    0.05000000
   19.19027710   91.35769653    0.05000000    0.05000000
   19.19361115   79.76260376    0.05000000    0.05000000
   19.19694328   80.71849823    0.05000000    0.05000000
   19.19944382   81.56739807    0.05000000    0.05000000
   19.20055580   73.64659882    0.05000000    0.05000000
   19.20361137   78.75980377    0.05000000    0.05000000
   19.20694542   83.82790375    0.05000000    0.05000000
   19.21027946   77.82050323    0.05000000    0.05000000
   19.21333504   77.85949707    0.05000000    0.05000000
   19.21666718   77.72949982    0.05000000    0.05000000
   19.21972275   80.68640137    0.05000000    0.05000000
   19.22444534   80.68640137    0.05000000    0.05000000
   19.22861099   81.46700287    0.05000000    0.05000000
   19.23194504   84.19869995    0.05000000    0.05000000
   19.23500061   81.12010193    0.05000000    0.05000000
   19.23833275   83.41390228    0.05000000    0.05000000
   19.24166679   89.04540253    0.05000000    0.05000000
   19.24472237   86.22200012    0.05000000    0.05000000
   19.24805641   88.53279877    0.05000000    0.05000000
   19.24944496   81.93969727    0.05000000    0.05000000
   19.25166702   86.04329681    0.05000000    0.05000000
   19.25472260   93.28119659    0.05000000    0.05000000
   19.25805473   91.39479828    0.05000000    0.05000000
   19.26138878   95.31169891    0.05000000    0.05000000
   19.26444435   94.73229980    0.05000000    0.05000000
   19.26777840   89.42160034    0.05000000    0.05000000
   19.27083397   92.01119995    0.05000000    0.05000000
   19.27583313   92.01119995    0.05000000    0.05000000
   19.27972221   95.91510010    0.05000000    0.05000000
   19.28305435  103.12799835    0.05000000    0.05000000
   19.28638840   94.51540375    0.05000000    0.05000000
   19.28944397   96.52749634    0.05000000    0.05000000
   19.29277802  100.43299866    0.05000000    0.05000000
   19.29611015  100.19000244    0.05000000    0.05000000
   19.29916573   99.13559723    0.05000000    0.05000000
   19.29972076   99.97360229    0.05000000    0.05000000
   19.30305481  103.12899780    0.05000000    0.05000000
   19.30638885  100.57900238    0.05000000    0.05000000
   19.30944443   94.40760040    0.05000000    0.05000000
   19.31277657   96.68280029    0.05000000    0.05000000
   19.31583214   95.83809662    0.05000000    0.05000000
   19.31916809   85.53170013    0.05000000    0.05000000
   19.32250023   90.80030060    0.05000000    0.05000000
   19.32694626   90.80030060    0.05000000    0.05000000
   19.33111191   90.15740204    0.05000000    0.05000000
   19.33416748   93.84079742    0.05000000    0.05000000
   19.33750153   79.25579834    0.05000000    0.05000000
   19.34083366   82.39040375    0.05000000    0.05000000
   19.34388924   80.54070282    0.05000000    0.05000000
   19.34722328   90.28009796    0.05000000    0.05000000
   19.34972191   74.53350067    0.05000000    0.05000000
   19.35111237   86.93139648    0.05000000    0.05000000
   19.35444450   88.13279724    0.05000000    0.05000000
   19.35750008   90.38330078    0.05000000    0.05000000
   19.36083412   88.16089630    0.05000000    0.05000000
   19.36416626   86.54129791    0.05000000    0.05000000
   19.36722183   89.91619873    0.05000000    0.05000000
   19.37055588   81.81349945    0.05000000    0.05000000
   19.37361145   87.61119843    0.05000000    0.05000000
   19.37805557   87.61119843    0.05000000    0.05000000
   19.38222313   95.33429718    0.05000000    0.05000000
   19.38555527   91.50789642    0.05000000    0.05000000
   19.38861084   81.48079681    0.05000000    0.05000000
   19.39194489   82.05919647    0.05000000    0.05000000
   19.39500046   91.63179779    0.05000000    0.05000000
   19.39833260   94.10399628    0.05000000    0.05000000
   19.39972115   84.59380341    0.05000000    0.05000000
   19.40194321   77.63009644    0.05000000    0.05000000
   19.40527725   88.87169647    0.05000000    0.05000000
   19.40833282   81.81250000    0.05000000    0.05000000
   19.41166687   84.49240112    0.05000000    0.05000000
   19.41472244   76.27950287    0.05000000    0.05000000
   19.41805458   87.59420013    0.05000000    0.05000000
   19.42138863   87.63089752    0.05000000    0.05000000
   19.42444420   87.91619873    0.05000000    0.05000000
   19.42916679   87.91619873    0.05000000    0.05000000
   19.43333244   78.45680237    0.05000000    0.05000000
   19.43666649   82.22419739    0.05000000    0.05000000
   19.43972206   80.30750275    0.05000000    0.05000000
   19.44305420   78.26809692    0.05000000    0.05000000
   19.44638824   83.83209991    0.05000000    0.05000000
   19.44944382   73.52580261    0.05000000    0.05000000
   19.45000076   75.38459778    0.05000000    0.05000000
   19.45333481   77.84269714    0.05000000    0.05000000
   19.45666695   72.90209961    0.05000000    0.05000000
   19.45972252   75.62999725    0.05000000    0.05000000
   19.46305656   71.64399719    0.05000000    0.05000000
   19.46611214   74.99770355    0.05000000    0.05000000
   19.46944427   73.39029694    0.05000000    0.05000000
   19.47277832   72.90679932    0.05000000    0.05000000
   19.47583389   72.86180115    0.05000000    0.05000000
   19.48055649   72.86180115    0.05000000    0.05000000
   19.48444557   76.19000244    0.05000000    0.05000000
   19.48777771   76.26709747    0.05000000    0.05000000
   19.49111176   74.85130310    0.05000000    0.05000000
   19.49416733   80.20890045    0.05000000    0.05000000
   19.49749947   73.93650055    0.05000000    0.05000000
   19.50000000   71.61000061    0.05000000    0.05000000
   19.50111198   72.41300201    0.05000000    0.05000000
   19.50444412   74.01190186    0.05000000    0.05000000
   19.50749969   74.14430237    0.05000000    0.05000000
   19.51083374   79.50849915    0.05000000    0.05000000
   19.51388931   74.87950134    0.05000000    0.05000000
   19.51722145   71.39949799    0.05000000    0.05000000
   19.52055550   77.42829895    0.05000000    0.05000000
   19.52361107   79.33540344    0.05000000    0.05000000
   19.52694511   77.99359894    0.05000000    0.05000000
   19.53166580   77.99359894    0.05000000    0.05000000
   19.53583336   79.23290253    0.05000000    0.05000000
   19.53888893   80.19550323    0.05000000    0.05000000
   19.54222107   75.39659882    0.05000000    0.05000000
   19.54555511   76.89800262    0.05000000    0.05000000
   19.54861069   74.58149719    0.05000000    0.05000000
   19.56583214   76.01390076    0.05000000    0.05000000
   19.56861115   79.03589630    0.05000000    0.05000000
   19.57194519   72.96980286    0.05000000    0.05000000
   19.57527924   75.23280334    0.05000000    0.05000000
   19.57833481   73.16860199    0.05000000    0.05000000
   19.58277893   73.16860199    0.05000000    0.05000000
   19.58694458   74.64170074    0.05000000    0.05000000
   19.59027863   73.06620026    0.05000000    0.05000000
   19.59333420   74.99849701    0.05000000    0.05000000
   19.59666824   77.80780029    0.05000000    0.05000000
   19.60000038   76.20790100    0.05000000    0.05000000
   19.60305595   77.74069977    0.05000000    0.05000000
   19.60639000   77.98210144    0.05000000    0.05000000
   19.60972214   74.77790070    0.05000000    0.05000000
   19.61277771   75.25520325    0.05000000    0.05000000
   19.61583328   80.05449677    0.05000000    0.05000000
   19.61638832   81.68859863    0.05000000    0.05000000
   19.61972237   76.17060089    0.05000000    0.05000000
   19.62305641   75.06169891    0.05000000    0.05000000
   19.62611198   76.92910004    0.05000000    0.05000000
   19.62944412   75.80989838    0.05000000    0.05000000
   19.63416672   75.80989838    0.05000000    0.05000000
   19.63805580   79.99770355    0.05000000    0.05000000
   19.64138794   81.53759766    0.05000000    0.05000000
   19.64472198   81.67389679    0.05000000    0.05000000
   19.64777756   77.01149750    0.05000000    0.05000000
   19.65111160   72.30180359    0.05000000    0.05000000
   19.65444374   76.08499908    0.05000000    0.05000000
   19.65749931   71.01290131    0.05000000    0.05000000
   19.66083336   79.83619690    0.05000000    0.05000000
   19.66388893   77.90190125    0.05000000    0.05000000
   19.66583252   73.77660370    0.05000000    0.05000000
   19.66749954   80.00150299    0.05000000    0.05000000
   19.67083359   82.44049835    0.05000000    0.05000000
   19.67416573   72.90170288    0.05000000    0.05000000
   19.67722130   73.92120361    0.05000000    0.05000000
   19.68055534   71.65299988    0.05000000    0.05000000
   19.68527603   71.65299988    0.05000000    0.05000000
   19.68944359   72.42040253    0.05000000    0.05000000
   19.69249916   72.39720154    0.05000000    0.05000000
   19.69583321   75.38880157    0.05000000    0.05000000
   19.69916534   74.08419800    0.05000000    0.05000000
   19.70222282   76.02200317    0.05000000    0.05000000
   19.70555687   75.64340210    0.05000000    0.05000000
   19.70861244   72.78949738    0.05000000    0.05000000
   19.71194458   77.17019653    0.05000000    0.05000000
   19.71527863   70.64440155    0.05000000    0.05000000
   19.71583366   72.31289673    0.05000000    0.05000000
   19.71861076   70.12950134    0.05000000    0.05000000
   19.72194481   74.81770325    0.05000000    0.05000000
   19.72527885   70.22730255    0.05000000    0.05000000
   19.72833443   73.32849884    0.05000000    0.05000000
   19.73166656   74.35769653    0.05000000    0.05000000
   19.73638916   74.35769653    0.05000000    0.05000000
   19.74055672   75.03829956    0.05000000    0.05000000
   19.74388885   73.67559814    0.05000000    0.05000000
   19.74694443   71.08049774    0.05000000    0.05000000
   19.75027847   72.44550323    0.05000000    0.05000000
   19.75361061   78.03780365    0.05000000    0.05000000
   19.75666618   76.85209656    0.05000000    0.05000000
   19.76000023   76.84079742    0.05000000    0.05000000
   19.76333427   70.62779999    0.05000000    0.05000000
   19.76583290   78.42530060    0.05000000    0.05000000
   19.76666641   70.97280121    0.05000000    0.05000000
   19.77000046   77.11620331    0.05000000    0.05000000
   19.77333260   73.53220367    0.05000000    0.05000000
   19.77638817   71.08650208    0.05000000    0.05000000
   19.77972221   73.22180176    0.05000000    0.05000000
   19.78305435   76.25659943    0.05000000    0.05000000
   19.78750038   76.25659943    0.05000000    0.05000000
   19.79166603   70.11170197    0.05000000    0.05000000
   19.79500008   71.19290161    0.05000000    0.05000000
   19.79805565   71.66390228    0.05000000    0.05000000
   19.80138779   77.10119629    0.05000000    0.05000000
   19.80472183   73.49449921    0.05000000    0.05000000
   19.80777740   73.19360352    0.05000000    0.05000000
   19.81110954   71.22940063    0.05000000    0.05000000
   19.81444359   72.71029663    0.05000000    0.05000000
   19.81611061   73.09619904    0.05000000    0.05000000
   19.81777954   71.29810333    0.05000000    0.05000000
   19.82111168   71.02899933    0.05000000    0.05000000
   19.82444572   72.88510132    0.05000000    0.05000000
   19.82750130   71.33940125    0.05000000    0.05000000
   19.83083344   71.21060181    0.05000000    0.05000000
   19.83416748   70.51239777    0.05000000    0.05000000
   19.83889008   70.51239777    0.05000000    0.05000000
   19.84277916   73.20850372    0.05000000    0.05000000
   19.84611130   69.58599854    0.05000000    0.05000000
   19.84944534   72.03189850    0.05000000    0.05000000
   19.85250092   70.39810181    0.05000000    0.05000000
   19.85583305   70.49179840    0.05000000    0.05000000
   19.85916710   71.74929810    0.05000000    0.05000000
   19.86222267   73.12979889    0.05000000    0.05000000
   19.86555672   70.09780121    0.05000000    0.05000000
   19.86611176   70.32199860    0.05000000    0.05000000
   19.86916733   72.03540039    0.05000000    0.05000000
   19.87222290   70.24819946    0.05000000    0.05000000
   19.87555504   69.34210205    0.05000000    0.05000000
   19.87888908   71.19740295    0.05000000    0.05000000
   19.88194466   72.42160034    0.05000000    0.05000000
   19.88527679   73.45919800    0.05000000    0.05000000
   19.88999939   73.45919800    0.05000000    0.05000000
   19.89416695   71.16909790    0.05000000    0.05000000
   19.89722252   71.58200073    0.05000000    0.05000000
   19.90055466   71.56639862    0.05000000    0.05000000
   19.90361023   70.94309998    0.05000000    0.05000000
   19.90694427   73.11139679    0.05000000    0.05000000
   19.91027832   71.41139984    0.05000000    0.05000000
   19.91333389   71.78549957    0.05000000    0.05000000
   19.91611099   72.33959961    0.05000000    0.05000000
   19.91722107   71.59249878    0.05000000    0.05000000
   19.92027664   72.96579742    0.05000000    0.05000000
   19.92361069   71.72419739    0.05000000    0.05000000
   19.92694473   72.28320313    0.05000000    0.05000000
   19.93000031   72.89160156    0.05000000    0.05000000
   19.93333244   71.40679932    0.05000000    0.05000000
   19.93638802   71.89399719    0.05000000    0.05000000
   19.94111061   71.89399719    0.05000000    0.05000000
   19.94527626   77.30280304    0.05000000    0.05000000
   19.94861031   74.24389648    0.05000000    0.05000000
   19.95166779   71.40149689    0.05000000    0.05000000
   19.95499992   71.58229828    0.05000000    0.05000000
   19.95833397   72.16339874    0.05000000    0.05000000
   19.96138954   74.20159912    0.05000000    0.05000000
   19.96472359   72.05690002    0.05000000    0.05000000
   19.96611214   74.05760193    0.05000000    0.05000000
   19.96833420   74.09040070    0.05000000    0.05000000
   19.97138977   70.70960236    0.05000000    0.05000000
   19.97472191   71.18750000    0.05000000    0.05000000
   19.97805595   71.18579865    0.05000000    0.05000000
   19.98111153   72.56569672    0.05000000    0.05000000
   19.98444557   72.85649872    0.05000000    0.05000000
   19.98750114   66.85220337    0.05000000    0.05000000
   19.99222183   66.85220337    0.05000000    0.05000000
   19.99638939   73.24389648    0.05000000    0.05000000
   19.99972153   71.23789978    0.05000000    0.05000000
   20.00277710   71.44090271    0.05000000    0.05000000
   20.00611115   72.35790253    0.05000000    0.05000000
   20.00944519   74.46440125    0.05000000    0.05000000
   20.01250076   70.14540100    0.05000000    0.05000000
   20.01583290   71.58689880    0.05000000    0.05000000
   20.01638794   69.71880341    0.05000000    0.05000000
   20.01944351   69.76580048    0.05000000    0.05000000
   20.02277756   72.61499786    0.05000000    0.05000000
   20.02611160   73.46320343    0.05000000    0.05000000
   20.02916718   73.74030304    0.05000000    0.05000000
   20.03249931   72.79669952    0.05000000    0.05000000
   20.03583336   73.25959778    0.05000000    0.05000000
   20.03888893   71.80410004    0.05000000    0.05000000
   20.04333305   71.80410004    0.05000000    0.05000000
   20.04749870   70.92150116    0.05000000    0.05000000
   20.05083275   72.15280151    0.05000000    0.05000000
   20.05416679   70.99349976    0.05000000    0.05000000
   20.05722237   71.65940094    0.05000000    0.05000000
   20.06055450   71.37409973    0.05000000    0.05000000
   20.06388855   75.22879791    0.05000000    0.05000000
   20.06638718   72.91609955    0.05000000    0.05000000
   20.06722260   71.56020355    0.05000000    0.05000000
   20.07055664   71.72019958    0.05000000    0.05000000
   20.07389069   70.83779907    0.05000000    0.05000000
   20.07694626   70.97319794    0.05000000    0.05000000
   20.08027840   69.50099945    0.05000000    0.05000000
   20.08333397   75.45469666    0.05000000    0.05000000
   20.08666801   73.00939941    0.05000000    0.05000000
   20.09000015   75.04290009    0.05000000    0.05000000
   20.09472275   75.04290009    0.05000000    0.05000000
   20.09889030   72.33750153    0.05000000    0.05000000
   20.10194397   72.11569977    0.05000000    0.05000000
   20.10527802   72.45120239    0.05000000    0.05000000
   20.10833359   71.56580353    0.05000000    0.05000000
   20.11166763   71.57920074    0.05000000    0.05000000
   20.11499977   73.88919830    0.05000000    0.05000000
   20.11638832   72.72380066    0.05000000    0.05000000
   20.11833382   71.54979706    0.05000000    0.05000000
   20.12166595   69.89990234    0.05000000    0.05000000
   20.12500000   72.60130310    0.05000000    0.05000000
   20.12805557   72.39340210    0.05000000    0.05000000
   20.13138962   73.05180359    0.05000000    0.05000000
   20.13472176   73.37449646    0.05000000    0.05000000
   20.13777733   71.90670013    0.05000000    0.05000000
   20.14111137   71.49970245    0.05000000    0.05000000
   20.14583397   71.49970245    0.05000000    0.05000000
   20.14999962   73.92569733    0.05000000    0.05000000
   20.15305519   71.85600281    0.05000000    0.05000000
   20.15638924   71.68240356    0.05000000    0.05000000
   20.15972137   72.00460052    0.05000000    0.05000000
   20.16305542   73.99870300    0.05000000    0.05000000
   20.16611099   72.16000366    0.05000000    0.05000000
   20.16666603   74.79160309    0.05000000    0.05000000
   20.17000008   72.77449799    0.05000000    0.05000000
   20.17305565   71.93430328    0.05000000    0.05000000
   20.17638779   72.92880249    0.05000000    0.05000000
   20.17972183   71.35970306    0.05000000    0.05000000
   20.18277740   69.84940338    0.05000000    0.05000000
   20.18610954   74.14959717    0.05000000    0.05000000
   20.18944359   74.64990234    0.05000000    0.05000000
   20.19249916   75.26370239    0.05000000    0.05000000
   20.19694328   75.26370239    0.05000000    0.05000000
   20.20111275   72.38220215    0.05000000    0.05000000
   20.20444489   74.57240295    0.05000000    0.05000000
   20.20750046   72.80429840    0.05000000    0.05000000
   20.21083450   70.42400360    0.05000000    0.05000000
   20.21416664   70.21060181    0.05000000    0.05000000
   20.21666718   74.22059631    0.05000000    0.05000000
   20.21777916   71.85970306    0.05000000    0.05000000
   20.22083473   72.27989960    0.05000000    0.05000000
   20.22416687   77.33390045    0.05000000    0.05000000
   20.22777748   74.48899841    0.05000000    0.05000000
   20.23083305   74.93920135    0.05000000    0.05000000
   20.23416710   87.81909943    0.05000000    0.05000000
   20.23750114   77.48290253    0.05000000    0.05000000
   20.24055672   91.79119873    0.05000000    0.05000000
   20.24388885   87.07530212    0.05000000    0.05000000
   20.24805641   87.07530212    0.05000000    0.05000000
   20.25222206   91.31680298    0.05000000    0.05000000
   20.25555611   94.69129944    0.05000000    0.05000000
   20.25888824  102.74299622    0.05000000    0.05000000
   20.26194382   94.61170197    0.05000000    0.05000000
   20.26527786   94.30069733    0.05000000    0.05000000
   20.26666641   98.01589966    0.05000000    0.05000000
   20.26888847   99.97850037    0.05000000    0.05000000
   20.27194405  103.44200134    0.05000000    0.05000000
   20.27527809   94.59249878    0.05000000    0.05000000
   20.27861023   96.77390289    0.05000000    0.05000000
   20.28166580   87.55259705    0.05000000    0.05000000
   20.28499985   95.51219940    0.05000000    0.05000000
   20.28833199  100.33599854    0.05000000    0.05000000
   20.29138756   93.46510315    0.05000000    0.05000000
   20.29472160  106.18900299    0.05000000    0.05000000
   20.29944420  106.18900299    0.05000000    0.05000000
   20.30360985   92.16040039    0.05000000    0.05000000
   20.30666542   92.12229919    0.05000000    0.05000000
   20.30999947   97.82630157    0.05000000    0.05000000
   20.31305504   96.60610199    0.05000000    0.05000000
   20.31638718   94.83329773    0.05000000    0.05000000
   20.31694603   92.84079742    0.05000000    0.05000000
   20.32027817   94.49870300    0.05000000    0.05000000
   20.32333374   97.28849792    0.05000000    0.05000000
   20.32666779   96.00469971    0.05000000    0.05000000
   20.33000183   90.63809967    0.05000000    0.05000000
   20.33305550   80.94360352    0.05000000    0.05000000
   20.33638954   85.33760071    0.05000000    0.05000000
   20.33944511   92.33699799    0.05000000    0.05000000
   20.34277916   91.31210327    0.05000000    0.05000000
   20.34611130   72.99130249    0.05000000    0.05000000
   20.35055542   72.99130249    0.05000000    0.05000000
   20.35472298   85.64849854    0.05000000    0.05000000
   20.35777855   78.27760315    0.05000000    0.05000000
   20.36111069   88.53160095    0.05000000    0.05000000
   20.36444473   86.24629974    0.05000000    0.05000000
   20.36694527   79.86810303    0.05000000    0.05000000
   20.36805534   91.68609619    0.05000000    0.05000000
   20.37111092   82.86920166    0.05000000    0.05000000
   20.37444496   88.92910004    0.05000000    0.05000000
   20.37750053   79.01149750    0.05000000    0.05000000
   20.38083267   81.82949829    0.05000000    0.05000000
   20.38416672   82.86170197    0.05000000    0.05000000
   20.38722229   79.55310059    0.05000000    0.05000000
   20.39055634   85.75250244    0.05000000    0.05000000
   20.39388847   86.28430176    0.05000000    0.05000000
   20.39694405   77.61650085    0.05000000    0.05000000
   20.40166664   77.61650085    0.05000000    0.05000000
   20.40583229   79.79280090    0.05000000    0.05000000
   20.40916634   73.67939758    0.05000000    0.05000000
   20.41222191   78.59690094    0.05000000    0.05000000
   20.41555595   74.33149719    0.05000000    0.05000000
   20.41694450   77.81169891    0.05000000    0.05000000
   20.41916656   74.82980347    0.05000000    0.05000000
   20.42249870   82.91819763    0.05000000    0.05000000
   20.42555428   78.54979706    0.05000000    0.05000000
   20.42888832   77.84559631    0.05000000    0.05000000
   20.43194389   75.73179626    0.05000000    0.05000000
   20.43527603   73.09919739    0.05000000    0.05000000
   20.43861008   72.39029694    0.05000000    0.05000000
   20.44166565   77.75389862    0.05000000    0.05000000
   20.44499969   72.02940369    0.05000000    0.05000000
   20.44833183   72.60729980    0.05000000    0.05000000
   20.45305634   72.60729980    0.05000000    0.05000000
   20.45722389   75.48090363    0.05000000    0.05000000
   20.46027946   72.89019775    0.05000000    0.05000000
   20.46361160   80.35669708    0.05000000    0.05000000
   20.46666718   76.75800323    0.05000000    0.05000000
   20.46750069   81.37280273    0.05000000    0.05000000
   20.47055626   76.12100220    0.05000000    0.05000000
   20.47389030   71.93740082    0.05000000    0.05000000
   20.47722244   71.41770172    0.05000000    0.05000000
   20.48027802   72.29769897    0.05000000    0.05000000
   20.48361206   78.68810272    0.05000000    0.05000000
   20.48666763   74.33360291    0.05000000    0.05000000
   20.48999977   72.38030243    0.05000000    0.05000000
   20.49333382   76.30480194    0.05000000    0.05000000
   20.49638939   70.46900177    0.05000000    0.05000000
   20.49972153   72.04750061    0.05000000    0.05000000
   20.50416756   72.04750061    0.05000000    0.05000000
   20.50833321   73.74220276    0.05000000    0.05000000
   20.51138878   73.07199860    0.05000000    0.05000000
   20.51472282   71.81580353    0.05000000    0.05000000
   20.51749992   72.77510071    0.05000000    0.05000000
   20.51833344   72.31079865    0.05000000    0.05000000
   20.52166557   69.97899628    0.05000000    0.05000000
   20.52499962   70.49620056    0.05000000    0.05000000
   20.52805519   72.54280090    0.05000000    0.05000000
   20.53138924   71.53510284    0.05000000    0.05000000
   20.53444481   71.92669678    0.05000000    0.05000000
   20.53777695   69.60970306    0.05000000    0.05000000
   20.54111099   75.39600372    0.05000000    0.05000000
   20.54416656   72.99530029    0.05000000    0.05000000
   20.54749870   70.17929840    0.05000000    0.05000000
   20.55083275   68.07740021    0.05000000    0.05000000
   20.55527687   68.07740021    0.05000000    0.05000000
   20.55944443   69.22129822    0.05000000    0.05000000
   20.56277657   71.28530121    0.05000000    0.05000000
   20.56583214   70.51959991    0.05000000    0.05000000
   20.58305550   72.29409790    0.05000000    0.05000000
   20.58611107   74.40730286    0.05000000    0.05000000
   20.58916664   76.46410370    0.05000000    0.05000000
   20.59250069   72.28420258    0.05000000    0.05000000
   20.59555626   71.07540131    0.05000000    0.05000000
   20.59889030   73.20059967    0.05000000    0.05000000
   20.60222244   72.37570190    0.05000000    0.05000000
   20.60666656   72.37570190    0.05000000    0.05000000
   20.61083412   74.75839996    0.05000000    0.05000000
   20.61416626   74.06719971    0.05000000    0.05000000
   20.61722183   70.77989960    0.05000000    0.05000000
   20.62055588   71.32669830    0.05000000    0.05000000
   20.62388992   73.76219940    0.05000000    0.05000000
   20.62694550   70.43170166    0.05000000    0.05000000
   20.63027763   71.23459625    0.05000000    0.05000000
   20.63277817   70.43759918    0.05000000    0.05000000
   20.63388824   70.90190125    0.05000000    0.05000000
   20.63722229   72.98709869    0.05000000    0.05000000
   20.64027786   71.60459900    0.05000000    0.05000000
   20.64361191   71.09200287    0.05000000    0.05000000
   20.64694405   69.45890045    0.05000000    0.05000000
   20.64999962   72.40869904    0.05000000    0.05000000
   20.65333366   70.12190247    0.05000000    0.05000000
   20.65777779   70.12190247    0.05000000    0.05000000
   20.66194344   80.07710266    0.05000000    0.05000000
   20.66527748   72.55840302    0.05000000    0.05000000
   20.66860962   71.28040314    0.05000000    0.05000000
   20.67166519   72.82319641    0.05000000    0.05000000
   20.67499924   72.02380371    0.05000000    0.05000000
   20.67805481   71.86769867    0.05000000    0.05000000
   20.68138885   73.26770020    0.05000000    0.05000000
   20.68305397   70.14019775    0.05000000    0.05000000
   20.68499947   75.60659790    0.05000000    0.05000000
   20.68833160   72.42890167    0.05000000    0.05000000
   20.69138718   72.41139984    0.05000000    0.05000000
   20.69472122   71.29530334    0.05000000    0.05000000
   20.69805527   69.79019928    0.05000000    0.05000000
   20.70111275   69.89949799    0.05000000    0.05000000
   20.70444489   71.38880157    0.05000000    0.05000000
   20.70916748   71.38880157    0.05000000    0.05000000
   20.71333504   73.61350250    0.05000000    0.05000000
   20.71638870   72.72640228    0.05000000    0.05000000
   20.71972275   71.12400055    0.05000000    0.05000000
   20.72277832   74.37310028    0.05000000    0.05000000
   20.72611237   71.48600006    0.05000000    0.05000000
   20.72944450   72.42780304    0.05000000    0.05000000
   20.73250008   71.40630341    0.05000000    0.05000000
   20.73305511   70.59750366    0.05000000    0.05000000
   20.73638916   71.34470367    0.05000000    0.05000000
   20.73972321   72.12920380    0.05000000    0.05000000
   20.74277878   70.92269897    0.05000000    0.05000000
   20.74611092   68.45279694    0.05000000    0.05000000
   20.74916649   69.84529877    0.05000000    0.05000000
   20.75250053   71.40470123    0.05000000    0.05000000
   20.75583267   69.71810150    0.05000000    0.05000000
   20.76027870   69.71810150    0.05000000    0.05000000
   20.76444435   71.06379700    0.05000000    0.05000000
   20.76749992   69.90640259    0.05000000    0.05000000
   20.77083397   71.16790009    0.05000000    0.05000000
   20.77416611   70.78340149    0.05000000    0.05000000
   20.77722168   70.51679993    0.05000000    0.05000000
   20.78055573   70.76069641    0.05000000    0.05000000
   20.78305435   75.25530243    0.05000000    0.05000000
   20.78416634   71.12039948    0.05000000    0.05000000
   20.78750038   70.59950256    0.05000000    0.05000000
   20.79055595   72.35169983    0.05000000    0.05000000
   20.79388809   71.12960052    0.05000000    0.05000000
   20.79694366   71.86889648    0.05000000    0.05000000
   20.80027771   70.61499786    0.05000000    0.05000000
   20.80360985   72.34459686    0.05000000    0.05000000
   20.80666542   69.82260132    0.05000000    0.05000000
   20.81138802   69.82260132    0.05000000    0.05000000
   20.81555557   69.74800110    0.05000000    0.05000000
   20.81888962   69.90319824    0.05000000    0.05000000
   20.82194519   70.24060059    0.05000000    0.05000000
   20.82527924   72.65019989    0.05000000    0.05000000
   20.82861137   69.45120239    0.05000000    0.05000000
   20.83166695   69.56379700    0.05000000    0.05000000
   20.83305550   72.29709625    0.05000000    0.05000000
   20.83527756   73.45339966    0.05000000    0.05000000
   20.83861160   73.09279633    0.05000000    0.05000000
   20.84166718   71.62190247    0.05000000    0.05000000
   20.84500122   71.25569916    0.05000000    0.05000000
   20.84805679   69.95729828    0.05000000    0.05000000
   20.85138893   73.52919769    0.05000000    0.05000000
   20.85472298   69.65809631    0.05000000    0.05000000
   20.85777855   72.05609894    0.05000000    0.05000000
   20.86250114   72.05609894    0.05000000    0.05000000
   20.86666679   73.57379913    0.05000000    0.05000000
   20.87000084   72.39060211    0.05000000    0.05000000
   20.87333298   73.37349701    0.05000000    0.05000000
   20.87638855   72.34069824    0.05000000    0.05000000
   20.87972260   72.85299683    0.05000000    0.05000000
   20.88277817   72.87870026    0.05000000    0.05000000
   20.88333321   70.26090240    0.05000000    0.05000000
   20.88666725   69.31790161    0.05000000    0.05000000
   20.88999939   71.50180054    0.05000000    0.05000000
   20.89305496   71.64179993    0.05000000    0.05000000
   20.89638901   72.58899689    0.05000000    0.05000000
   20.89972115   69.59210205    0.05000000    0.05000000
   20.90277672   72.01119995    0.05000000    0.05000000
   20.90611076   70.72799683    0.05000000    0.05000000
   20.90916634   71.98560333    0.05000000    0.05000000
   20.91388893   71.98560333    0.05000000    0.05000000
   20.91805458   71.19159698    0.05000000    0.05000000
   20.92111015   72.66699982    0.05000000    0.05000000
   20.92444420   75.31559753    0.05000000    0.05000000
   20.92749977   74.80429840    0.05000000    0.05000000
   20.93083191   76.18879700    0.05000000    0.05000000
   20.93333244   74.11969757    0.05000000    0.05000000
   20.93444443   74.37519836    0.05000000    0.05000000
   20.93777657   72.73819733    0.05000000    0.05000000
   20.94083214   70.48529816    0.05000000    0.05000000
   20.94416618   71.36039734    0.05000000    0.05000000
   20.94749832   70.75859833    0.05000000    0.05000000
   20.95055580   72.00279999    0.05000000    0.05000000
   20.95388985   75.20800018    0.05000000    0.05000000
   20.95694542   71.94830322    0.05000000    0.05000000
   20.96027946   74.65750122    0.05000000    0.05000000
   20.96500015   74.65750122    0.05000000    0.05000000
   20.96916771   70.95290375    0.05000000    0.05000000
   20.97222328   71.97760010    0.05000000    0.05000000
   20.97555542   70.25559998    0.05000000    0.05000000
   20.97888947   72.01899719    0.05000000    0.05000000
   20.98194504   72.20189667    0.05000000    0.05000000
   20.98333359   74.26409912    0.05000000    0.05000000
   20.98555565   71.18599701    0.05000000    0.05000000
   20.98888969   72.77580261    0.05000000    0.05000000
   20.99194527   71.05149841    0.05000000    0.05000000
   20.99527740   70.95300293    0.05000000    0.05000000
   20.99861145   71.97429657    0.05000000    0.05000000
   21.00166702   73.09200287    0.05000000    0.05000000
   21.00499916   70.15660095    0.05000000    0.05000000
   21.00805473   73.45269775    0.05000000    0.05000000
   21.01138878   73.45709991    0.05000000    0.05000000
   21.01611137   73.45709991    0.05000000    0.05000000
   21.02027702   70.17960358    0.05000000    0.05000000
   21.02361107   72.36119843    0.05000000    0.05000000
   21.02666664   75.71040344    0.05000000    0.05000000
   21.03000069   71.64949799    0.05000000    0.05000000
   21.03333282   70.29060364    0.05000000    0.05000000
   21.03361130   69.20269775    0.05000000    0.05000000
   21.03694344   72.73850250    0.05000000    0.05000000
   21.04027748   68.60919952    0.05000000    0.05000000
   21.04333305   72.61959839    0.05000000    0.05000000
   21.04666710   70.71119690    0.05000000    0.05000000
   21.04999924   73.00019836    0.05000000    0.05000000
   21.05305481   70.90830231    0.05000000    0.05000000
   21.05638885   70.74490356    0.05000000    0.05000000
   21.05972099   69.28269958    0.05000000    0.05000000
   21.06277657   71.43979645    0.05000000    0.05000000
   21.06722260   71.43979645    0.05000000    0.05000000
   21.07139015   72.40640259    0.05000000    0.05000000
   21.07472229   74.21640015    0.05000000    0.05000000
   21.07805634   72.96849823    0.05000000    0.05000000
   21.08111191   71.34020233    0.05000000    0.05000000
   21.08361244   72.80690002    0.05000000    0.05000000
   21.08472252   71.11489868    0.05000000    0.05000000
   21.08805656   69.97679901    0.05000000    0.05000000
   21.09111214   71.23539734    0.05000000    0.05000000
   21.09444427   72.57180023    0.05000000    0.05000000
   21.09777832   72.56960297    0.05000000    0.05000000
   21.10083389   72.50530243    0.05000000    0.05000000
   21.10416794   74.90630341    0.05000000    0.05000000
   21.10750008   74.90989685    0.05000000    0.05000000
   21.11055565   75.54080200    0.05000000    0.05000000
   21.11388969   74.89469910    0.05000000    0.05000000
   21.11861038   74.89469910    0.05000000    0.05000000
   21.12249947   75.91529846    0.05000000    0.05000000
   21.12583351   75.58529663    0.05000000    0.05000000
   21.12916756   74.35610199    0.05000000    0.05000000
   21.13222313   75.17759705    0.05000000    0.05000000
   21.13388824   75.81269836    0.05000000    0.05000000
   21.13583374   76.94499969    0.05000000    0.05000000
   21.13916588   75.00379944    0.05000000    0.05000000
   21.14249992   73.01529694    0.05000000    0.05000000
   21.14555550   76.23239899    0.05000000    0.05000000
   21.14888954   73.64669800    0.05000000    0.05000000
   21.15222168   73.91570282    0.05000000    0.05000000
   21.15527725   73.85559845    0.05000000    0.05000000
   21.15861130   73.68979645    0.05000000    0.05000000
   21.16166687   72.67030334    0.05000000    0.05000000
   21.16499901   72.23370361    0.05000000    0.05000000
   21.16972160   72.23370361    0.05000000    0.05000000
   21.17388916   71.96369934    0.05000000    0.05000000
   21.17722130   74.39199829    0.05000000    0.05000000
   21.18027687   72.39520264    0.05000000    0.05000000
   21.18361092   72.97959900    0.05000000    0.05000000
   21.18416595   73.03759766    0.05000000    0.05000000
   21.18750000   72.93939972    0.05000000    0.05000000
   21.19055557   72.22969818    0.05000000    0.05000000
   21.19388771   72.85849762    0.05000000    0.05000000
   21.19694328   72.44689941    0.05000000    0.05000000
   21.20027924   72.52259827    0.05000000    0.05000000
   21.20361137   73.16899872    0.05000000    0.05000000
   21.20666695   71.84239960    0.05000000    0.05000000
   21.21000099   72.72769928    0.05000000    0.05000000
   21.21333504   72.29160309    0.05000000    0.05000000
   21.21638870   72.94789886    0.05000000    0.05000000
   21.22083473   72.94789886    0.05000000    0.05000000
   21.22500038   72.71929932    0.05000000    0.05000000
   21.22833443   72.08760071    0.05000000    0.05000000
   21.23166656   72.31610107    0.05000000    0.05000000
   21.23416710   72.59510040    0.05000000    0.05000000
   21.23500061   74.25579834    0.05000000    0.05000000
   21.23833275   73.37940216    0.05000000    0.05000000
   21.24166679   73.01689911    0.05000000    0.05000000
   21.24472237   73.49909973    0.05000000    0.05000000
   21.24805641   72.85620117    0.05000000    0.05000000
   21.25138855   72.63390350    0.05000000    0.05000000
   21.25444412   72.33619690    0.05000000    0.05000000
   21.25777817   73.82260132    0.05000000    0.05000000
   21.26111031   76.29620361    0.05000000    0.05000000
   21.26416588   73.95909882    0.05000000    0.05000000
   21.26749992   73.36640167    0.05000000    0.05000000
   21.27222252   73.36640167    0.05000000    0.05000000
   21.27611160   74.88520050    0.05000000    0.05000000
   21.27944374   75.31220245    0.05000000    0.05000000
   21.28277779   74.89179993    0.05000000    0.05000000
   21.28416634   76.23370361    0.05000000    0.05000000
   21.28610992   75.55000305    0.05000000    0.05000000
   21.28944397   74.09030151    0.05000000    0.05000000
   21.29277802   74.59660339    0.05000000    0.05000000
   21.29583359   71.47280121    0.05000000    0.05000000
   21.29916573   73.41429901    0.05000000    0.05000000
   21.30249977   73.37460327    0.05000000    0.05000000
   21.30555534   73.33170319    0.05000000    0.05000000
   21.30888748   75.91950226    0.05000000    0.05000000
   21.31222153   75.23410034    0.05000000    0.05000000
   21.31527710   74.53130341    0.05000000    0.05000000
   21.31861115   73.33860016    0.05000000    0.05000000
   21.32333374   73.33860016    0.05000000    0.05000000
   21.32750130   77.32450104    0.05000000    0.05000000
   21.33055687   73.28600311    0.05000000    0.05000000
   21.33388901   74.65889740    0.05000000    0.05000000
   21.33444595   73.83080292    0.05000000    0.05000000
   21.33777809   75.23010254    0.05000000    0.05000000
   21.34083366   72.24939728    0.05000000    0.05000000
   21.34416771   75.61789703    0.05000000    0.05000000
   21.34749985   75.24040222    0.05000000    0.05000000
   21.35055542   75.79389954    0.05000000    0.05000000
   21.35388947   75.62180328    0.05000000    0.05000000
   21.35694504   72.37259674    0.05000000    0.05000000
   21.36027908   75.22299957    0.05000000    0.05000000
   21.36361122   76.64920044    0.05000000    0.05000000
   21.36666679   82.72229767    0.05000000    0.05000000
   21.37000084   74.35160065    0.05000000    0.05000000
   21.37444496   74.35160065    0.05000000    0.05000000
   21.37861061   77.35289764    0.05000000    0.05000000
   21.38194466   73.99770355    0.05000000    0.05000000
   21.38444519   74.60859680    0.05000000    0.05000000
   21.38555527   77.53630066    0.05000000    0.05000000
   21.38861084   74.80699921    0.05000000    0.05000000
   21.39194489   78.59490204    0.05000000    0.05000000
   21.39527702   71.81610107    0.05000000    0.05000000
   21.39833260   73.81749725    0.05000000    0.05000000
   21.40166664   74.62270355    0.05000000    0.05000000
   21.40472221   77.71640015    0.05000000    0.05000000
   21.40805435   74.78710175    0.05000000    0.05000000
   21.41138840   74.47370148    0.05000000    0.05000000
   21.41444397   72.76029968    0.05000000    0.05000000
   21.41777802   73.82659912    0.05000000    0.05000000
   21.42111015   74.40119934    0.05000000    0.05000000
   21.42555428   74.40119934    0.05000000    0.05000000
   21.42972183   75.08110046    0.05000000    0.05000000
   21.43305397   79.23960114    0.05000000    0.05000000
   21.43444443   76.04419708    0.05000000    0.05000000
   21.43666649   75.07019806    0.05000000    0.05000000
   21.43972206   74.74800110    0.05000000    0.05000000
   21.44305420   73.58020020    0.05000000    0.05000000
   21.44638824   74.25170135    0.05000000    0.05000000
   21.44944382   75.16519928    0.05000000    0.05000000
   21.45277786   74.77660370    0.05000000    0.05000000
   21.45583344   74.83799744    0.05000000    0.05000000
   21.45916748   75.12339783    0.05000000    0.05000000
   21.46250153   73.16999817    0.05000000    0.05000000
   21.46555710   75.32790375    0.05000000    0.05000000
   21.46888924   74.09639740    0.05000000    0.05000000
   21.47222328   71.56390381    0.05000000    0.05000000
   21.47694588   71.56390381    0.05000000    0.05000000
   21.48083305   74.36380005    0.05000000    0.05000000
   21.48416710   74.76509857    0.05000000    0.05000000
   21.48472214   74.05339813    0.05000000    0.05000000
   21.48805618   74.06670380    0.05000000    0.05000000
   21.49111176   74.47290039    0.05000000    0.05000000
   21.49444389   74.70719910    0.05000000    0.05000000
   21.49777794   72.47270203    0.05000000    0.05000000
   21.50083351   74.15769958    0.05000000    0.05000000
   21.50416756   76.99269867    0.05000000    0.05000000
   21.50722313   74.88220215    0.05000000    0.05000000
   21.51055527   77.16880035    0.05000000    0.05000000
   21.51388931   80.64510345    0.05000000    0.05000000
   21.51694489   75.23899841    0.05000000    0.05000000
   21.52027702   73.57869720    0.05000000    0.05000000
   21.52361107   76.30239868    0.05000000    0.05000000
   21.52805519   76.30239868    0.05000000    0.05000000
   21.53222275   72.91699982    0.05000000    0.05000000
   21.53472137   75.11109924    0.05000000    0.05000000
   21.53583336   72.91850281    0.05000000    0.05000000
   21.53888893   73.54850006    0.05000000    0.05000000
   21.54222107   74.87860107    0.05000000    0.05000000
   21.54555511   75.03749847    0.05000000    0.05000000
   21.54861069   75.05490112    0.05000000    0.05000000
   21.55194283   74.99310303    0.05000000    0.05000000
   21.55527687   73.77700043    0.05000000    0.05000000
   21.55833244   75.52420044    0.05000000    0.05000000
   21.56166649   74.52670288    0.05000000    0.05000000
   21.56472206   73.23619843    0.05000000    0.05000000
   21.56805611   77.51210022    0.05000000    0.05000000
   21.57139015   73.97540283    0.05000000    0.05000000
   21.57444572   78.60099792    0.05000000    0.05000000
   21.57916832   78.60099792    0.05000000    0.05000000
   21.59972191   75.13220215    0.05000000    0.05000000
   21.60027885   75.25340271    0.05000000    0.05000000
   21.60361099   73.57119751    0.05000000    0.05000000
   21.60666656   74.65760040    0.05000000    0.05000000
   21.61000061   76.68630219    0.05000000    0.05000000
   21.61305618   74.42620087    0.05000000    0.05000000
   21.61638832   78.35679626    0.05000000    0.05000000
   21.61972237   76.96640015    0.05000000    0.05000000
   21.62277794   74.17420197    0.05000000    0.05000000
   21.62611198   75.44519806    0.05000000    0.05000000
   21.63055611   75.44519806    0.05000000    0.05000000
   21.63472176   73.52660370    0.05000000    0.05000000
   21.63777733   74.64769745    0.05000000    0.05000000
   21.64111137   73.15589905    0.05000000    0.05000000
   21.64444351   76.93949890    0.05000000    0.05000000
   21.64749908   74.39240265    0.05000000    0.05000000
   21.65027809   74.71620178    0.05000000    0.05000000
   21.65138817   74.16970062    0.05000000    0.05000000
   21.65444374   75.80239868    0.05000000    0.05000000
   21.65777779   74.19439697    0.05000000    0.05000000
   21.66083336   77.51979828    0.05000000    0.05000000
   21.66416550   77.96769714    0.05000000    0.05000000
   21.66749954   77.34960175    0.05000000    0.05000000
   21.67055511   74.91500092    0.05000000    0.05000000
   21.67388916   77.04199982    0.05000000    0.05000000
   21.67722130   74.59349823    0.05000000    0.05000000
   21.68166542   74.59349823    0.05000000    0.05000000
   21.68583298   81.07990265    0.05000000    0.05000000
   21.68916512   75.08480072    0.05000000    0.05000000
   21.69222069   75.40229797    0.05000000    0.05000000
   21.69555473   76.61119843    0.05000000    0.05000000
   21.69888878   75.69640350    0.05000000    0.05000000
   21.70027924   78.58489990    0.05000000    0.05000000
   21.70250130   74.48570251    0.05000000    0.05000000
   21.70555687   79.59429932    0.05000000    0.05000000
   21.70888901   75.23169708    0.05000000    0.05000000
   21.71194458   75.42500305    0.05000000    0.05000000
   21.71527863   77.25199890    0.05000000    0.05000000
   21.71861076   75.06939697    0.05000000    0.05000000
   21.72166634   77.78209686    0.05000000    0.05000000
   21.72500038   77.87920380    0.05000000    0.05000000
   21.72833443   74.66809845    0.05000000    0.05000000
   21.73277855   74.66809845    0.05000000    0.05000000
   21.73694420   77.18180084    0.05000000    0.05000000
   21.74027824   75.83380127    0.05000000    0.05000000
   21.74361229   75.31759644    0.05000000    0.05000000
   21.74666786   75.71119690    0.05000000    0.05000000
   21.75000000   80.02980042    0.05000000    0.05000000
   21.75055504   76.95220184    0.05000000    0.05000000
   21.75361061   75.00599670    0.05000000    0.05000000
   21.75694466   77.47619629    0.05000000    0.05000000
   21.76027870   75.19629669    0.05000000    0.05000000
   21.76333427   74.26540375    0.05000000    0.05000000
   21.76666641   73.92420197    0.05000000    0.05000000
   21.77000046   76.00090027    0.05000000    0.05000000
   21.77305603   74.94149780    0.05000000    0.05000000
   21.77638817   76.75890350    0.05000000    0.05000000
   21.77944374   75.40660095    0.05000000    0.05000000
   21.78416634   75.40660095    0.05000000    0.05000000
   21.78833199   75.75119781    0.05000000    0.05000000
   21.79138756   77.56040192    0.05000000    0.05000000
   21.79472160   79.93479919    0.05000000    0.05000000
   21.79805565   76.13179779    0.05000000    0.05000000
   21.80055428   74.84970093    0.05000000    0.05000000
   21.80138779   75.88330078    0.05000000    0.05000000
   21.80472183   74.57369995    0.05000000    0.05000000
   21.80805397   80.10959625    0.05000000    0.05000000
   21.81110954   76.71440125    0.05000000    0.05000000
   21.81444359   78.10089874    0.05000000    0.05000000
   21.81777954   77.42579651    0.05000000    0.05000000
   21.82083511   75.20749664    0.05000000    0.05000000
   21.82416725   77.68569946    0.05000000    0.05000000
   21.82750130   77.81079865    0.05000000    0.05000000
   21.83055687   74.29769897    0.05000000    0.05000000
   21.83527756   74.29769897    0.05000000    0.05000000
   21.83944511   81.22049713    0.05000000    0.05000000
   21.84250069   75.73680115    0.05000000    0.05000000
   21.84583473   75.36440277    0.05000000    0.05000000
   21.84916687   77.65989685    0.05000000    0.05000000
   21.85055542   74.21350098    0.05000000    0.05000000
   21.85277748   77.94210052    0.05000000    0.05000000
   21.85583305   78.34210205    0.05000000    0.05000000
   21.85916710   79.00730133    0.05000000    0.05000000
   21.86222267   78.40100098    0.05000000    0.05000000
   21.86555672   83.11979675    0.05000000    0.05000000
   21.86888885   88.70629883    0.05000000    0.05000000
   21.87194443   79.66780090    0.05000000    0.05000000
   21.87527847   73.90309906    0.05000000    0.05000000
   21.87861061   76.71230316    0.05000000    0.05000000
   21.88166618   86.15879822    0.05000000    0.05000000
   21.88638878   86.15879822    0.05000000    0.05000000
   21.89055634   77.94629669    0.05000000    0.05000000
   21.89388847   81.33470154    0.05000000    0.05000000
   21.89694405   77.38600159    0.05000000    0.05000000
   21.90027809   78.02279663    0.05000000    0.05000000
   21.90083313   77.40249634    0.05000000    0.05000000
   21.90416718   76.46109772    0.05000000    0.05000000
   21.90722275   73.62950134    0.05000000    0.05000000
   21.91055489   78.91110229    0.05000000    0.05000000
   21.91388893   76.78260040    0.05000000    0.05000000
   21.91694450   77.69879913    0.05000000    0.05000000
   21.92027664   79.27719879    0.05000000    0.05000000
   21.92333221   84.45690155    0.05000000    0.05000000
   21.92666626  109.74500275    0.05000000    0.05000000
   21.93000031  117.47799683    0.05000000    0.05000000
   21.93305397  141.72500610    0.05000000    0.05000000
   21.93777657  141.72500610    0.05000000    0.05000000
   21.94166565  109.45400238    0.05000000    0.05000000
   21.94499969   -1.00000000    0.05000000    0.05000000
   21.94833183   -1.00000000    0.05000000    0.05000000
   21.95166779   -1.00000000    0.05000000    0.05000000
   21.95499992   -1.00000000    0.05000000    0.05000000
   21.95833397   -1.00000000    0.05000000    0.05000000
   21.96138954   -1.00000000    0.05000000    0.05000000
   21.96472359   -1.00000000    0.05000000    0.05000000
   21.96833420   -1.00000000    0.05000000    0.05000000
   21.97138977   -1.00000000    0.05000000    0.05000000
   21.97472191   -1.00000000    0.05000000    0.05000000
   21.97777748   -1.00000000    0.05000000    0.05000000
   21.98111153   -1.00000000    0.05000000    0.05000000
   21.98444557   -1.00000000    0.05000000    0.05000000
   21.99277878   -1.00000000    0.05000000    0.05000000
   21.99611092   -1.00000000    0.05000000    0.05000000
   21.99944496   -1.00000000    0.05000000    0.05000000
   22.00277710   -1.00000000    0.05000000    0.05000000
   22.00611115   -1.00000000    0.05000000    0.05000000
   22.00944519   -1.00000000    0.05000000    0.05000000
   22.01250076   -1.00000000    0.05000000    0.05000000
   22.01583290   -1.00000000    0.05000000    0.05000000
   22.01888847   -1.00000000    0.05000000    0.05000000
   22.02222252   -1.00000000    0.05000000    0.05000000
   22.02555466   -1.00000000    0.05000000    0.05000000
   22.02861023   -1.00000000    0.05000000    0.05000000
   22.03194427   -1.00000000    0.05000000    0.05000000
   22.03527641   -1.00000000    0.05000000    0.05000000
   22.04416656   -1.00000000    0.05000000    0.05000000
   22.04722214   -1.00000000    0.05000000    0.05000000
   22.05055428   -1.00000000    0.05000000    0.05000000
   22.05416679   -1.00000000    0.05000000    0.05000000
   22.05749893   -1.00000000    0.05000000    0.05000000
   22.06055450   -1.00000000    0.05000000    0.05000000
   22.06388855   -1.00000000    0.05000000    0.05000000
   22.06722260   -1.00000000    0.05000000    0.05000000
   22.07027817   -1.00000000    0.05000000    0.05000000
   22.07361221   -1.00000000    0.05000000    0.05000000
   22.07694626   -1.00000000    0.05000000    0.05000000
   22.08000183   -1.00000000    0.05000000    0.05000000
   22.08333397   -1.00000000    0.05000000    0.05000000
   22.08638954   -1.00000000    0.05000000    0.05000000
   22.09527779   -1.00000000    0.05000000    0.05000000
   22.09833336   -1.00000000    0.05000000    0.05000000
   22.10194397   -1.00000000    0.05000000    0.05000000
   22.10527802   -1.00000000    0.05000000    0.05000000
   22.10833359   -1.00000000    0.05000000    0.05000000
   22.11166763   -1.00000000    0.05000000    0.05000000
   22.11499977   -1.00000000    0.05000000    0.05000000
   22.11805534   -1.00000000    0.05000000    0.05000000
   22.12138939   -1.00000000    0.05000000    0.05000000
   22.12472153   -1.00000000    0.05000000    0.05000000
   22.12777710   -1.00000000    0.05000000    0.05000000
   22.13111115   -1.00000000    0.05000000    0.05000000
   22.13416672   -1.00000000    0.05000000    0.05000000
   22.13750076   -1.00000000    0.05000000    0.05000000
   22.14638901   -1.00000000    0.05000000    0.05000000
   22.14972115   -1.00000000    0.05000000    0.05000000
   22.15305519   -1.00000000    0.05000000    0.05000000
   22.15638924   -1.00000000    0.05000000    0.05000000
   22.15944481   -1.00000000    0.05000000    0.05000000
   22.16277695   -1.00000000    0.05000000    0.05000000
   22.16611099   -1.00000000    0.05000000    0.05000000
   22.16916656   -1.00000000    0.05000000    0.05000000
   22.17249870   -1.00000000    0.05000000    0.05000000
   22.17583275   -1.00000000    0.05000000    0.05000000
   22.17888832   -1.00000000    0.05000000    0.05000000
   22.18222237   -1.00000000    0.05000000    0.05000000
   22.18527603   -1.00000000    0.05000000    0.05000000
   22.18861008   -1.00000000    0.05000000    0.05000000
   22.19749832   -1.00000000    0.05000000    0.05000000
   22.20083427   -1.00000000    0.05000000    0.05000000
   22.20444489   -1.00000000    0.05000000    0.05000000
   22.20777893   -1.00000000    0.05000000    0.05000000
   22.21083450   -1.00000000    0.05000000    0.05000000
   22.21416664   -1.00000000    0.05000000    0.05000000
   22.21750069   -1.00000000    0.05000000    0.05000000
   22.22055626   -1.00000000    0.05000000    0.05000000
   22.22389030   -1.00000000    0.05000000    0.05000000
   22.22722244   -1.00000000    0.05000000    0.05000000
   22.23027802   -1.00000000    0.05000000    0.05000000
   22.23361206   -1.00000000    0.05000000    0.05000000
   22.23666763   -1.00000000    0.05000000    0.05000000
   22.23999977   -1.00000000    0.05000000    0.05000000
   22.24888992   -1.00000000    0.05000000    0.05000000
   22.25222206   -1.00000000    0.05000000    0.05000000
   22.25555611   -1.00000000    0.05000000    0.05000000
   22.25861168   -1.00000000    0.05000000    0.05000000
   22.26194382   -1.00000000    0.05000000    0.05000000
   22.26527786   -1.00000000    0.05000000    0.05000000
   22.26833344   -1.00000000    0.05000000    0.05000000
   22.27166557   -1.00000000    0.05000000    0.05000000
   22.27499962   -1.00000000    0.05000000    0.05000000
   22.27805519   -1.00000000    0.05000000    0.05000000
   22.28138924   -1.00000000    0.05000000    0.05000000
   22.28444481   -1.00000000    0.05000000    0.05000000
   22.28777695   -1.00000000    0.05000000    0.05000000
   22.29111099   -1.00000000    0.05000000    0.05000000
   22.29999924   -1.00000000    0.05000000    0.05000000
   22.30333328   -1.00000000    0.05000000    0.05000000
   22.30666542   -1.00000000    0.05000000    0.05000000
   22.30972099   -1.00000000    0.05000000    0.05000000
   22.31305504   -1.00000000    0.05000000    0.05000000
   22.31638718   -1.00000000    0.05000000    0.05000000
   22.31944466   -1.00000000    0.05000000    0.05000000
   22.32277870   -1.00000000    0.05000000    0.05000000
   22.32611275   -1.00000000    0.05000000    0.05000000
   22.32916832   -1.00000000    0.05000000    0.05000000
   22.33250046   -1.00000000    0.05000000    0.05000000
   22.33555603   -1.00000000    0.05000000    0.05000000
   22.33889008   -1.00000000    0.05000000    0.05000000
   22.34222221   -1.00000000    0.05000000    0.05000000
   22.35111237   -1.00000000    0.05000000    0.05000000
   22.35472298   -1.00000000    0.05000000    0.05000000
   22.35805511   -1.00000000    0.05000000    0.05000000
   22.36138916   -1.00000000    0.05000000    0.05000000
   22.36444473   -1.00000000    0.05000000    0.05000000
   22.36777878   -1.00000000    0.05000000    0.05000000
   22.37083435   -1.00000000    0.05000000    0.05000000
   22.37416649   -1.00000000    0.05000000    0.05000000
   22.37750053   -1.00000000    0.05000000    0.05000000
   22.38055611   -1.00000000    0.05000000    0.05000000
   22.38388824   -1.00000000    0.05000000    0.05000000
   22.38722229   -1.00000000    0.05000000    0.05000000
   22.39027786   -1.00000000    0.05000000    0.05000000
   22.39361191   -1.00000000    0.05000000    0.05000000
   22.40222168   -1.00000000    0.05000000    0.05000000
   22.40555573   -1.00000000    0.05000000    0.05000000
   22.40888786   -1.00000000    0.05000000    0.05000000
   22.41194344   -1.00000000    0.05000000    0.05000000
   22.41527748   -1.00000000    0.05000000    0.05000000
   22.41833305   -1.00000000    0.05000000    0.05000000
   22.42166519   -1.00000000    0.05000000    0.05000000
   22.42499924   -1.00000000    0.05000000    0.05000000
   22.42805481   -1.00000000    0.05000000    0.05000000
   22.43138885   -1.00000000    0.05000000    0.05000000
   22.43472099   -1.00000000    0.05000000    0.05000000
   22.43777657   -1.00000000    0.05000000    0.05000000
   22.44111061   -1.00000000    0.05000000    0.05000000
   22.44416618   -1.00000000    0.05000000    0.05000000
   22.45361137   -1.00000000    0.05000000    0.05000000
   22.45666695   -1.00000000    0.05000000    0.05000000
   22.46000099   -1.00000000    0.05000000    0.05000000
   22.46305656   -1.00000000    0.05000000    0.05000000
   22.46638870   -1.00000000    0.05000000    0.05000000
   22.46972275   -1.00000000    0.05000000    0.05000000
   22.47277832   -1.00000000    0.05000000    0.05000000
   22.47611237   -1.00000000    0.05000000    0.05000000
   22.47944450   -1.00000000    0.05000000    0.05000000
   22.48250008   -1.00000000    0.05000000    0.05000000
   22.48583412   -1.00000000    0.05000000    0.05000000
   22.48888969   -1.00000000    0.05000000    0.05000000
   22.49222183   -1.00000000    0.05000000    0.05000000
   22.49555588   -1.00000000    0.05000000    0.05000000
   22.50472260   -1.00000000    0.05000000    0.05000000
   22.50777817   -1.00000000    0.05000000    0.05000000
   22.51111031   -1.00000000    0.05000000    0.05000000
   22.51444435   -1.00000000    0.05000000    0.05000000
   22.51749992   -1.00000000    0.05000000    0.05000000
   22.52083397   -1.00000000    0.05000000    0.05000000
   22.52416611   -1.00000000    0.05000000    0.05000000
   22.52722168   -1.00000000    0.05000000    0.05000000
   22.53055573   -1.00000000    0.05000000    0.05000000
   22.53361130   -1.00000000    0.05000000    0.05000000
   22.53694344   -1.00000000    0.05000000    0.05000000
   22.54027748   -1.00000000    0.05000000    0.05000000
   22.54333305   -1.00000000    0.05000000    0.05000000
   22.54666710   -1.00000000    0.05000000    0.05000000
   22.55583191   -1.00000000    0.05000000    0.05000000
   22.55916595   -1.00000000    0.05000000    0.05000000
   22.56222153   -1.00000000    0.05000000    0.05000000
   22.56555557   -1.00000000    0.05000000    0.05000000
   22.56888962   -1.00000000    0.05000000    0.05000000
   22.57194519   -1.00000000    0.05000000    0.05000000
   22.57527924   -1.00000000    0.05000000    0.05000000
   22.57833481   -1.00000000    0.05000000    0.05000000
   22.58166695   -1.00000000    0.05000000    0.05000000
   22.58500099   -1.00000000    0.05000000    0.05000000
   22.58805656   -1.00000000    0.05000000    0.05000000
   22.59138870   -1.00000000    0.05000000    0.05000000
   22.59472275   -1.00000000    0.05000000    0.05000000
   22.59777832   -1.00000000    0.05000000    0.05000000
   22.61861038   -1.00000000    0.05000000    0.05000000
   22.62194443   -1.00000000    0.05000000    0.05000000
   22.62500000   -1.00000000    0.05000000    0.05000000
   22.62833405   -1.00000000    0.05000000    0.05000000
   22.63166618   -1.00000000    0.05000000    0.05000000
   22.63472176   -1.00000000    0.05000000    0.05000000
   22.63805580   -1.00000000    0.05000000    0.05000000
   22.64111137   -1.00000000    0.05000000    0.05000000
   22.64444351   -1.00000000    0.05000000    0.05000000
   22.64777756   -1.00000000    0.05000000    0.05000000
   22.65833282   -1.00000000    0.05000000    0.05000000
   22.66138840   -1.00000000    0.05000000    0.05000000
   22.66472244   -1.00000000    0.05000000    0.05000000
   22.66805458   -1.00000000    0.05000000    0.05000000
   22.67138863   -1.00000000    0.05000000    0.05000000
   22.67472076   -1.00000000    0.05000000    0.05000000
   22.67777634   -1.00000000    0.05000000    0.05000000
   22.68111038   -1.00000000    0.05000000    0.05000000
   22.68416595   -1.00000000    0.05000000    0.05000000
   22.68750000   -1.00000000    0.05000000    0.05000000
   22.69083214   -1.00000000    0.05000000    0.05000000
   22.69388771   -1.00000000    0.05000000    0.05000000
   22.69722176   -1.00000000    0.05000000    0.05000000
   22.70055580   -1.00000000    0.05000000    0.05000000
   22.70944595   -1.00000000    0.05000000    0.05000000
   22.71250153   -1.00000000    0.05000000    0.05000000
   22.71583366   -1.00000000    0.05000000    0.05000000
   22.71916771   -1.00000000    0.05000000    0.05000000
   22.72249985   -1.00000000    0.05000000    0.05000000
   22.72583389   -1.00000000    0.05000000    0.05000000
   22.72888947   -1.00000000    0.05000000    0.05000000
   22.73222351   -1.00000000    0.05000000    0.05000000
   22.73527718   -1.00000000    0.05000000    0.05000000
   22.73861122   -1.00000000    0.05000000    0.05000000
   22.74194527   -1.00000000    0.05000000    0.05000000
   22.74500084   -1.00000000    0.05000000    0.05000000
   22.74833298   -1.00000000    0.05000000    0.05000000
   22.75166702   -1.00000000    0.05000000    0.05000000
   22.76055527   -1.00000000    0.05000000    0.05000000
   22.76388931   -1.00000000    0.05000000    0.05000000
   22.76749992   -1.00000000    0.05000000    0.05000000
   22.77055550   -1.00000000    0.05000000    0.05000000
   22.77388954   -1.00000000    0.05000000    0.05000000
   22.77722168   -1.00000000    0.05000000    0.05000000
   22.78027725   -1.00000000    0.05000000    0.05000000
   22.78361130   -1.00000000    0.05000000    0.05000000
   22.78666687   -1.00000000    0.05000000    0.05000000
   22.78999901   -1.00000000    0.05000000    0.05000000
   22.79333305   -1.00000000    0.05000000    0.05000000
   22.79638863   -1.00000000    0.05000000    0.05000000
   22.79972076   -1.00000000    0.05000000    0.05000000
   22.80305481   -1.00000000    0.05000000    0.05000000
   22.81166649   -1.00000000    0.05000000    0.05000000
   22.81499863   -1.00000000    0.05000000    0.05000000
   22.81861115   -1.00000000    0.05000000    0.05000000
   22.82166672   -1.00000000    0.05000000    0.05000000
   22.82500076   -1.00000000    0.05000000    0.05000000
   22.82833481   -1.00000000    0.05000000    0.05000000
   22.83139038   -1.00000000    0.05000000    0.05000000
   22.83472252   -1.00000000    0.05000000    0.05000000
   22.83805656   -1.00000000    0.05000000    0.05000000
   22.84111214   -1.00000000    0.05000000    0.05000000
   22.84444427   -1.00000000    0.05000000    0.05000000
   22.84749985   -1.00000000    0.05000000    0.05000000
