    HOUR (UT)   FLARE FACTOR    SKY TESTER    SUN TESTER
   11.33249950   -1.00000000   -1.00000000   -1.00000000
   11.35416698  109.75900269    4.90999985    2.57999992
   11.35944462   97.17559814    4.90999985    2.57999992
   11.36361122   95.16909790    4.90999985    2.57999992
   11.36694431  100.89399719    4.90999985    2.57999992
   11.37111092   99.01180267    4.90999985    2.59999990
   11.37416649  100.21199799    4.90999985    2.57999992
   11.37750053   89.64209747    4.90999985    2.57999992
   11.38083363   99.57520294    4.90999985    2.57999992
   11.38388920  103.81300354    4.90999985    2.57999992
   11.38722229   96.99040222    4.90999985    2.57999992
   11.38777733   96.77169800    4.90999985    2.57999992
   11.39111137   98.64830017    4.90999985    2.59999990
   11.39416695   97.40450287    4.90999985    2.59999990
   11.39750004   95.83860016    4.90999985    2.59999990
   11.40055561  103.34200287    4.90999985    2.59999990
   11.40388870  105.08699799    4.90999985    2.57999992
   11.40722179  102.64700317    4.90999985    2.59999990
   11.41027737  104.91400146    4.90999985    2.59999990
   11.41361046   96.03600311    4.90999985    2.59999990
   11.41694450  100.83399963    4.90999985    2.59999990
   11.42000008   94.83020020    4.90999985    2.59999990
   11.42333412   96.15869904    4.90999985    2.59999990
   11.42638874   97.79170227    4.90999985    2.59999990
   11.42972279   99.24749756    4.90999985    2.59999990
   11.43305588  112.71900177    4.90999985    2.59999990
   11.43611145   90.88950348    4.90999985    2.59999990
   11.43777752   94.01059723    4.90999985    2.59999990
   11.44000053   92.21240234    4.90999985    2.59999990
   11.44305515   93.49680328    4.90999985    2.59999990
   11.44638920   92.71369934    4.90999985    2.59999990
   11.44944477   95.86840057    4.90999985    2.59999990
   11.45277786  100.66100311    4.90999985    2.61999989
   11.45611095   92.51229858    4.90999985    2.59999990
   11.45916653   92.19760132    4.90999985    2.59999990
   11.46249962   94.31759644    4.90999985    2.59999990
   11.46583271   87.95490265    4.90999985    2.59999990
   11.46888828   94.95790100    4.90999985    2.61999989
   11.47222137   90.97229767    4.90999985    2.61999989
   11.47527695   99.36830139    4.90999985    2.61999989
   11.47861099   96.20919800    4.90999985    2.61999989
   11.48194408   92.16600037    4.90999985    2.61999989
   11.48500061  102.69200134    4.90999985    2.61999989
   11.48777771   88.44599915    4.90999985    2.61999989
   11.48888874   91.78019714    4.90999985    2.59999990
   11.49194431   94.06890106    4.90999985    2.61999989
   11.49527836   89.28630066    4.90999985    2.61999989
   11.49833393   86.74089813    4.90999985    2.61999989
   11.50166702   88.46430206    4.90999985    2.61999989
   11.50500011   86.51129913    4.90999985    2.61999989
   11.50805569   84.25160217    4.90999985    2.61999989
   11.51138878   91.73770142    4.90999985    2.61999989
   11.51472187   85.44490051    4.90999985    2.64000010
   11.51777744   87.80359650    4.90999985    2.61999989
   11.52111053   83.58619690    4.90999985    2.61999989
   11.52416611   83.68669891    4.90999985    2.61999989
   11.52750015   89.19599915    4.90999985    2.61999989
   11.53083324   91.58840179    4.90999985    2.61999989
   11.53388977   88.67369843    4.90999985    2.61999989
   11.53722286   82.01290131    4.90999985    2.61999989
   11.53777790   85.64040375    4.90999985    2.64000010
   11.54083347   86.07199860    4.90999985    2.64000010
   11.54388905   93.49320221    4.90999985    2.64000010
   11.54722309   84.99089813    4.90999985    2.64000010
   11.55055618   86.96070099    4.90999985    2.64000010
   11.55361176   85.22239685    4.90999985    2.64000010
   11.55694485   85.81289673    4.90999985    2.64000010
   11.56000042   83.63400269    4.90999985    2.64000010
   11.56333351   91.36530304    4.90999985    2.64000010
   11.56666660   82.22579956    4.90999985    2.64000010
   11.56972218   81.83029938    4.90999985    2.64000010
   11.57305527   79.62930298    4.90999985    2.64000010
   11.57638836   88.88980103    4.90999985    2.64000010
   11.57944393   83.54450226    4.90999985    2.64000010
   11.58277798   89.37180328    4.90999985    2.64000010
   11.58583260   85.16510010    4.90999985    2.64000010
   11.58777714   83.19159698    4.90999985    2.64000010
   11.58972168   81.28029633    4.90999985    2.64000010
   11.59277725   86.69909668    4.90999985    2.64000010
   11.59611034   85.11979675    4.90999985    2.64000010
   11.59944439   81.31310272    4.90999985    2.64000010
   11.60249996   82.20950317    4.90999985    2.64000010
   11.60583401   82.12550354    4.90999985    2.64000010
   11.60888958   85.11289978    4.90999985    2.64000010
   11.61222267   86.55149841    4.90999985    2.64000010
   11.61555576   78.80860138    4.90999985    2.64000010
   11.61861134   81.78350067    4.90999985    2.64000010
   11.62194443   82.38510132    4.90999985    2.66000009
   11.62527752   78.79399872    4.90999985    2.64000010
   11.62833309   75.09809875    4.90999985    2.66000009
   11.63166714   86.47930145    4.90999985    2.64000010
   11.63472176   90.43029785    4.90999985    2.66000009
   11.63777733   80.41670227    4.90999985    2.66000009
   11.63861084   93.08589935    4.90999985    2.64000010
   11.64194393   84.16380310    4.90999985    2.66000009
   11.64527798   79.98529816    4.90999985    2.66000009
   11.64861107   80.43470001    4.90999985    2.66000009
   11.65166664   80.76529694    4.90999985    2.66000009
   11.65499973   83.10199738    4.90999985    2.67000008
   11.65833282   79.07939911    4.90999985    2.67000008
   11.66138840   77.70590210    4.90999985    2.66000009
   11.66472149   81.48770142    4.90999985    2.66000009
   11.66777802   80.13490295    4.90999985    2.66000009
   11.67111111   83.37049866    4.90999985    2.66000009
   11.67444515   84.82479858    4.90999985    2.67000008
   11.67750072   84.46410370    4.90999985    2.66000009
   11.68083382   86.21980286    4.90999985    2.66000009
   11.68416691   85.30220032    4.90999985    2.66000009
   11.68722248   80.68009949    4.90999985    2.67000008
   11.68777752   84.91290283    4.90999985    2.67000008
   11.69083309   86.99870300    4.90999985    2.66000009
   11.69388866   83.46920013    4.90999985    2.66000009
   11.69722271   84.94190216    4.90999985    2.66000009
   11.70055580   88.76969910    4.90999985    2.66000009
   11.70361137   78.61139679    4.90999985    2.66000009
   11.70694447   78.19200134    4.90999985    2.66000009
   11.71027756   88.55500031    4.90999985    2.66000009
   11.71333313   76.32569885    4.90999985    2.67000008
   11.71666622   81.18190002    4.90999985    2.66000009
   11.71972179   82.86679840    4.90999985    2.67000008
   11.72305489   78.45520020    4.90999985    2.67000008
   11.72638798   76.17610168    4.90999985    2.67000008
   11.72944355   78.47930145    4.90999985    2.66000009
   11.73277760   79.21350098    4.90999985    2.66000009
   11.73611164   83.59609985    4.90999985    2.67000008
   11.73777771   76.39189911    4.90999985    2.67000008
   11.73972225   85.72429657    4.90999985    2.67000008
   11.74277782   77.62599945    4.90999985    2.67000008
   11.74611092   80.97730255    4.90999985    2.66000009
   11.74944496   83.99379730    4.90999985    2.67000008
   11.75249958   79.60919952    4.90999985    2.67000008
   11.75583363   80.38020325    4.90999985    2.67000008
   11.75916672   79.66649628    4.90999985    2.67000008
   11.76222229   80.03430176    4.90999985    2.67000008
   11.76555538   79.92970276    4.90999985    2.67000008
   11.76888847   86.63330078    4.90999985    2.67000008
   11.77194405   82.99960327    4.90999985    2.67000008
   11.77527714   83.93759918    4.90999985    2.67000008
   11.77861118   84.29599762    4.90999985    2.67000008
   11.78166676   84.07640076    4.90999985    2.67000008
   11.78500080   82.85710144    4.90999985    2.69000006
   11.78777790   79.75319672    4.90999985    2.69000006
   11.78861141   95.69789886    4.90999985    2.69000006
   11.79166698   79.68650055    4.90999985    2.69000006
   11.79500008   97.02590179    4.90999985    2.69000006
   11.79833412   84.83010101    4.90999985    2.69000006
   11.80138874   93.72730255    4.90999985    2.69000006
   11.80472279   80.72689819    4.90999985    2.69000006
   11.80805588   90.92500305    4.90999985    2.69000006
   11.81111145   90.15709686    4.90999985    2.69000006
   11.81444454   88.31639862    4.90999985    2.69000006
   11.81750011   91.55650330    4.90999985    2.69000006
   11.82083321   94.07859802    4.90999985    2.69000006
   11.82416630   90.33129883    4.90999985    2.69000006
   11.82722187   98.70760345    4.90999985    2.69000006
   11.83055592   90.16490173    4.90999985    2.69000006
   11.83388901   94.93379974    4.90999985    2.69000006
   11.83694458   91.42659760    4.90999985    2.69000006
   11.83777714  100.48400116    4.90999985    2.69000006
   11.84055519   89.70980072    4.90999985    2.69000006
   11.84388828   97.61820221    4.90999985    2.69000006
   11.84694386   92.19080353    4.90999985    2.69000006
   11.85027790  102.09799957    4.90999985    2.69000006
   11.85333347   99.76029968    4.90999985    2.71000004
   11.85666752   82.85099792    4.90999985    2.69000006
   11.86000061   93.78569794    4.90999985    2.71000004
   11.86305618   85.60769653    4.90999985    2.69000006
   11.86638927   86.74970245    4.90999985    2.69000006
   11.86972237  100.36900330    4.90999985    2.69000006
   11.87277794   99.21540070    4.90999985    2.71000004
   11.87611103   87.32379913    4.90999985    2.71000004
   11.87916660   89.17310333    4.90999985    2.71000004
   11.88249969   94.88749695    4.90999985    2.71000004
   11.88583279  102.26300049    4.90999985    2.71000004
   11.88777733   89.21199799    4.90999985    2.71000004
   11.88944435   87.24469757    4.90999985    2.69000006
   11.89277744   91.88819885    4.90999985    2.71000004
   11.89583302   91.07080078    4.90999985    2.71000004
   11.89916611   75.10690308    4.90999985    2.69000006
   11.90222168   91.41449738    4.90999985    2.71000004
   11.90555477   96.13279724    4.90999985    2.71000004
   11.90888882   88.95059967    4.90999985    2.69000006
   11.91194439   96.61869812    4.90999985    2.71000004
   11.91527748   89.12889862    4.90999985    2.71000004
   11.91861153   89.16750336    4.90999985    2.71000004
   11.92166710   91.43029785    4.90999985    2.71000004
   11.92500019   96.13970184    4.90999985    2.71000004
   11.92805576   83.06410217    4.90999985    2.71000004
   11.93138885   90.38230133    4.90999985    2.71000004
   11.93472195   85.43000031    4.90999985    2.71000004
   11.93777752   84.05979919    4.90999985    2.71000004
   11.93833351   82.70790100    4.90999985    2.71000004
   11.94166660   89.07399750    4.90999985    2.71000004
   11.94472218   81.26280212    4.90999985    2.71000004
   11.94805527   88.99880219    4.90999985    2.71000004
   11.95111084   85.68840027    4.90999985    2.71000004
   11.95444393   85.06169891    4.90999985    2.73000002
   11.95777798   86.26730347    4.90999985    2.71000004
   11.96083355   86.90959930    4.90999985    2.73000002
   11.96416664   84.45410156    4.90999985    2.73000002
   11.96749973   80.53019714    4.90999985    2.73000002
   11.97055531   79.75740051    4.90999985    2.73000002
   11.97388840   91.06140137    4.90999985    2.73000002
   11.97694397   89.10500336    4.90999985    2.73000002
   11.98027706   82.61779785    4.90999985    2.73000002
   11.98361111   88.94300079    4.90999985    2.73000002
   11.98666668   76.80120087    4.90999985    2.71000004
   11.98777771   81.00930023    4.90999985    2.71000004
   11.99027824   77.91899872    4.90999985    2.73000002
   11.99361134   75.51719666    4.90999985    2.71000004
   11.99666691   83.57279968    4.90999985    2.71000004
   12.00000000   81.60060120    4.90999985    2.71000004
   12.00305557   86.77480316    4.90999985    2.75000000
   12.00638866   87.41950226    4.90999985    2.73000002
   12.00972176   83.16510010    4.90999985    2.73000002
   12.01277733   77.54090118    4.90999985    2.73000002
   12.01611137   78.77690125    4.90999985    2.73000002
   12.01944447   83.22789764    4.90999985    2.73000002
   12.02250004   77.99349976    4.90999985    2.73000002
   12.02638817   87.73380280    4.90999985    2.73000002
   12.02999973   79.13980103    4.90999985    2.73000002
   12.03333378   74.84539795    4.90999985    2.75000000
   12.03666687   79.54579926    4.90999985    2.73000002
   12.03916740   86.84860229    4.90999985    2.73000002
   12.04222298   76.65489960    4.90999985    2.73000002
   12.04583359   91.75640106    4.90999985    2.73000002
   12.04944515   76.12270355    4.90999985    2.73000002
   12.05277824   88.22910309    4.90999985    2.73000002
   12.05777836   74.02860260    4.90999985    2.73000002
   12.06194496   77.06890106    4.90999985    2.73000002
   12.06611156   76.28160095    4.90999985    2.75000000
   12.06972218   76.68029785    4.90999985    2.75000000
   12.07333374   75.13410187    4.90999985    2.75000000
   12.07694435   78.71510315    4.90999985    2.73000002
   12.08055592   75.89810181    4.90999985    2.75000000
   12.08388901   74.59230042    4.90999985    2.73000002
   12.08722210   78.76540375    4.90999985    2.75000000
   12.08805561   77.46350098    4.90999985    2.75000000
   12.09083271   75.65070343    4.90999985    2.75000000
   12.09416676   86.89099884    4.90999985    2.73000002
   12.09749985   81.75939941    4.90999985    2.75000000
   12.10083389   72.70050049    4.90999985    2.75000000
   12.10388947   77.29190063    4.90999985    2.75000000
   12.10722256   76.47599792    4.90999985    2.75000000
   12.11055565   78.27220154    4.90999985    2.75000000
   12.11388969   74.44589996    4.90999985    2.73000002
   12.11694431   76.05130005    4.90999985    2.75000000
   12.12027836   75.09279633    4.90999985    2.75000000
   12.12361145   76.28389740    4.90999985    2.75000000
   12.12694454   77.84570313    4.90999985    2.75000000
   12.13027763   79.93430328    4.90999985    2.75000000
   12.13361073   77.89559937    4.90999985    2.75000000
   12.13694477   75.01349640    4.90999985    2.75000000
   12.13805580   75.50869751    4.90999985    2.76999998
   12.14055538   78.28500366    4.90999985    2.75000000
   12.14388847   77.10430145    4.90999985    2.75000000
   12.14722252   76.63710022    4.90999985    2.75000000
   12.15055561   73.25550079    4.90999985    2.75000000
   12.15388870   75.88999939    4.90999985    2.75000000
   12.15722179   78.08409882    4.90999985    2.75000000
   12.16138840   74.25330353    4.90999985    2.75000000
   12.16527748   73.78820038    4.90999985    2.75000000
   12.16916656   76.36759949    4.90999985    2.76999998
   12.17250061   74.30650330    4.90999985    2.76999998
   12.17611122   74.20770264    4.90999985    2.75000000
   12.17944431   77.35630035    4.90999985    2.75000000
   12.18277836   75.76760101    4.90999985    2.75000000
   12.18611145   76.56909943    4.90999985    2.76999998
   12.18805599   77.59719849    4.90999985    2.76999998
   12.18972206   77.00289917    4.90999985    2.75000000
   12.19305515   76.94979858    4.90999985    2.76999998
   12.19638920   75.37129974    4.90999985    2.75000000
   12.19999981   77.15730286    4.90999985    2.76999998
   12.20333290   74.79280090    4.90999985    2.76999998
   12.20666695   77.94229889    4.90999985    2.75000000
   12.21000004   80.69039917    4.90999985    2.75000000
   12.21305561   75.43769836    4.90999985    2.75000000
   12.21638870   77.07779694    4.90999985    2.75000000
   12.21999931   78.10140228    4.90999985    2.75000000
   12.22333336   75.60459900    4.90999985    2.76999998
   12.22666645   80.66709900    4.90999985    2.75000000
   12.22999954   74.32420349    4.90999985    2.75000000
   12.23333359   73.15930176    4.90999985    2.75000000
   12.23666668   76.22080231    4.90999985    2.76999998
   12.23805618   78.65280151    4.90999985    2.76999998
   12.24083328   76.10839844    4.90999985    2.76999998
   12.24416733   79.73329926    4.90999985    2.76999998
   12.24750042   74.71810150    4.90999985    2.76999998
   12.25083351   76.72850037    4.90999985    2.75000000
   12.25416660   76.68789673    4.90999985    2.75000000
   12.25777817   75.62570190    4.90999985    2.76999998
   12.26111126   74.93540192    4.90999985    2.76999998
   12.26444435   75.35469818    4.90999985    2.76999998
   12.26777744   75.84140015    4.90999985    2.78999996
   12.27111053   77.55470276    4.90999985    2.76999998
   12.27416611   75.31050110    4.90999985    2.76999998
   12.27750015   75.96050262    4.90999985    2.76999998
   12.28083324   81.61340332    4.90999985    2.76999998
   12.28444481   78.78320313    4.90999985    2.76999998
   12.28777790   77.47599792    4.90999985    2.76999998
   12.28833389   78.15029907    4.90999985    2.76999998
   12.29138947   76.79309845    4.90999985    2.76999998
   12.29472256   77.44290161    4.90999985    2.76999998
   12.29805565   76.48449707    4.90999985    2.78999996
   12.30111122   77.12059784    4.90999985    2.76999998
   12.30444431   75.00409698    4.90999985    2.78999996
   12.30777836   76.61049652    4.90999985    2.78999996
   12.31111145   79.00569916    4.90999985    2.76999998
   12.31416702   79.57689667    4.90999985    2.78999996
   12.31750011   74.87500000    4.90999985    2.76999998
   12.32083321   78.74410248    4.90999985    2.76999998
   12.32388878   77.71880341    4.90999985    2.76999998
   12.32722187   78.44499969    4.90999985    2.75000000
   12.33055592   74.95220184    4.90999985    2.76999998
   12.33361053   75.03949738    4.90999985    2.76999998
   12.33722210   79.09030151    4.90999985    2.76999998
   12.33861065   74.83460236    4.90999985    2.78999996
   12.34138870   76.05400085    4.90999985    2.76999998
   12.34472179   77.49289703    4.90999985    2.78999996
   12.34805489   78.43540192    4.90999985    2.76999998
   12.35138893   76.68000031    4.90999985    2.76999998
   12.37111092   78.80760193    4.90999985    2.78999996
   12.37444496   82.60520172    4.90999985    2.78999996
   12.37777805   76.85630035    4.90999985    2.78999996
   12.38111115   73.21279907    4.90999985    2.78999996
   12.38444424   76.39790344    4.90999985    2.78999996
   12.38777733   73.63590240    4.90999985    2.78999996
   12.38861084   73.84999847    4.90999985    2.78999996
   12.39166641   75.72290039    4.90999985    2.78999996
   12.39499950   77.73819733    4.90999985    2.78999996
   12.39833355   77.73999786    4.90999985    2.78999996
   12.40138817   77.32199860    4.90999985    2.78999996
   12.40472221   74.27610016    4.90999985    2.76999998
   12.40805531   75.36229706    4.90999985    2.78999996
   12.41138840   73.64990234    4.90999985    2.78999996
   12.41472149   76.19319916    4.90999985    2.78999996
   12.41805553   75.59649658    4.90999985    2.78999996
   12.42111111   73.84829712    4.90999985    2.78999996
   12.42444515   72.20259857    4.90999985    2.78999996
   12.42777824   74.26789856    4.90999985    2.78999996
   12.43111134   75.26840210    4.90999985    2.78999996
   12.43444443   74.14320374    4.90999985    2.78999996
   12.43750000   74.86070251    4.90999985    2.78999996
   12.43861103   76.99929810    4.90999985    2.78999996
   12.44166660   76.89949799    4.90999985    2.78999996
   12.44499969   77.80970001    4.90999985    2.78999996
   12.44833374   77.01930237    4.90999985    2.78999996
   12.45166683   75.72560120    4.90999985    2.78999996
   12.45499992   72.38569641    4.90999985    2.78999996
   12.45805550   79.52069855    4.90999985    2.78999996
   12.46138859   77.32309723    4.90999985    2.78999996
   12.46472168   82.78710175    4.90999985    2.78999996
   12.46805477   76.72280121    4.90999985    2.78999996
   12.47111034   81.64160156    4.90999985    2.80999994
   12.47444439   81.45909882    4.90999985    2.80999994
   12.47777748   78.56240082    4.90999985    2.78999996
   12.48083305   81.32009888    4.90999985    2.78999996
   12.48416710   76.26820374    4.90999985    2.78999996
   12.48750019   81.73200226    4.90999985    2.78999996
   12.48861122   75.10009766    4.90999985    2.78999996
   12.49138927   74.33820343    4.90999985    2.80999994
   12.49444485   75.15709686    4.90999985    2.78999996
   12.49777794   75.01319885    4.90999985    2.78999996
   12.50111103   77.83249664    4.90999985    2.78999996
   12.50416660   77.06510162    4.90999985    2.78999996
   12.50749969   81.37689972    4.90999985    2.78999996
   12.51083374   76.05940247    4.90999985    2.80999994
   12.51388931   75.28029633    4.90999985    2.78999996
   12.51749992   75.82330322    4.90999985    2.80999994
   12.52055550   75.84829712    4.90999985    2.78999996
   12.52472210   75.07279968    4.90999985    2.78999996
   12.52888870   76.00969696    4.90999985    2.78999996
   12.53222179   76.08640289    4.90999985    2.80999994
   12.53583336   73.09670258    4.90999985    2.80999994
   12.53861141   83.18939972    4.90999985    2.80999994
   12.54055595   81.17440033    4.90999985    2.80999994
   12.54555607   73.95500183    4.90999985    2.78999996
   12.54972267   76.29149628    4.90999985    2.80999994
   12.55444431   74.75140381    4.90999985    2.80999994
   12.56027794   73.29669952    4.90999985    2.80999994
   12.56361103   78.86669922    4.90999985    2.80999994
   12.56694412   84.29350281    4.90999985    2.80999994
   12.57027817   74.64230347    4.90999985    2.80999994
   12.57333374   76.43840027    4.90999985    2.80999994
   12.57666683   75.07859802    4.90999985    2.80999994
   12.57999992   72.41220093    4.90999985    2.80999994
   12.58305550   72.97029877    4.90999985    2.80999994
   12.58638859   76.22309875    4.90999985    2.82999992
   12.58833313   75.37039948    4.90999985    2.78999996
   12.59000015   74.76969910    4.90999985    2.80999994
   12.59333324   72.98059845    4.90999985    2.80999994
   12.59638882   73.60230255    4.90999985    2.80999994
   12.59972191   74.21579742    4.90999985    2.80999994
   12.60305595   75.39129639    4.90999985    2.80999994
   12.60611153   75.33139801    4.90999985    2.80999994
   12.60944462   74.50099945    4.90999985    2.80999994
   12.61250019   75.32070160    4.90999985    2.80999994
   12.61583328   75.77189636    4.90999985    2.80999994
   12.61916637   72.60070038    4.90999985    2.80999994
   12.62222195   77.29029846    4.90999985    2.82999992
   12.62555599   78.66529846    4.90999985    2.80999994
   12.62861156   75.49790192    4.90999985    2.82999992
   12.63194466   75.70760345    4.90999985    2.80999994
   12.63527775   79.03730011    4.90999985    2.82999992
   12.63833332   75.82129669    4.90999985    2.82999992
   12.63888836   75.54750061    4.90999985    2.80999994
   12.64222240   76.57409668    4.90999985    2.80999994
   12.64527798   76.35759735    4.90999985    2.80999994
   12.64861107   75.55950165    4.90999985    2.82999992
   12.65194416   72.69110107    4.90999985    2.82999992
   12.65499973   72.68669891    4.90999985    2.82999992
   12.65833282   81.27739716    4.90999985    2.80999994
   12.66138840   73.36630249    4.90999985    2.80999994
   12.66472149   73.86679840    4.90999985    2.80999994
   12.66805553   83.19760132    4.90999985    2.80999994
   12.67111111   70.74510193    4.90999985    2.80999994
   12.67444515   74.09600067    4.90999985    2.80999994
   12.67750072   74.66739655    4.90999985    2.80999994
   12.68083382   78.71890259    4.90999985    2.82999992
   12.68416691   75.67209625    4.90999985    2.82999992
   12.68722248   75.33309937    4.90999985    2.82999992
   12.68833351   73.56140137    4.90999985    2.80999994
   12.69083309   80.64520264    4.90999985    2.78999996
   12.69416714   80.13439941    4.90999985    2.82999992
   12.69750023   81.82710266    4.90999985    2.82999992
   12.70055580   79.10520172    4.90999985    2.82999992
   12.70388889   75.19039917    4.90999985    2.80999994
   12.70694447   82.86239624    4.90999985    2.82999992
   12.71027756   80.62110138    4.90999985    2.82999992
   12.71361065   73.19989777    4.90999985    2.82999992
   12.71666622   74.54080200    4.90999985    2.82999992
   12.71999931   85.94039917    4.90999985    2.82999992
   12.72305489   78.56330109    4.90999985    2.80999994
   12.72638798   79.80169678    4.90999985    2.82999992
   12.72972202   77.70909882    4.90999985    2.82999992
   12.73277760   73.25669861    4.90999985    2.82999992
   12.73611164   73.74800110    4.90999985    2.82999992
   12.73833370   73.02989960    4.90999985    2.82999992
   12.73972225   77.87830353    4.90999985    2.82999992
   12.74305534   75.70850372    4.90999985    2.82999992
   12.74611092   75.22139740    4.90999985    2.82999992
   12.74944496   79.01380157    4.90999985    2.82999992
   12.75277805   76.95330048    4.90999985    2.82999992
   12.75583363   76.56629944    4.90999985    2.82999992
   12.75916672   84.16159821    4.90999985    2.82999992
   12.76249981   80.61499786    4.90999985    2.82999992
   12.76555538   75.92050171    4.90999985    2.80999994
   12.76888847   72.86080170    4.90999985    2.82999992
   12.77194405   77.70140076    4.90999985    2.80999994
   12.77527714   76.74749756    4.90999985    2.82999992
   12.77861118   73.78600311    4.90999985    2.82999992
   12.78166676   74.59079742    4.90999985    2.82999992
   12.78500080   74.75579834    4.90999985    2.84999990
   12.78833389   80.46859741    4.90999985    2.82999992
   12.78888893   79.66770172    4.90999985    2.82999992
   12.79194450   73.69439697    4.90999985    2.84999990
   12.79527855   75.90579987    4.90999985    2.82999992
   12.79833412   74.98770142    4.90999985    2.82999992
   12.80166721   77.02369690    4.90999985    2.82999992
   12.80500031   81.55210114    4.90999985    2.82999992
   12.80805588   77.05750275    4.90999985    2.82999992
   12.81138897   80.32089996    4.90999985    2.82999992
   12.81444454   73.85440063    4.90999985    2.82999992
   12.81777763   78.28780365    4.90999985    2.84999990
   12.82111073   78.29090118    4.90999985    2.82999992
   12.82416630   77.09169769    4.90999985    2.82999992
   12.82750034   76.45379639    4.90999985    2.84999990
   12.83055592   83.32510376    4.90999985    2.82999992
   12.83388901   77.02760315    4.90999985    2.84999990
   12.83722210   75.87500000    4.90999985    2.82999992
   12.83888817   75.80979919    4.90999985    2.84999990
   12.84055519   85.11289978    4.90999985    2.84999990
   12.84388828   75.59929657    4.90999985    2.84999990
   12.84722233   75.47160339    4.90999985    2.84999990
   12.85027790   77.85119629    4.90999985    2.84999990
   12.85361195   74.47619629    4.90999985    2.82999992
   12.85666752   86.16590118    4.90999985    2.84999990
   12.86000061   75.93039703    4.90999985    2.84999990
   12.86333370   80.66909790    4.90999985    2.84999990
   12.86638927   80.13159943    4.90999985    2.84999990
   12.86972237   72.71610260    4.90999985    2.82999992
   12.87305546   76.95870209    4.90999985    2.84999990
   12.87611103   78.58260345    4.90999985    2.84999990
   12.87944412   74.98809814    4.90999985    2.84999990
   12.88249969   79.47540283    4.90999985    2.82999992
   12.88583279   71.03990173    4.90999985    2.84999990
   12.88888836   79.62259674    4.90999985    2.84999990
   12.88944435   78.45420074    4.90999985    2.84999990
   12.89277744   77.73889923    4.90999985    2.82999992
   12.89611053   75.07199860    4.90999985    2.82999992
   12.89916611   72.94940186    4.90999985    2.84999990
   12.90249920   73.45649719    4.90999985    2.84999990
   12.90555477   75.44090271    4.90999985    2.86999989
   12.90888882   78.64929962    4.90999985    2.82999992
   12.91222191   75.89980316    4.90999985    2.84999990
   12.91527748   80.77169800    4.90999985    2.84999990
   12.91861153   76.13469696    4.90999985    2.84999990
   12.92166710   75.40419769    4.90999985    2.84999990
   12.92500019   78.59480286    4.90999985    2.84999990
   12.92833328   85.47850037    4.90999985    2.84999990
   12.93138885   76.31199646    4.90999985    2.84999990
   12.93472195   78.24310303    4.90999985    2.84999990
   12.93777752   70.73500061    4.90999985    2.84999990
   12.93888855   87.97940063    4.90999985    2.84999990
   12.94138908   81.84510040    4.90999985    2.86999989
   12.94472218   78.37220001    4.90999985    2.86999989
   12.94805527   73.83519745    4.90999985    2.84999990
   12.95111084   73.37339783    4.90999985    2.84999990
   12.95444393   76.52210236    4.90999985    2.86999989
   12.95777798   81.47000122    4.90999985    2.86999989
   12.96083355   85.56649780    4.90999985    2.84999990
   12.96416664   91.22100067    4.90999985    2.84999990
   12.96749973   82.60749817    4.90999985    2.86999989
   12.97055531   75.13480377    4.90999985    2.84999990
   12.97388840   85.64720154    4.90999985    2.86999989
   12.97694397   89.12779999    4.90999985    2.86999989
   12.98027706   73.03579712    4.90999985    2.84999990
   12.98361111   79.51000214    4.90999985    2.84999990
   12.98666668   77.38510132    4.90999985    2.86999989
   12.98888874   75.31150055    4.90999985    2.86999989
   12.99027824   76.57700348    4.90999985    2.84999990
   12.99361134   73.20220184    4.90999985    2.84999990
   12.99694443   77.78700256    4.90999985    2.86999989
   13.00000000   93.74150085    4.90999985    2.86999989
   13.00333309   83.58090210    4.90999985    2.86999989
   13.00638866   86.12310028    4.90999985    2.86999989
   13.00972176   81.03260040    4.90999985    2.86999989
   13.01305580   88.59940338    4.90999985    2.86999989
   13.01611137   84.63760376    4.90999985    2.84999990
   13.01944447   79.59290314    4.90999985    2.86999989
   13.02250004   83.73269653    4.90999985    2.86999989
   13.02583313   74.23179626    4.90999985    2.86999989
   13.02916622   85.43890381    4.90999985    2.84999990
   13.03222179   78.61699677    4.90999985    2.86999989
   13.03555584   78.04910278    4.90999985    2.86999989
   13.03888893   93.76699829    4.90999985    2.84999990
   13.03916740   85.97709656    4.90999985    2.86999989
   13.04250050   81.72760010    4.90999985    2.86999989
   13.04583359   82.00610352    4.90999985    2.86999989
   13.04888916   80.07379913    4.90999985    2.86999989
   13.05222225   74.76159668    4.90999985    2.86999989
   13.05555534   74.28440094    4.90999985    2.84999990
   13.05861092   82.17359924    4.90999985    2.84999990
   13.06194496   97.13379669    4.90999985    2.84999990
   13.06500053   88.10250092    4.90999985    2.86999989
   13.06833363   79.41300201    4.90999985    2.86999989
   13.07166672   80.21420288    4.90999985    2.86999989
   13.07472229   85.70379639    4.90999985    2.86999989
   13.07805538   87.87590027    4.90999985    2.86999989
   13.08138847   81.30249786    4.90999985    2.86999989
   13.08444405   83.07659912    4.90999985    2.86999989
   13.08777714   84.44629669    4.90999985    2.89000010
   13.08888817   90.41760254    4.90999985    2.86999989
   13.09138870   79.70089722    4.90999985    2.86999989
   13.09444427   88.18309784    4.90999985    2.89000010
   13.09777737   91.86959839    4.90999985    2.86999989
   13.10083389   87.22640228    4.90999985    2.86999989
   13.10416698   77.34179688    4.90999985    2.86999989
   13.10750008   87.52999878    4.90999985    2.86999989
   13.11055565   80.62069702    4.90999985    2.86999989
   13.11388969   86.99700165    4.90999985    2.86999989
   13.11722279   83.71589661    4.90999985    2.86999989
   13.12027836   76.33460236    4.90999985    2.89000010
   13.12361145   77.92819977    4.90999985    2.86999989
   13.12666702   85.18939972    4.90999985    2.86999989
   13.13000011   97.49729919    4.90999985    2.86999989
   13.13333321   85.80239868    4.90999985    2.89000010
   13.13638878   87.09069824    4.90999985    2.86999989
   13.13888836   80.08439636    4.90999985    2.86999989
   13.14000034   91.19830322    4.90999985    2.86999989
   13.14333344   79.72709656    4.90999985    2.86999989
   13.14666653   87.75370026    4.90999985    2.86999989
   13.14972210   94.35549927    4.90999985    2.86999989
   13.15305519   91.48789978    4.90999985    2.86999989
   13.15638828   87.20850372    4.90999985    2.86999989
   13.15944386   81.08840179    4.90999985    2.84999990
   13.16277695   85.41149902    4.90999985    2.86999989
   13.16611099   85.02089691    4.90999985    2.89000010
   13.16916656   90.63710022    4.90999985    2.86999989
   13.17250061   96.16230011    4.90999985    2.86999989
   13.17555618   81.06880188    4.90999985    2.89000010
   13.17888927   87.67639923    4.90999985    2.89000010
   13.18222237   86.30629730    4.90999985    2.86999989
   13.18527794   88.17430115    4.90999985    2.89000010
   13.18861103   88.45770264    4.90999985    2.86999989
   13.18916702   81.43080139    4.90999985    2.86999989
   13.19250011   84.80120087    4.90999985    2.89000010
   13.19555569   84.77960205    4.90999985    2.84999990
   13.19888878   87.24089813    4.90999985    2.86999989
   13.20222187   83.69139862    4.90999985    2.89000010
   13.20527744   89.20649719    4.90999985    2.89000010
   13.20861053   88.52909851    4.90999985    2.86999989
   13.21194458   90.17459869    4.90999985    2.86999989
   13.21500015   86.85569763    4.90999985    2.86999989
   13.21833324   86.90519714    4.90999985    2.89000010
   13.22138882   82.38960266    4.90999985    2.89000010
   13.22472191   91.03389740    4.90999985    2.86999989
   13.22805500   93.82689667    4.90999985    2.86999989
   13.23111057   85.90460205    4.90999985    2.89000010
   13.23444462   82.97010040    4.90999985    2.89000010
   13.23777771   91.61550140    4.90999985    2.89000010
   13.23916721   91.42189789    4.90999985    2.89000010
   13.24111176   82.42790222    4.90999985    2.86999989
   13.24444485   83.07029724    4.90999985    2.89000010
   13.24777794   86.08119965    4.90999985    2.89000010
   13.25083351   82.18000031    4.90999985    2.89000010
   13.25416660   86.68260193    4.90999985    2.89000010
   13.25749969   82.98590088    4.90999985    2.89000010
   13.26055527   89.46720123    4.90999985    2.89000010
   13.26388931   98.98590088    4.90999985    2.89000010
   13.26722240   92.15820313    4.90999985    2.89000010
   13.27027798   91.58699799    4.90999985    2.89000010
   13.27361107   81.58020020    4.90999985    2.89000010
   13.27694416   96.36029816    4.90999985    2.86999989
   13.27999973   83.63860321    4.90999985    2.89000010
   13.28333378   90.65070343    4.90999985    2.89000010
   13.28666687   90.24389648    4.90999985    2.91000009
   13.28916740   87.97740173    4.90999985    2.89000010
   13.29000092   94.22109985    4.90999985    2.89000010
   13.29333401   87.13179779    4.90999985    2.89000010
   13.29666710   90.37509918    4.90999985    2.89000010
   13.29972267   92.64559937    4.90999985    2.91000009
   13.30305576   87.08170319    4.90999985    2.89000010
   13.30638885   87.23229980    4.90999985    2.91000009
   13.30944443   86.86039734    4.90999985    2.89000010
   13.31277752   99.12010193    4.90999985    2.89000010
   13.31611156   95.80130005    4.90999985    2.91000009
   13.31916618   82.61579895    4.90999985    2.91000009
   13.32250023   82.59839630    4.90999985    2.89000010
   13.32555580   84.39550018    4.90999985    2.89000010
   13.32888889   86.74690247    4.90999985    2.89000010
   13.33222198   97.21080017    4.90999985    2.86999989
   13.33527756   91.15010071    4.90999985    2.89000010
   13.33861065   88.98970032    4.90999985    2.89000010
   13.33916664   88.47579956    4.90999985    2.89000010
   13.34222221   79.28019714    4.90999985    2.89000010
   13.34527779   88.10379791    4.90999985    2.91000009
   13.34861088  100.69799805    4.90999985    2.89000010
   13.35194492   94.52110291    4.90999985    2.89000010
   13.35500050   88.75250244    4.90999985    2.91000009
   13.35833359   98.06839752    4.90999985    2.89000010
   13.36138916   87.00679779    4.90999985    2.91000009
   13.36472225   90.08560181    4.90999985    2.89000010
   13.36805534   89.21240234    4.90999985    2.89000010
   13.37111092   90.70330048    4.90999985    2.89000010
   13.38944435   88.61180115    4.90999985    2.89000010
   13.39138889   84.48200226    4.90999985    2.91000009
   13.39444447   89.20870209    4.90999985    2.89000010
   13.39777756   92.30989838    4.90999985    2.89000010
   13.40111065   87.96420288    4.90999985    2.89000010
   13.40416622   92.24600220    4.90999985    2.89000010
   13.40749931   83.91829681    4.90999985    2.89000010
   13.41055489   86.56870270    4.90999985    2.89000010
   13.41388893   81.41100311    4.90999985    2.91000009
   13.41722298   88.66329956    4.90999985    2.91000009
   13.42027855   85.06999969    4.90999985    2.91000009
   13.42361164   86.39409637    4.90999985    2.91000009
   13.42694473   92.49559784    4.90999985    2.91000009
   13.43000031   98.89990234    4.90999985    2.91000009
   13.43333340   95.19249725    4.90999985    2.91000009
   13.43638897   85.51460266    4.90999985    2.89000010
   13.43944454   92.81109619    4.90999985    2.89000010
   13.44000053   89.25340271    4.90999985    2.91000009
   13.44333363   82.90209961    4.90999985    2.89000010
   13.44666672   84.18250275    4.90999985    2.91000009
   13.44972229   96.14559937    4.90999985    2.89000010
   13.45305538   93.00350189    4.90999985    2.91000009
   13.45611095   93.24189758    4.90999985    2.91000009
   13.45944405   82.10310364    4.90999985    2.91000009
   13.46277714   93.10870361    4.90999985    2.91000009
   13.46583271   91.39070129    4.90999985    2.91000009
   13.46916580   91.69429779    4.90999985    2.91000009
   13.47249985   95.78440094    4.90999985    2.91000009
   13.47555542   86.35459900    4.90999985    2.91000009
   13.47888851   94.69170380    4.90999985    2.93000007
   13.48194408   80.25279999    4.90999985    2.91000009
   13.48527813   85.96589661    4.90999985    2.91000009
   13.48861122   93.66100311    4.90999985    2.91000009
   13.48944473   88.79519653    4.90999985    2.91000009
   13.49194431   96.68479919    4.90999985    2.91000009
   13.49527836   71.92179871    4.90999985    2.91000009
   13.49861145   95.62550354    4.90999985    2.91000009
   13.50166702   88.63549805    4.90999985    2.91000009
   13.50500011   92.94219971    4.90999985    2.91000009
   13.50833321   90.23770142    4.90999985    2.91000009
   13.51138878   88.02290344    4.90999985    2.91000009
   13.51472187   84.20520020    4.90999985    2.89000010
   13.51777744   88.73290253    4.90999985    2.91000009
   13.52111053   86.15940094    4.90999985    2.91000009
   13.52444458   84.14510345    4.90999985    2.91000009
   13.52750015   81.75070190    4.90999985    2.91000009
   13.53083324   97.07530212    4.90999985    2.91000009
   13.53416729   86.58149719    4.90999985    2.91000009
   13.53722286   84.79589844    4.90999985    2.91000009
   13.53944492   84.63449860    4.90999985    2.91000009
   13.54083347   92.02249908    4.90999985    2.91000009
   13.54416752   87.17130280    4.90999985    2.91000009
   13.54750061   88.80349731    4.90999985    2.91000009
   13.55055618   89.22669983    4.90999985    2.91000009
   13.55388927   88.99199677    4.90999985    2.91000009
   13.55722237   98.69439697    4.90999985    2.91000009
   13.56027794   88.52619934    4.90999985    2.91000009
   13.56361103   85.14089966    4.90999985    2.91000009
   13.56666660   88.91950226    4.90999985    2.89000010
   13.56999969   86.77239990    4.90999985    2.91000009
   13.57333374   90.24259949    4.90999985    2.91000009
   13.57638836   85.15290070    4.90999985    2.91000009
   13.57972240   77.19129944    4.90999985    2.91000009
   13.58305550   93.17520142    4.90999985    2.91000009
   13.58611107   92.17839813    4.90999985    2.91000009
   13.58944416   84.56279755    4.90999985    2.91000009
   13.58972168   86.97699738    4.90999985    2.91000009
   13.59305477   89.64939880    4.90999985    2.93000007
   13.59638882   91.72139740    4.90999985    2.91000009
   13.59944439   92.61589813    4.90999985    2.91000009
   13.60277843   94.31150055    4.90999985    2.91000009
   13.60583401   90.76069641    4.90999985    2.91000009
   13.60916710   95.69200134    4.90999985    2.91000009
   13.61222267   84.44480133    4.90999985    2.91000009
   13.61555576   85.23809814    4.90999985    2.91000009
   13.61888885   82.64389801    4.90999985    2.91000009
   13.62194443   88.92739868    4.90999985    2.93000007
   13.62527752   92.35959625    4.90999985    2.91000009
   13.62833309   94.20420074    4.90999985    2.91000009
   13.63166714   89.08010101    4.90999985    2.93000007
   13.63500023   92.48459625    4.90999985    2.91000009
   13.63805580   91.16130066    4.90999985    2.91000009
   13.63944435   92.09580231    4.90999985    2.93000007
   13.64166641   98.11679840    4.90999985    2.91000009
   13.64499950   88.47409821    4.90999985    2.91000009
   13.64833355   91.18099976    4.90999985    2.91000009
   13.65138817   96.66829681    4.90999985    2.91000009
   13.65472221   91.13339996    4.90999985    2.91000009
   13.65777779   86.12779999    4.90999985    2.91000009
   13.66111088   94.30490112    4.90999985    2.93000007
   13.66444397   87.22190094    4.90999985    2.91000009
   13.66750050   85.56130219    4.90999985    2.93000007
   13.77638817   -1.00000000   -1.00000000   -1.00000000
   13.87305546   -1.00000000   -1.00000000   -1.00000000
   13.97388840   -1.00000000   -1.00000000   -1.00000000
   14.00638866   67.10389709    4.90999985    2.93000007
   14.00972176   97.51979828    4.90999985    2.93000007
   14.01277733  102.13999939    4.90999985    2.94000006
   14.01611137   94.22820282    4.90999985    2.94000006
   14.01944447   99.72370148    4.90999985    2.93000007
   14.02250004   88.65640259    4.90999985    2.93000007
   14.02583313  103.31999969    4.90999985    2.93000007
   14.02916622   87.42579651    4.90999985    2.93000007
   14.03500080   87.42579651    4.90999985    2.93000007
   14.03916740   97.16130066    4.90999985    2.93000007
   14.04250050   93.35310364    4.90999985    2.93000007
   14.04555607   92.87229919    4.90999985    2.93000007
   14.04888916  100.66699982    4.90999985    2.93000007
   14.05194473   92.10040283    4.90999985    2.93000007
   14.05527782   98.03289795    4.90999985    2.94000006
   14.05638885   95.28029633    4.90999985    2.94000006
   14.05888939   95.37650299    4.90999985    2.94000006
   14.06194496   90.83129883    4.90999985    2.94000006
   14.06527805   91.97039795    4.90999985    2.93000007
   14.06861115   99.89230347    4.90999985    2.93000007
   14.07166672   88.10700226    4.90999985    2.93000007
   14.07499981   86.41030121    4.90999985    2.94000006
   14.07833290   88.62979889    4.90999985    2.93000007
   14.08138847   89.02709961    4.90999985    2.94000006
   14.08611107   89.02709961    4.90999985    2.94000006
   14.09027767   95.94069672    4.90999985    2.93000007
   14.09361076   94.69470215    4.90999985    2.93000007
   14.09666634   95.12699890    4.90999985    2.93000007
   14.10000038  103.27600098    4.90999985    2.94000006
   14.10333347   86.73629761    4.90999985    2.93000007
   14.10638905  103.30999756    4.90999985    2.93000007
   14.10694504   92.95909882    4.90999985    2.93000007
   14.11000061   84.50710297    4.90999985    2.94000006
   14.11333370   91.58709717    4.90999985    2.93000007
   14.11666679   95.74739838    4.90999985    2.94000006
   14.11972237   91.10150146    4.90999985    2.94000006
   14.12305546   87.85040283    4.90999985    2.94000006
   14.12611103   97.48020172    4.90999985    2.94000006
   14.12944412   91.09329987    4.90999985    2.94000006
   14.13277817   87.88289642    4.90999985    2.94000006
   14.13749981   87.88289642    4.90999985    2.94000006
   14.14138889   94.00730133    4.90999985    2.94000006
   14.14472198  100.25499725    4.90999985    2.94000006
   14.14805508   98.65779877    4.90999985    2.94000006
   14.15111065   92.98840332    4.90999985    2.93000007
   14.15444374   94.05590057    4.90999985    2.94000006
   14.15638828   93.95300293    4.90999985    2.93000007
   14.15805531   89.93350220    4.90999985    2.94000006
   14.16111088   88.37069702    4.90999985    2.94000006
   14.16444397   91.22470093    4.90999985    2.93000007
   14.16777802   91.83229828    4.90999985    2.93000007
   14.17083359   90.83509827    4.90999985    2.94000006
   14.17416668   90.84089661    4.90999985    2.93000007
   14.17750072   93.58760071    4.90999985    2.94000006
   14.18055630  101.94400024    4.90999985    2.94000006
   14.18388939   95.44850159    4.90999985    2.94000006
   14.18861103   95.44850159    4.90999985    2.94000006
   14.19277763   98.50160217    4.90999985    2.94000006
   14.19583321   90.26409912    4.90999985    2.94000006
   14.19916630   85.83889771    4.90999985    2.94000006
   14.20249939   91.84449768    4.90999985    2.94000006
   14.20555496   95.36560059    4.90999985    2.93000007
   14.20638847   94.69550323    4.90999985    2.93000007
   14.20916653   95.90640259    4.90999985    2.94000006
   14.21222210   98.58020020    4.90999985    2.94000006
   14.21555519   96.34829712    4.90999985    2.94000006
   14.21888828  100.07499695    4.90999985    2.94000006
   14.22194386   93.89679718    4.90999985    2.94000006
   14.22527695   94.05229950    4.90999985    2.94000006
   14.22861099   97.61239624    4.90999985    2.96000004
   14.23166656   96.75219727    4.90999985    2.93000007
   14.23500061   96.77310181    4.90999985    2.93000007
   14.23972225   96.77310181    4.90999985    2.94000006
   14.24388885   98.23680115    4.90999985    2.94000006
   14.24722290   84.52760315    4.90999985    2.94000006
   14.25027752   90.66010284    4.90999985    2.94000006
   14.25361156   93.48349762    4.90999985    2.94000006
   14.25638866   86.89330292    4.90999985    2.94000006
   14.25722218   97.16909790    4.90999985    2.94000006
   14.26027775   89.31359863    4.90999985    2.94000006
   14.26361084   90.59069824    4.90999985    2.96000004
   14.26694393   97.62110138    4.90999985    2.94000006
   14.26999950   98.06030273    4.90999985    2.94000006
   14.27333355   98.07810211    4.90999985    2.94000006
   14.27666664  103.57199860    4.90999985    2.94000006
   14.27972221   90.70040131    4.90999985    2.94000006
   14.28305531  100.37599945    4.90999985    2.94000006
   14.28611183   98.65840149    4.90999985    2.94000006
   14.29083347   98.65840149    4.90999985    2.94000006
   14.29500008   96.25980377    4.90999985    2.94000006
   14.29833412   91.19809723    4.90999985    2.94000006
   14.30138874   86.72329712    4.90999985    2.94000006
   14.30472279   91.54660034    4.90999985    2.94000006
   14.30638885   92.51650238    4.90999985    2.93000007
   14.30833340   91.22509766    4.90999985    2.94000006
   14.31166649   87.99299622    4.90999985    2.93000007
   14.31472206   93.77590179    4.90999985    2.94000006
   14.31805515   96.68479919    4.90999985    2.94000006
   14.32138920  105.59899902    4.90999985    2.94000006
   14.32444477   94.82620239    4.90999985    2.94000006
   14.32777786   94.29859924    4.90999985    2.94000006
   14.33083344   91.53890228    4.90999985    2.94000006
   14.33416653   95.52320099    4.90999985    2.94000006
   14.33749962   88.22070313    4.90999985    2.94000006
   14.34222221   88.22070313    4.90999985    2.94000006
   14.34611034   86.98880005    4.90999985    2.94000006
   14.34944439   87.42810059    4.90999985    2.94000006
   14.35277843   91.87239838    4.90999985    2.94000006
   14.35583401   93.60749817    4.90999985    2.94000006
   14.35666752   97.97209930    4.90999985    2.94000006
   14.35944462   92.84470367    4.90999985    2.94000006
   14.36277771  103.33200073    4.90999985    2.94000006
   14.36583328   87.49539948    4.90999985    2.94000006
   14.36916637   89.63819885    4.90999985    2.94000006
   14.37250042   94.22959900    4.90999985    2.94000006
   14.37555599  101.92199707    4.90999985    2.94000006
   14.37888908   92.79519653    4.90999985    2.94000006
   14.38222218   96.41210175    4.90999985    2.94000006
   14.38527775   98.33580017    4.90999985    2.94000006
   14.38861084   90.96659851    4.90999985    2.94000006
   14.39333344   90.96659851    4.90999985    2.94000006
   14.39750004  101.94300079    4.90999985    2.94000006
   14.40055561   90.55840302    4.90999985    2.94000006
   14.40388870   93.66190338    4.90999985    2.94000006
   14.40666676  100.43699646    4.90999985    2.94000006
   14.40749931   83.21299744    4.90999985    2.94000006
   14.41083336   94.79920197    4.90999985    2.93000007
   14.41388893   96.64620209    4.90999985    2.94000006
   14.41722298   95.51170349    4.90999985    2.94000006
   14.42055607   88.28829956    4.90999985    2.94000006
   14.42361164   88.65859985    4.90999985    2.94000006
   14.42694473   87.20310211    4.90999985    2.94000006
   14.43027782   89.14270020    4.90999985    2.94000006
   14.43333340   87.82720184    4.90999985    2.94000006
   14.43666649   81.64369965    4.90999985    2.94000006
   14.44000053   89.15239716    4.90999985    2.94000006
   14.44444466   89.15239716    4.90999985    2.94000006
   14.44861126   90.97699738    4.90999985    2.96000004
   14.45194435   90.97540283    4.90999985    2.93000007
   14.45499992   95.30310059    4.90999985    2.94000006
   14.45666695   91.56120300    4.90999985    2.94000006
   14.45861053  100.53299713    4.90999985    2.94000006
   14.46194458   98.40380096    4.90999985    2.94000006
   14.46500015  104.14800262    4.90999985    2.94000006
   14.46833324   98.62560272    4.90999985    2.94000006
   14.47166634   92.80539703    4.90999985    2.94000006
   14.47472191   91.11139679    4.90999985    2.94000006
   14.47805500   88.28630066    4.90999985    2.94000006
   14.48138809   91.52629852    4.90999985    2.94000006
   14.48444462   91.73130035    4.90999985    2.94000006
   14.48777771   88.02639771    4.90999985    2.94000006
   14.49083328   87.02089691    4.90999985    2.94000006
   14.49555588   87.02089691    4.90999985    2.94000006
   14.49972248   90.27439880    4.90999985    2.94000006
   14.50305557   88.19950104    4.90999985    2.94000006
   14.50611115   88.55629730    4.90999985    2.94000006
   14.50694466   84.35829926    4.90999985    2.94000006
   14.50972176   82.92089844    4.90999985    2.94000006
   14.51305580   86.02610016    4.90999985    2.94000006
   14.51611137   86.49960327    4.90999985    2.94000006
   14.51944447   89.59860229    4.90999985    2.94000006
   14.52277756   84.70230103    4.90999985    2.94000006
   14.52583313   81.97399902    4.90999985    2.94000006
   14.52916622   90.03869629    4.90999985    2.94000006
   14.53249931   95.37770081    4.90999985    2.94000006
   14.53555584   82.94390106    4.90999985    2.94000006
   14.53888893   92.58380127    4.90999985    2.94000006
   14.54194450   89.74490356    4.90999985    2.96000004
   14.54694462   89.74490356    4.90999985    2.94000006
   14.55083370   93.08809662    4.90999985    2.94000006
   14.55416679   76.55760193    4.90999985    2.96000004
   14.55694485   86.95310211    4.90999985    2.94000006
   14.55777836   90.16300201    4.90999985    2.94000006
   14.56111145   87.94570160    4.90999985    2.94000006
   14.56416702   87.75650024    4.90999985    2.94000006
   14.56750011   85.43049622    4.90999985    2.94000006
   14.57083321   86.65329742    4.90999985    2.96000004
   14.57388878   89.11669922    4.90999985    2.94000006
   14.57722187   83.48629761    4.90999985    2.94000006
   14.58055592   78.48280334    4.90999985    2.94000006
   14.58361053   77.64559937    4.90999985    2.94000006
   14.58694458   86.04229736    4.90999985    2.94000006
   14.59000015   80.18119812    4.90999985    2.94000006
   14.59333324   77.66349792    4.90999985    2.94000006
   14.59805489   77.66349792    4.90999985    2.96000004
   14.60222244   85.03430176    4.90999985    2.96000004
   14.60527802   83.66230011    4.90999985    2.94000006
   14.60694504   82.32790375    4.90999985    2.96000004
   14.60888958   85.25980377    4.90999985    2.94000006
   14.61222267   95.08979797    4.90999985    2.94000006
   14.61527824   84.65899658    4.90999985    2.94000006
   14.61861134   76.69660187    4.90999985    2.94000006
   14.62194443   84.84989929    4.90999985    2.94000006
   14.62500000   88.63140106    4.90999985    2.94000006
   14.62833309   84.08270264    4.90999985    2.94000006
   14.63166714   87.68910217    4.90999985    2.94000006
   14.63472176   80.27770233    4.90999985    2.96000004
   14.63805580   88.00350189    4.90999985    2.94000006
   14.64111137   91.65809631    4.90999985    2.94000006
   14.64444447   90.19000244    4.90999985    2.94000006
   14.64916611   90.19000244    4.90999985    2.94000006
   14.65333271   90.31919861    4.90999985    2.94000006
   14.65666676   90.24680328    4.90999985    2.94000006
   14.65722179   83.15769958    4.90999985    2.94000006
   14.66027737   88.65160370    4.90999985    2.94000006
   14.66361046   92.37699890    4.90999985    2.94000006
   14.66666698   91.74099731    4.90999985    2.96000004
   14.67000008   91.01709747    4.90999985    2.94000006
   14.67333412   94.39260101    4.90999985    2.96000004
   14.67638874   86.55539703    4.90999985    2.94000006
   14.67972279   87.75489807    4.90999985    2.94000006
   14.68305588   83.98880005    4.90999985    2.96000004
   14.68611145   92.80249786    4.90999985    2.94000006
   14.68944454   85.69280243    4.90999985    2.96000004
   14.69250011   81.86640167    4.90999985    2.94000006
   14.69583321   81.34899902    4.90999985    2.94000006
   14.70027733   81.34899902    4.90999985    2.96000004
   14.70444393   92.25679779    4.90999985    2.94000006
   14.70722198   91.75409698    4.90999985    2.94000006
   14.70805550   90.60099792    4.90999985    2.94000006
   14.71138859   84.50640106    4.90999985    2.96000004
   14.71444416   88.24019623    4.90999985    2.94000006
   14.71777725   90.63240051    4.90999985    2.96000004
   14.72111034   89.59220123    4.90999985    2.96000004
   14.72416592   86.60919952    4.90999985    2.96000004
   14.72749996   97.15509796    4.90999985    2.94000006
   14.73083305   88.37969971    4.90999985    2.94000006
   14.73388958   85.27500153    4.90999985    2.96000004
   14.73722267   82.84600067    4.90999985    2.96000004
   14.74027824   86.26999664    4.90999985    2.96000004
   14.74361134   80.58830261    4.90999985    2.94000006
   14.74694443   87.45850372    4.90999985    2.94000006
   14.75166702   87.45850372    4.90999985    2.96000004
   14.75555515  132.83000183    4.90999985    2.96000004
   14.75722218   85.87729645    4.90999985    2.94000006
   14.75916672   90.45490265    4.90999985    2.94000006
   14.76249981   82.22579956    4.90999985    2.96000004
   14.76555538   85.93240356    4.90999985    2.94000006
   14.76888847   72.11039734    4.90999985    2.94000006
   14.77222157   84.46070099    4.90999985    2.96000004
   14.77527714   85.41539764    4.90999985    2.96000004
   14.77861118   90.53720093    4.90999985    2.94000006
   14.78194427   81.67009735    4.90999985    2.96000004
   14.78500080   90.72509766    4.90999985    2.96000004
   14.78833389   88.06420135    4.90999985    2.96000004
   14.79138947   83.26190186    4.90999985    2.96000004
   14.79472256   81.83580017    4.90999985    2.96000004
   14.79805565   85.14289856    4.90999985    2.96000004
   14.80277824   85.14289856    4.90999985    2.96000004
   14.80694485   87.66970062    4.90999985    2.96000004
   14.80749989   84.35530090    4.90999985    2.96000004
   14.81055546   86.58399963    4.90999985    2.91000009
   14.81388950   85.82230377    0.11000000    0.38000000
   14.81722260   92.28859711    0.09000000    0.07000000
   14.82027817   87.66819763    0.09000000    0.07000000
   14.82361126   90.58679962    0.09000000    0.07000000
   14.82666683   82.42600250    0.09000000    0.07000000
   14.82999992   91.63780212    0.09000000    0.07000000
   14.83333302   90.07469940    0.09000000    0.07000000
   14.83638859   88.68049622    0.09000000    0.07000000
   14.83972168   73.43859863    0.09000000    0.07000000
   14.84305477   84.87819672    0.09000000    0.07000000
   14.84611034   92.48149872    0.09000000    0.07000000
   14.84944439   89.86789703    0.09000000    0.07000000
   14.85388947   89.86789703    0.09000000    0.07000000
   14.85805607   88.07350159    0.09000000    0.07000000
   14.86138916   82.36859894    0.09000000    0.07000000
   14.86444473   89.67189789    0.09000000    0.07000000
   14.86777782   89.09079742    0.09000000    0.07000000
   14.87083340   86.79709625    0.09000000    0.07000000
   14.87416649   83.29329681    0.09000000    0.07000000
   14.87750053   99.79499817    0.09000000    0.07000000
   14.88055611   92.80000305    0.09000000    0.07000000
   14.88388920   88.50340271    0.09000000    0.07000000
   14.88722229   87.79160309    0.09000000    0.07000000
   14.89027786   83.86720276    0.09000000    0.07000000
   14.89361095   87.54949951    0.09000000    0.07000000
   14.89666653   91.07189941    0.09000000    0.07000000
   14.89999962   80.80390167    0.09000000    0.07000000
   14.90499973   80.80390167    0.09000000    0.07000000
   14.90916634   94.83319855    0.09000000    0.07000000
   14.91249943   93.22450256    0.09000000    0.07000000
   14.91555500   96.29280090    0.09000000    0.07000000
   14.91888905   87.26349640    0.09000000    0.07000000
   14.92222214   90.24189758    0.09000000    0.07000000
   14.92527771   87.46849823    0.09000000    0.07000000
   14.92861176   89.74720001    0.09000000    0.07000000
   14.93194485   84.71520233    0.09000000    0.07000000
   14.93500042   88.64980316    0.09000000    0.07000000
   14.93833351   85.09249878    0.09000000    0.07000000
   14.94138908   89.96450043    0.09000000    0.07000000
   14.94472218   98.43620300    0.09000000    0.07000000
   14.94805527   86.52790070    0.09000000    0.07000000
   14.95111084   86.54599762    0.09000000    0.07000000
   14.95638847   86.54599762    0.09000000    0.07000000
   14.96027756   88.45520020    0.09000000    0.07000000
   14.96361065   88.18229675    0.09000000    0.07000000
   14.96694374   85.32050323    0.09000000    0.07000000
   14.96999931   86.43440247    0.09000000    0.07000000
   14.97333336   87.12770081    0.09000000    0.07000000
   14.97666645   76.73200226    0.09000000    0.07000000
   14.97972202   82.98880005    0.09000000    0.07000000
   14.98305511   84.16899872    0.09000000    0.07000000
   14.98611164   94.63770294    0.09000000    0.07000000
   14.98944473   95.34909821    0.09000000    0.07000000
   14.99277782   94.37349701    0.09000000    0.07000000
   14.99583340   88.30439758    0.09000000    0.07000000
   14.99916649   87.88960266    0.09000000    0.07000000
   15.00249958   77.21589661    0.09000000    0.07000000
   15.02388859   88.89800262    0.09000000    0.07000000
   15.02416611   89.27490234    0.09000000    0.07000000
   15.02750015   83.69100189    0.09000000    0.07000000
   15.03083324   90.87229919    0.09000000    0.07000000
   15.03388977   95.30500031    0.09000000    0.07000000
   15.03722286   84.43260193    0.09000000    0.07000000
   15.04055595   83.00530243    0.09000000    0.07000000
   15.04361153   89.42009735    0.09000000    0.07000000
   15.04694462   85.46649933    0.09000000    0.07000000
   15.05000019   80.03440094    0.09000000    0.07000000
   15.05333328   86.05670166    0.09000000    0.07000000
   15.05861092   86.05670166    0.09000000    0.07000000
   15.06277752   93.69760132    0.09000000    0.07000000
   15.06611156   79.92449951    0.09000000    0.07000000
   15.06944466   92.15570068    0.09000000    0.07000000
   15.07250023   82.44210052    0.09000000    0.07000000
   15.07388878   83.48010254    0.09000000    0.07000000
   15.07611084   90.07019806    0.09000000    0.07000000
   15.07944393   96.16419983    0.09000000    0.07000000
   15.08249950   88.03089905    0.09000000    0.07000000
   15.08583260   76.87979889    0.09000000    0.07000000
   15.08916664   89.79319763    0.09000000    0.07000000
   15.09222221   87.46779633    0.09000000    0.07000000
   15.09555531   89.26709747    0.09000000    0.07000000
   15.09888840   77.71880341    0.09000000    0.07000000
   15.10194492   85.15529633    0.09000000    0.07000000
   15.10527802   85.95420074    0.09000000    0.07000000
   15.11000061   85.95420074    0.09000000    0.07000000
   15.11416721   88.76820374    0.09000000    0.07000000
   15.11722279   80.08489990    0.09000000    0.07000000
   15.12055588   76.56230164    0.09000000    0.07000000
   15.12388897   84.72869873    0.09000000    0.07000000
   15.12416649   85.66490173    0.09000000    0.07000000
   15.12750053   79.98719788    0.09000000    0.07000000
   15.13083363   79.98239899    0.09000000    0.07000000
   15.13388920   82.76339722    0.09000000    0.07000000
   15.13722229   81.68329620    0.09000000    0.07000000
   15.14055538   83.27140045    0.09000000    0.07000000
   15.14361095   85.17729950    0.09000000    0.07000000
   15.14694405   87.37750244    0.09000000    0.07000000
   15.14999962   83.74720001    0.09000000    0.07000000
   15.15333271   90.18640137    0.09000000    0.07000000
   15.15666676   80.61969757    0.09000000    0.07000000
   15.16111088   80.61969757    0.09000000    0.07000000
   15.16527748   84.74939728    0.09000000    0.07000000
   15.16833401   82.81400299    0.09000000    0.07000000
   15.17166710   82.91179657    0.09000000    0.07000000
   15.17388916   78.02330017    0.09000000    0.07000000
   15.17527771   78.27429962    0.09000000    0.07000000
   15.17861176   81.45429993    0.09000000    0.07000000
   15.18194485   81.24220276    0.09000000    0.07000000
   15.18500042   82.21510315    0.09000000    0.07000000
   15.18833351   87.46769714    0.09000000    0.07000000
   15.19138908   84.80190277    0.09000000    0.07000000
   15.19472218   84.02310181    0.09000000    0.07000000
   15.19805527   93.31439972    0.09000000    0.07000000
   15.20111084   86.36930084    0.09000000    0.07000000
   15.20444393   88.73020172    0.09000000    0.07000000
   15.20777798   85.54190063    0.09000000    0.07000000
   15.21222210   85.54190063    0.09000000    0.07000000
   15.21638870   89.44740295    0.09000000    0.07000000
   15.21972179   89.76360321    0.09000000    0.07000000
   15.22277737   86.10749817    0.09000000    0.07000000
   15.22388840   86.77100372    0.09000000    0.07000000
   15.22638798   81.92510223    0.09000000    0.07000000
   15.22972202   84.81479645    0.09000000    0.07000000
   15.23305511   86.62460327    0.09000000    0.07000000
   15.23611164   76.86340332    0.09000000    0.07000000
   15.23944473   89.08329773    0.09000000    0.07000000
   15.24250031   84.11419678    0.09000000    0.07000000
   15.24583340   83.98280334    0.09000000    0.07000000
   15.24916649   86.28450012    0.09000000    0.07000000
   15.25222206   87.29489899    0.09000000    0.07000000
   15.25555515   89.36849976    0.09000000    0.07000000
   15.25888920   84.22350311    0.09000000    0.07000000
   15.26333332   84.22350311    0.09000000    0.07000000
   15.26749992   82.77310181    0.09000000    0.07000000
   15.27083302   87.27079773    0.09000000    0.07000000
   15.27388859   79.51830292    0.09000000    0.07000000
   15.27444458   84.06199646    0.09000000    0.07000000
   15.27777767   83.37470245    0.09000000    0.07000000
   15.28083324   83.63150024    0.09000000    0.07000000
   15.28416729   90.60179901    0.09000000    0.07000000
   15.28722286   86.71540070    0.09000000    0.07000000
   15.29055595   85.95259857    0.09000000    0.07000000
   15.29388905   89.71189880    0.09000000    0.07000000
   15.29694462   82.24520111    0.09000000    0.07000000
   15.30027771   81.56960297    0.09000000    0.07000000
   15.30361176   80.25289917    0.09000000    0.07000000
   15.30666733   87.23590088    0.09000000    0.07000000
   15.31000042   86.35420227    0.09000000    0.07000000
   15.31472206   86.35420227    0.09000000    0.07000000
   15.31888866   85.74299622    0.09000000    0.07000000
   15.32194424   86.48059845    0.09000000    0.07000000
   15.32388878   82.19180298    0.09000000    0.07000000
   15.32555580   80.41139984    0.09000000    0.07000000
   15.32888889   83.47270203    0.09000000    0.07000000
   15.33194447   85.29830170    0.09000000    0.07000000
   15.33527756   81.91419983    0.09000000    0.07000000
   15.33861065   78.86049652    0.09000000    0.07000000
   15.34166622   76.43630219    0.09000000    0.07000000
   15.34499931   83.73120117    0.09000000    0.07000000
   15.34805489   87.30519867    0.09000000    0.07000000
   15.35138893   88.57640076    0.09000000    0.07000000
   15.35472298   83.06479645    0.09000000    0.07000000
   15.35777855   79.75949860    0.09000000    0.07000000
   15.36111164   89.40799713    0.09000000    0.07000000
   15.36583328   89.40799713    0.09000000    0.07000000
   15.36999989   79.63159943    0.09000000    0.07000000
   15.37333393   77.89679718    0.09000000    0.07000000
   15.37388897   81.79370117    0.09000000    0.07000000
   15.37694454   87.10009766    0.09000000    0.07000000
   15.38027763   85.31629944    0.09000000    0.07000000
   15.38333321   70.77799988    0.09000000    0.07000000
   15.38666630   79.37139893    0.09000000    0.07000000
   15.39000034   81.03890228    0.09000000    0.07000000
   15.39305496   73.15799713    0.09000000    0.07000000
   15.39638901   78.85559845    0.09000000    0.07000000
   15.39944458   85.58789825    0.09000000    0.07000000
   15.40277767   82.64800262    0.09000000    0.07000000
   15.40611076   87.15180206    0.09000000    0.07000000
   15.40916634   73.99259949    0.09000000    0.07000000
   15.41249943   82.36100006    0.09000000    0.07000000
   15.41694450   82.36100006    0.09000000    0.07000000
   15.42111111   77.63700104    0.09000000    0.07000000
   15.42388916   81.43640137    0.09000000    0.07000000
   15.42472267   72.21009827    0.09000000    0.07000000
   15.42805576   84.15869904    0.09000000    0.07000000
   15.43111134   79.18150330    0.09000000    0.07000000
   15.43444443   78.07779694    0.09000000    0.07000000
   15.43777752   84.47660065    0.09000000    0.07000000
   15.44083309   78.87169647    0.09000000    0.07000000
   15.44416714   81.35569763    0.09000000    0.07000000
   15.44722271   84.53500366    0.09000000    0.07000000
   15.45055580   80.07070160    0.09000000    0.07000000
   15.45388889   71.87220001    0.09000000    0.07000000
   15.45694447   74.71410370    0.09000000    0.07000000
   15.46027756   75.94490051    0.09000000    0.07000000
   15.46361065   88.53250122    0.09000000    0.07000000
   15.46833324   88.53250122    0.09000000    0.07000000
   15.47222137   70.59559631    0.09000000    0.07000000
   15.47388840   73.57319641    0.09000000    0.07000000
   15.47583294   73.17700195    0.09000000    0.07000000
   15.47916603   84.11849976    0.09000000    0.07000000
   15.48222160   78.84919739    0.09000000    0.07000000
   15.48555565   70.06269836    0.09000000    0.07000000
   15.48888874   77.06179810    0.09000000    0.07000000
   15.49194431   76.35790253    0.09000000    0.07000000
   15.49527836   85.54329681    0.09000000    0.07000000
   15.49861145   83.12010193    0.09000000    0.07000000
   15.50166702   70.58799744    0.09000000    0.07000000
   15.50500011   79.16649628    0.09000000    0.07000000
   15.50805569   72.60890198    0.09000000    0.07000000
   15.51138878   78.32430267    0.09000000    0.07000000
   15.51472187   80.60050201    0.09000000    0.07000000
   15.51944447   80.60050201    0.09000000    0.07000000
   15.52361107   78.60199738    0.09000000    0.07000000
   15.52416611   76.76950073    0.09000000    0.07000000
   15.52694416   71.01010132    0.09000000    0.07000000
   15.53027725   77.78019714    0.09000000    0.07000000
   15.53361130   72.55120087    0.09000000    0.07000000
   15.53666687   77.35320282    0.09000000    0.07000000
   15.54000092   80.28309631    0.09000000    0.07000000
   15.54305553   79.64209747    0.09000000    0.07000000
   15.54638958   73.62270355    0.09000000    0.07000000
   15.54972267   72.39550018    0.09000000    0.07000000
   15.55277824   80.22499847    0.09000000    0.07000000
   15.55611134   78.26609802    0.09000000    0.07000000
   15.55944443   82.80770111    0.09000000    0.07000000
   15.56250000   87.41940308    0.09000000    0.07000000
   15.56583309   92.72560120    0.09000000    0.07000000
   15.57055569   92.72560120    0.09000000    0.07000000
   15.57472229   90.01020050    0.09000000    0.07000000
   15.57805538   91.34839630    0.09000000    0.07000000
   15.58111095   92.74109650    0.09000000    0.07000000
   15.58444405   89.82929993    0.09000000    0.07000000
   15.58777714   83.03549957    0.09000000    0.07000000
   15.59083271   87.54260254    0.09000000    0.07000000
   15.59416676   91.83779907    0.09000000    0.07000000
   15.59722233   82.84400177    0.09000000    0.07000000
   15.60055637   93.81250000    0.09000000    0.07000000
   15.60388947   86.83010101    0.09000000    0.07000000
   15.60694504   87.07199860    0.09000000    0.07000000
   15.61027813   92.18160248    0.09000000    0.07000000
   15.61361122   89.39440155    0.09000000    0.07000000
   15.61666679   88.72830200    0.09000000    0.07000000
   15.62166691   88.72830200    0.09000000    0.07000000
   15.62583351   88.70549774    0.09000000    0.07000000
   15.62916660   85.72029877    0.09000000    0.07000000
   15.63222218   78.15850067    0.09000000    0.07000000
   15.63555527   90.82250214    0.09000000    0.07000000
   15.63888836   96.13320160    0.09000000    0.07000000
   15.64194393   88.61319733    0.09000000    0.07000000
   15.64527798   91.39980316    0.09000000    0.07000000
   15.64861107   84.19319916    0.09000000    0.07000000
   15.65166664   88.39540100    0.09000000    0.07000000
   15.65499973   85.08699799    0.09000000    0.07000000
   15.65805531   90.51550293    0.09000000    0.07000000
   15.66138840   73.99379730    0.09000000    0.07000000
   15.66472149   82.62490082    0.09000000    0.07000000
   15.66777802   86.43810272    0.09000000    0.07000000
   15.67305565   86.43810272    0.09000000    0.07000000
   15.67722225   80.99739838    0.09000000    0.07000000
   15.68027782   87.70510101    0.09000000    0.07000000
   15.68361092   91.37129974    0.09000000    0.07000000
   15.68666649   83.83489990    0.09000000    0.07000000
   15.69000053   85.27940369    0.09000000    0.07000000
   15.69333363   89.71199799    0.09000000    0.07000000
   15.69638920   84.50279999    0.09000000    0.07000000
   15.69972229   77.17669678    0.09000000    0.07000000
   15.70305538   76.93019867    0.09000000    0.07000000
   15.70611095   81.07150269    0.09000000    0.07000000
   15.70944405   85.24330139    0.09000000    0.07000000
   15.71249962   87.50050354    0.09000000    0.07000000
   15.71583271   90.99749756    0.09000000    0.07000000
   15.71916580   80.54900360    0.09000000    0.07000000
   15.72416592   80.54900360    0.09000000    0.07000000
   15.72833252   81.31069946    0.09000000    0.07000000
   15.73166656   79.46219635    0.09000000    0.07000000
   15.73472214   77.21209717    0.09000000    0.07000000
   15.73805618   85.43280029    0.09000000    0.07000000
   15.74111176   76.60520172    0.09000000    0.07000000
   15.74444485   81.85179901    0.09000000    0.07000000
   15.74777794   78.42880249    0.09000000    0.07000000
   15.75083351   84.24849701    0.09000000    0.07000000
   15.75416660   75.24240112    0.09000000    0.07000000
   15.75749969   82.43049622    0.09000000    0.07000000
   15.76055527   78.40720367    0.09000000    0.07000000
   15.76388931   69.13780212    0.09000000    0.07000000
   15.76694393   75.33350372    0.09000000    0.07000000
   15.77027798   87.04920197    0.09000000    0.07000000
   15.77527714   87.04920197    0.09000000    0.07000000
   15.77944374   77.33979797    0.09000000    0.07000000
   15.78277779   79.34970093    0.09000000    0.07000000
   15.78583336   80.48580170    0.09000000    0.07000000
   15.78916740   79.05789948    0.09000000    0.07000000
   15.79222298   79.07659912    0.09000000    0.07000000
   15.79555607   83.68910217    0.09000000    0.07000000
   15.79888916   73.47039795    0.09000000    0.07000000
   15.80194473   71.00810242    0.09000000    0.07000000
   15.80527782   81.58799744    0.09000000    0.07000000
   15.80861092   75.52670288    0.09000000    0.07000000
   15.81166649   77.71530151    0.09000000    0.07000000
   15.81500053   74.24870300    0.09000000    0.07000000
   15.81833363   82.59429932    0.09000000    0.07000000
   15.82138920   76.38400269    0.09000000    0.07000000
   15.82638836   76.38400269    0.09000000    0.07000000
   15.83055592   80.51110077    0.09000000    0.07000000
   15.83388901   82.51640320    0.09000000    0.07000000
   15.83694458   78.44509888    0.09000000    0.07000000
   15.84027767   79.54540253    0.09000000    0.07000000
   15.84361076   80.35230255    0.09000000    0.07000000
   15.84666634   83.18849945    0.09000000    0.07000000
   15.85000038   79.73069763    0.09000000    0.07000000
   15.85333347   89.96060181    0.09000000    0.07000000
   15.85638905   75.33779907    0.09000000    0.07000000
   15.85972214   92.84110260    0.09000000    0.07000000
   15.86277771   81.94550323    0.09000000    0.07000000
   15.86611176   82.75540161    0.09000000    0.07000000
   15.86944485   77.78340149    0.09000000    0.07000000
   15.87250042   85.29699707    0.09000000    0.07000000
   15.87777805   85.29699707    0.09000000    0.07000000
   15.88166714   85.50299835    0.09000000    0.07000000
   15.88500023   78.51570129    0.09000000    0.07000000
   15.88833332   84.29350281    0.09000000    0.07000000
   15.89138889   81.98459625    0.09000000    0.07000000
   15.89472198   79.79290009    0.09000000    0.07000000
   15.89805508   70.58889771    0.09000000    0.07000000
   15.90111065   77.24700165    0.09000000    0.07000000
   15.90444374   82.56970215    0.09000000    0.07000000
   15.90777779   81.25000000    0.09000000    0.07000000
   15.91083336   84.47290039    0.09000000    0.07000000
   15.91416645   82.11239624    0.09000000    0.07000000
   15.91722298   86.11879730    0.09000000    0.07000000
   15.92055607   87.02200317    0.09000000    0.07000000
   15.92388916   83.41819763    0.09000000    0.07000000
   15.92888927   83.41819763    0.09000000    0.07000000
   15.93305588   82.11820221    0.09000000    0.07000000
   15.93611145   85.15950012    0.09000000    0.07000000
   15.93944454   78.93180084    0.09000000    0.07000000
   15.94277763   79.62979889    0.09000000    0.07000000
   15.94583321   88.43329620    0.09000000    0.07000000
   15.94916630   76.75080109    0.09000000    0.07000000
   15.95222187   77.81210327    0.09000000    0.07000000
   15.95555496   81.40550232    0.09000000    0.07000000
   15.95888901   73.19519806    0.09000000    0.07000000
   15.96194458   79.92829895    0.09000000    0.07000000
   15.96527767   83.87039948    0.09000000    0.07000000
   15.96861076   75.23750305    0.09000000    0.07000000
   15.97166634   80.80709839    0.09000000    0.07000000
   15.97499943   76.56950378    0.09000000    0.07000000
   15.97999954   76.56950378    0.09000000    0.07000000
   15.98416710   77.44560242    0.09000000    0.07000000
   15.98750019   80.86209869    0.09000000    0.07000000
   15.99055576   80.18270111    0.09000000    0.07000000
   15.99388885   83.60420227    0.09000000    0.07000000
   15.99694443   76.97920227    0.09000000    0.07000000
   16.00027847   80.62010193    0.09000000    0.07000000
   16.00361061   74.04389954    0.09000000    0.07000000
   16.00666618   74.71849823    0.09000000    0.07000000
   16.01000023   76.52980042    0.09000000    0.07000000
   16.01333427   77.90019989    0.09000000    0.07000000
   16.01638794   76.92199707    0.09000000    0.07000000
   16.01972198   87.35870361    0.09000000    0.07000000
   16.02277756   77.88030243    0.09000000    0.07000000
   16.04388809   77.88030243    0.09000000    0.07000000
   16.04805565   82.34970093    0.09000000    0.07000000
   16.05138779   72.21389771    0.09000000    0.07000000
   16.05472183   77.35659790    0.09000000    0.07000000
   16.05777740   78.05629730    0.09000000    0.07000000
   16.06110954   79.90760040    0.09000000    0.07000000
   16.06444359   83.12159729    0.09000000    0.07000000
   16.06750107   73.89289856    0.09000000    0.07000000
   16.07083511   76.31690216    0.09000000    0.07000000
   16.07389069   84.41190338    0.09000000    0.07000000
   16.07722282   79.86540222    0.09000000    0.07000000
   16.08055687   73.82369995    0.09000000    0.07000000
   16.08361244   71.61260223    0.09000000    0.07000000
   16.08694458   82.53130341    0.09000000    0.07000000
   16.09027863   77.23459625    0.09000000    0.07000000
   16.09138870   71.08249664    0.09000000    0.07000000
   16.09555626   71.08249664    0.09000000    0.07000000
   16.09972191   72.65270233    0.09000000    0.07000000
   16.10305595   75.66609955    0.09000000    0.07000000
   16.10611153   78.56749725    0.09000000    0.07000000
   16.10944557   89.14250183    0.09000000    0.07000000
   16.11277771   81.24369812    0.09000000    0.07000000
   16.11583328   79.89189911    0.09000000    0.07000000
   16.11916733   80.51950073    0.09000000    0.07000000
   16.12249947   81.65200043    0.09000000    0.07000000
   16.12555504   80.77220154    0.09000000    0.07000000
   16.12888908   76.92880249    0.09000000    0.07000000
   16.13194466   80.64630127    0.09000000    0.07000000
   16.13527679   80.28040314    0.09000000    0.07000000
   16.13861084   76.85160065    0.09000000    0.07000000
   16.14138794   70.77279663    0.09000000    0.07000000
   16.14222145   73.61360168    0.09000000    0.07000000
   16.14694405   73.61360168    0.09000000    0.07000000
   16.15083313   80.07810211    0.09000000    0.07000000
   16.15416718   82.01149750    0.09000000    0.07000000
   16.15749931   86.30999756    0.09000000    0.07000000
   16.16055489   81.52020264    0.09000000    0.07000000
   16.16388893   82.82019806    0.09000000    0.07000000
   16.16722107   82.46250153    0.09000000    0.07000000
   16.17027664   80.83750153    0.09000000    0.07000000
   16.17361069   87.49929810    0.09000000    0.07000000
   16.17666626   85.58270264    0.09000000    0.07000000
   16.18000031   76.84709930    0.09000000    0.07000000
   16.18333244   77.19589996    0.09000000    0.07000000
   16.18638802   81.49960327    0.09000000    0.07000000
   16.18972206   79.83830261    0.09000000    0.07000000
   16.19138718   75.04270172    0.09000000    0.07000000
   16.19333267   83.85130310    0.09000000    0.07000000
   16.19805527   83.85130310    0.09000000    0.07000000
   16.20222282   83.58979797    0.09000000    0.07000000
   16.20527840   80.32610321    0.09000000    0.07000000
   16.20861244   78.03929901    0.09000000    0.07000000
   16.21194458   78.95069885    0.09000000    0.07000000
   16.21500015   81.14469910    0.09000000    0.07000000
   16.21833420   80.09339905    0.09000000    0.07000000
   16.22138977   75.44349670    0.09000000    0.07000000
   16.22472191   76.84210205    0.09000000    0.07000000
   16.22805595   84.35970306    0.09000000    0.07000000
   16.23111153   75.40380096    0.09000000    0.07000000
   16.23444557   77.56860352    0.09000000    0.07000000
   16.23777771   81.40419769    0.09000000    0.07000000
   16.24083328   76.22180176    0.09000000    0.07000000
   16.24138832   79.05999756    0.09000000    0.07000000
   16.24444389   83.55269623    0.09000000    0.07000000
   16.24916649   83.55269623    0.09000000    0.07000000
   16.25333405   77.49510193    0.09000000    0.07000000
   16.25666618   87.80950165    0.09000000    0.07000000
   16.25972176   76.39099884    0.09000000    0.07000000
   16.26305580   80.59339905    0.09000000    0.07000000
   16.26611137   85.54429626    0.09000000    0.07000000
   16.26944351   82.52549744    0.09000000    0.07000000
   16.27277756   78.93969727    0.09000000    0.07000000
   16.27583313   81.97399902    0.09000000    0.07000000
   16.27916718   82.73560333    0.09000000    0.07000000
   16.28249931   78.21050262    0.09000000    0.07000000
   16.28555489   76.84130096    0.09000000    0.07000000
   16.28888893   81.98629761    0.09000000    0.07000000
   16.29166603   81.37879944    0.09000000    0.07000000
   16.29249954   83.61810303    0.09000000    0.07000000
   16.29583359   79.66580200    0.09000000    0.07000000
   16.30027771   79.66580200    0.09000000    0.07000000
   16.30444336   86.74050140    0.09000000    0.07000000
   16.30777740   78.26599884    0.09000000    0.07000000
   16.31083298   84.03160095    0.09000000    0.07000000
   16.31416512   80.85700226    0.09000000    0.07000000
   16.31750107   76.17369843    0.09000000    0.07000000
   16.32055664   79.88339996    0.09000000    0.07000000
   16.32389069   83.33010101    0.09000000    0.07000000
   16.32722282   82.03549957    0.09000000    0.07000000
   16.33027840   79.06189728    0.09000000    0.07000000
   16.33361244   82.64299774    0.09000000    0.07000000
   16.33694458   81.18820190    0.09000000    0.07000000
   16.34000015   83.90830231    0.09000000    0.07000000
   16.34166718   81.48560333    0.09000000    0.07000000
   16.34361267   82.79689789    0.09000000    0.07000000
   16.34694481   81.52870178    0.09000000    0.07000000
   16.35166740   81.52870178    0.09000000    0.07000000
   16.35555649   78.02330017    0.09000000    0.07000000
   16.35888863   86.05680084    0.09000000    0.07000000
   16.36222267   87.31549835    0.09000000    0.07000000
   16.36527824   77.86450195    0.09000000    0.07000000
   16.36861038   79.96869659    0.09000000    0.07000000
   16.37194443   79.02189636    0.09000000    0.07000000
   16.37500000   77.23120117    0.09000000    0.07000000
   16.37833405   88.59539795    0.09000000    0.07000000
   16.38138962   80.88899994    0.09000000    0.07000000
   16.38472176   79.30359650    0.09000000    0.07000000
   16.38805580   82.00910187    0.09000000    0.07000000
   16.39111137   80.37550354    0.09000000    0.07000000
   16.39166641   76.29900360    0.09000000    0.07000000
   16.39500046   83.21019745    0.09000000    0.07000000
   16.39833260   87.35959625    0.09000000    0.07000000
   16.40277672   87.35959625    0.09000000    0.07000000
   16.40694427   83.04879761    0.09000000    0.07000000
   16.40999985   80.12180328    0.09000000    0.07000000
   16.41333389   84.76149750    0.09000000    0.07000000
   16.41666603   89.38200378    0.09000000    0.07000000
   16.41972160   82.87129974    0.09000000    0.07000000
   16.42305565   86.32399750    0.09000000    0.07000000
   16.42611122   83.92610168    0.09000000    0.07000000
   16.42944336   83.05870056    0.09000000    0.07000000
   16.43277740   87.41500092    0.09000000    0.07000000
   16.43583298   86.65769958    0.09000000    0.07000000
   16.43916512   81.99079895    0.09000000    0.07000000
   16.44166565   78.35240173    0.09000000    0.07000000
   16.44277763   86.07369995    0.09000000    0.07000000
   16.44610977   79.94650269    0.09000000    0.07000000
   16.44916534   81.14260101    0.09000000    0.07000000
   16.45388985   81.14260101    0.09000000    0.07000000
   16.45805550   84.19419861    0.09000000    0.07000000
   16.46138954   81.40290070    0.09000000    0.07000000
   16.46444511   86.93000031    0.09000000    0.07000000
   16.46777916   82.42970276    0.09000000    0.07000000
   16.47083473   81.21009827    0.09000000    0.07000000
   16.47416687   79.33719635    0.09000000    0.07000000
   16.47750092   83.71410370    0.09000000    0.07000000
   16.48055649   78.00610352    0.09000000    0.07000000
   16.48388863   80.19519806    0.09000000    0.07000000
   16.48722267   85.32029724    0.09000000    0.07000000
   16.49027824   80.34919739    0.09000000    0.07000000
   16.49166679   78.07250214    0.09000000    0.07000000
   16.49388885   80.24780273    0.09000000    0.07000000
   16.49722290   80.69499969    0.09000000    0.07000000
   16.50027847   79.41429901    0.09000000    0.07000000
   16.50499916   79.41429901    0.09000000    0.07000000
   16.50916672   77.84329987    0.09000000    0.07000000
   16.51250076   82.70300293    0.09000000    0.07000000
   16.51555634   80.71749878    0.09000000    0.07000000
   16.51888847   76.74890137    0.09000000    0.07000000
   16.52222252   81.48100281    0.09000000    0.07000000
   16.52527809   82.55470276    0.09000000    0.07000000
   16.52861023   79.79489899    0.09000000    0.07000000
   16.53194427   80.83650208    0.09000000    0.07000000
   16.53499985   77.34400177    0.09000000    0.07000000
   16.53833199   72.53730011    0.09000000    0.07000000
   16.54138756   80.98090363    0.09000000    0.07000000
   16.54194450   84.24199677    0.09000000    0.07000000
   16.54527664   78.32199860    0.09000000    0.07000000
   16.54861069   80.36969757    0.09000000    0.07000000
   16.55166626   78.89029694    0.09000000    0.07000000
   16.55611038   78.89029694    0.09000000    0.07000000
   16.56027794   79.06700134    0.09000000    0.07000000
   16.56361008   84.54029846    0.09000000    0.07000000
   16.56694603   80.37129974    0.09000000    0.07000000
   16.57000160   77.02580261    0.09000000    0.07000000
   16.57333374   78.18049622    0.09000000    0.07000000
   16.57666779   79.93109894    0.09000000    0.07000000
   16.57972336   85.01439667    0.09000000    0.07000000
   16.58305550   77.91059875    0.09000000    0.07000000
   16.58611107   74.61849976    0.09000000    0.07000000
   16.58944511   79.66329956    0.09000000    0.07000000
   16.59194565   73.33830261    0.09000000    0.07000000
   16.59305573   76.04550171    0.09000000    0.07000000
   16.59638977   73.33820343    0.09000000    0.07000000
   16.59944534   79.63970184    0.09000000    0.07000000
   16.60277748   72.81749725    0.09000000    0.07000000
   16.60750008   72.81749725    0.09000000    0.07000000
   16.61166763   74.29519653    0.09000000    0.07000000
   16.61472321   77.43280029    0.09000000    0.07000000
   16.61805534   76.50589752    0.09000000    0.07000000
   16.62138939   79.40809631    0.09000000    0.07000000
   16.62444496   80.07679749    0.09000000    0.07000000
   16.62777710   73.12740326    0.09000000    0.07000000
   16.63083267   74.16770172    0.09000000    0.07000000
   16.63416672   75.18509674    0.09000000    0.07000000
   16.63750076   76.23020172    0.09000000    0.07000000
   16.64055634   79.49060059    0.09000000    0.07000000
   16.64194489   75.35189819    0.09000000    0.07000000
   16.64416695   75.70520020    0.09000000    0.07000000
   16.64749908   81.00050354    0.09000000    0.07000000
   16.65055466   72.20970154    0.09000000    0.07000000
   16.65388870   78.27610016    0.09000000    0.07000000
   16.65861130   78.27610016    0.09000000    0.07000000
   16.66277695   71.76779938    0.09000000    0.07000000
   16.66611099   73.54570007    0.09000000    0.07000000
   16.66916656   74.68689728    0.09000000    0.07000000
   16.67249870   73.92990112    0.09000000    0.07000000
   16.67555428   72.52629852    0.09000000    0.07000000
   16.67888832   72.20040131    0.09000000    0.07000000
   16.68222237   73.92160034    0.09000000    0.07000000
   16.68527603   73.31050110    0.09000000    0.07000000
   16.68861008   76.63849640    0.09000000    0.07000000
   16.69194412   81.70929718    0.09000000    0.07000000
   16.69222069   75.10410309    0.09000000    0.07000000
   16.69555473   72.60030365    0.09000000    0.07000000
   16.69888878   78.43830109    0.09000000    0.07000000
   16.70194435   76.15119934    0.09000000    0.07000000
   16.70527840   74.35299683    0.09000000    0.07000000
   16.70972252   74.35299683    0.09000000    0.07000000
   16.71389008   73.05660248    0.09000000    0.07000000
   16.71722221   72.13269806    0.09000000    0.07000000
   16.72027779   79.97160339    0.09000000    0.07000000
   16.72361183   76.86219788    0.09000000    0.07000000
   16.72694588   79.64170074    0.09000000    0.07000000
   16.73000145   75.57710266    0.09000000    0.07000000
   16.73333359   74.96649933    0.09000000    0.07000000
   16.73666763   74.40350342    0.09000000    0.07000000
   16.73972321   79.45639801    0.09000000    0.07000000
   16.74250031   78.71320343    0.09000000    0.07000000
   16.74333382   81.11589813    0.09000000    0.07000000
   16.74666786   82.77999878    0.09000000    0.07000000
   16.75000000   78.65679932    0.09000000    0.07000000
   16.75305557   79.10320282    0.09000000    0.07000000
   16.75638962   79.30319977    0.09000000    0.07000000
   16.76083374   79.30319977    0.09000000    0.07000000
   16.76499939   81.72820282    0.09000000    0.07000000
   16.76833344   73.51779938    0.09000000    0.07000000
   16.77166557   82.57080078    0.09000000    0.07000000
   16.77472115   82.51999664    0.09000000    0.07000000
   16.77805519   80.02459717    0.09000000    0.07000000
   16.78138924   77.85639954    0.09000000    0.07000000
   16.78444481   71.86000061    0.09000000    0.07000000
   16.78777695   75.89399719    0.09000000    0.07000000
   16.79083252   82.15679932    0.09000000    0.07000000
   16.79249954   73.98149872    0.09000000    0.07000000
   16.79444313   79.84549713    0.09000000    0.07000000
   16.79777718   79.17340088    0.09000000    0.07000000
   16.80111122   81.15019989    0.09000000    0.07000000
   16.80416679   82.97460175    0.09000000    0.07000000
   16.80749893   75.69100189    0.09000000    0.07000000
   16.81222153   75.69100189    0.09000000    0.07000000
   16.81638718   73.25279999    0.09000000    0.07000000
   16.81944466   80.81269836    0.09000000    0.07000000
   16.82277870   72.10130310    0.09000000    0.07000000
   16.82611275   80.03669739    0.09000000    0.07000000
   16.82916832   76.71070099    0.09000000    0.07000000
   16.83250046   76.66159821    0.09000000    0.07000000
   16.83555603   78.86979675    0.09000000    0.07000000
   16.83889008   77.56150055    0.09000000    0.07000000
   16.84222221   81.22789764    0.09000000    0.07000000
   16.84277916   78.28880310    0.09000000    0.07000000
   16.84583473   77.95790100    0.09000000    0.07000000
   16.84916687   77.37359619    0.09000000    0.07000000
   16.85250092   77.31310272    0.09000000    0.07000000
   16.85555649   81.01290131    0.09000000    0.07000000
   16.85888863   80.49259949    0.09000000    0.07000000
   16.86333466   80.49259949    0.09000000    0.07000000
   16.86750031   84.47299957    0.09000000    0.07000000
   16.87055588   79.12519836    0.09000000    0.07000000
   16.87388992   76.85060120    0.09000000    0.07000000
   16.87722206   77.48709869    0.09000000    0.07000000
   16.88027763   79.17089844    0.09000000    0.07000000
   16.88361168   81.15769958    0.09000000    0.07000000
   16.88694382   81.15609741    0.09000000    0.07000000
   16.88999939   82.23300171    0.09000000    0.07000000
   16.89277840   86.06870270    0.09000000    0.07000000
   16.89361191   78.25240326    0.09000000    0.07000000
   16.89694405   83.77140045    0.09000000    0.07000000
   16.90027809   77.52500153    0.09000000    0.07000000
   16.90333366   79.31950378    0.09000000    0.07000000
   16.90666580   76.82740021    0.09000000    0.07000000
   16.90999985   73.62629700    0.09000000    0.07000000
   16.91444397   73.62629700    0.09000000    0.07000000
   16.91860962   76.38780212    0.09000000    0.07000000
   16.92194366   78.19180298    0.09000000    0.07000000
   16.92499924   79.45649719    0.09000000    0.07000000
   16.92833328   74.85269928    0.09000000    0.07000000
   16.93166542   78.59529877    0.09000000    0.07000000
   16.93472099   83.31580353    0.09000000    0.07000000
   16.93805504   87.48470306    0.09000000    0.07000000
   16.94111061   80.78890228    0.09000000    0.07000000
   16.94277763   86.54329681    0.09000000    0.07000000
   16.94472122   78.32620239    0.09000000    0.07000000
   16.94805527   81.73799896    0.09000000    0.07000000
   16.95138931   81.26159668    0.09000000    0.07000000
   16.95444489   85.62920380    0.09000000    0.07000000
   16.95777893   79.71420288    0.09000000    0.07000000
   16.96111107   82.40100098    0.09000000    0.07000000
   16.96555710   82.40100098    0.09000000    0.07000000
   16.96972275   78.67910004    0.09000000    0.07000000
   16.97305679   83.49780273    0.09000000    0.07000000
   16.97638893   81.54799652    0.09000000    0.07000000
   16.97944450   76.53829956    0.09000000    0.07000000
   16.98277855   84.88510132    0.09000000    0.07000000
   16.98583412   83.07689667    0.09000000    0.07000000
   16.98916626   79.85990143    0.09000000    0.07000000
   16.99250031   78.42510223    0.09000000    0.07000000
   16.99305534   78.00219727    0.09000000    0.07000000
   16.99611092   81.10569763    0.09000000    0.07000000
   16.99944496   82.58249664    0.09000000    0.07000000
   17.00277710   83.80989838    0.09000000    0.07000000
   17.00583267   82.84649658    0.09000000    0.07000000
   17.00916672   79.48320007    0.09000000    0.07000000
   17.01250076   81.52359772    0.09000000    0.07000000
   17.01694489   81.52359772    0.09000000    0.07000000
   17.02111053   75.80930328    0.09000000    0.07000000
   17.02416611   82.37550354    0.09000000    0.07000000
   17.02750015   84.46289825    0.09000000    0.07000000
   17.03055573   86.85700226    0.09000000    0.07000000
   17.03388786   81.98059845    0.09000000    0.07000000
   17.03722191   78.43119812    0.09000000    0.07000000
   17.04027748   78.62570190    0.09000000    0.07000000
   17.05749893   73.22059631    0.09000000    0.07000000
   17.05999947   79.16500092    0.09000000    0.07000000
   17.06333351   84.01529694    0.09000000    0.07000000
   17.06833458   84.01529694    0.09000000    0.07000000
   17.07250023   81.97570038    0.09000000    0.07000000
   17.07555580   78.86009979    0.09000000    0.07000000
   17.07888985   76.78170013    0.09000000    0.07000000
   17.08194542   82.87349701    0.09000000    0.07000000
   17.08527756   76.74040222    0.09000000    0.07000000
   17.08861160   71.96849823    0.09000000    0.07000000
   17.09166718   81.87509918    0.09000000    0.07000000
   17.09500122   83.58989716    0.09000000    0.07000000
   17.09833336   79.15139771    0.09000000    0.07000000
   17.10138893   75.07060242    0.09000000    0.07000000
   17.10472298   78.24530029    0.09000000    0.07000000
   17.10722351   87.28019714    0.09000000    0.07000000
   17.10833359   76.62210083    0.09000000    0.07000000
   17.11166763   80.58910370    0.09000000    0.07000000
   17.11472321   80.73049927    0.09000000    0.07000000
   17.11944389   80.73049927    0.09000000    0.07000000
   17.12361145   83.44149780    0.09000000    0.07000000
   17.12666702   81.11229706    0.09000000    0.07000000
   17.13000107   82.08830261    0.09000000    0.07000000
   17.13333321   80.93869781    0.09000000    0.07000000
   17.13638878   75.32289886    0.09000000    0.07000000
   17.13972282   80.94470215    0.09000000    0.07000000
   17.14305496   77.13150024    0.09000000    0.07000000
   17.14611053   81.11599731    0.09000000    0.07000000
   17.14944458   76.82839966    0.09000000    0.07000000
   17.15250015   80.63760376    0.09000000    0.07000000
   17.15583229   72.33950043    0.09000000    0.07000000
   17.15722275   76.24729919    0.09000000    0.07000000
   17.15944481   80.34089661    0.09000000    0.07000000
   17.16277695   76.16979980    0.09000000    0.07000000
   17.16583252   80.81109619    0.09000000    0.07000000
   17.17055511   80.81109619    0.09000000    0.07000000
   17.17472076   78.07769775    0.09000000    0.07000000
   17.17805481   84.50669861    0.09000000    0.07000000
   17.18111038   87.85179901    0.09000000    0.07000000
   17.18444443   86.86810303    0.09000000    0.07000000
   17.18777657   82.21739960    0.09000000    0.07000000
   17.19083214   86.68350220    0.09000000    0.07000000
   17.19416618   70.37059784    0.09000000    0.07000000
   17.19722176   85.31900024    0.09000000    0.07000000
   17.20055580   79.72720337    0.09000000    0.07000000
   17.20388985   78.11519623    0.09000000    0.07000000
   17.20694542   77.56050110    0.09000000    0.07000000
   17.20750046   81.37190247    0.09000000    0.07000000
   17.21083450   78.60859680    0.09000000    0.07000000
   17.21416664   82.13860321    0.09000000    0.07000000
   17.21722221   82.00530243    0.09000000    0.07000000
   17.22166634   82.00530243    0.09000000    0.07000000
   17.22583389   75.47570038    0.09000000    0.07000000
   17.22916794   73.98300171    0.09000000    0.07000000
   17.23250008   77.50150299    0.09000000    0.07000000
   17.23555565   81.71829987    0.09000000    0.07000000
   17.23888969   76.60820007    0.09000000    0.07000000
   17.24194527   77.55180359    0.09000000    0.07000000
   17.24527740   74.18000031    0.09000000    0.07000000
   17.24861145   73.26419830    0.09000000    0.07000000
   17.25166702   75.13500214    0.09000000    0.07000000
   17.25499916   75.52210236    0.09000000    0.07000000
   17.25749969   77.31490326    0.09000000    0.07000000
   17.25861168   74.47190094    0.09000000    0.07000000
   17.26194382   77.55079651    0.09000000    0.07000000
   17.26499939   75.53109741    0.09000000    0.07000000
   17.26833344   73.66220093    0.09000000    0.07000000
   17.27305603   73.66220093    0.09000000    0.07000000
   17.27694511   75.19470215    0.09000000    0.07000000
   17.28027725   73.98629761    0.09000000    0.07000000
   17.28361130   74.52169800    0.09000000    0.07000000
   17.28666687   73.69139862    0.09000000    0.07000000
   17.28999901   72.75279999    0.09000000    0.07000000
   17.29333305   72.68550110    0.09000000    0.07000000
   17.29638863   72.84310150    0.09000000    0.07000000
   17.29972076   76.03099823    0.09000000    0.07000000
   17.30305481   78.12909698    0.09000000    0.07000000
   17.30611038   79.64559937    0.09000000    0.07000000
   17.30749893   73.54550171    0.09000000    0.07000000
   17.30972099   79.73809814    0.09000000    0.07000000
   17.31305504   74.74870300    0.09000000    0.07000000
   17.31611061   70.41549683    0.09000000    0.07000000
   17.31944466   78.77130127    0.09000000    0.07000000
   17.32416725   78.77130127    0.09000000    0.07000000
   17.32833481   73.98139954    0.09000000    0.07000000
   17.33139038   81.23899841    0.09000000    0.07000000
   17.33472252   80.81109619    0.09000000    0.07000000
   17.33805656   74.79730225    0.09000000    0.07000000
   17.34111214   75.80850220    0.09000000    0.07000000
   17.34444427   86.61940002    0.09000000    0.07000000
   17.34777832   81.19210052    0.09000000    0.07000000
   17.35083389   77.95480347    0.09000000    0.07000000
   17.35416794   73.60739899    0.09000000    0.07000000
   17.35750008   73.51180267    0.09000000    0.07000000
   17.35777855   78.41950226    0.09000000    0.07000000
   17.36111069   72.28260040    0.09000000    0.07000000
   17.36444473   71.68190002    0.09000000    0.07000000
   17.36750031   73.28029633    0.09000000    0.07000000
   17.37083435   75.59880066    0.09000000    0.07000000
   17.37527847   75.59880066    0.09000000    0.07000000
   17.37944412   74.10949707    0.09000000    0.07000000
   17.38277817   77.71340179    0.09000000    0.07000000
   17.38583374   71.02799988    0.09000000    0.07000000
   17.38916588   75.98300171    0.09000000    0.07000000
   17.39249992   74.02649689    0.09000000    0.07000000
   17.39555550   71.67410278    0.09000000    0.07000000
   17.39888954   76.68800354    0.09000000    0.07000000
   17.40194321   72.58129883    0.09000000    0.07000000
   17.40527725   73.68090057    0.09000000    0.07000000
   17.40805435   74.99810028    0.09000000    0.07000000
   17.40888786   72.61109924    0.09000000    0.07000000
   17.41222191   72.90869904    0.09000000    0.07000000
   17.41527748   71.91110229    0.09000000    0.07000000
   17.41860962   74.20690155    0.09000000    0.07000000
   17.42194366   71.92259979    0.09000000    0.07000000
   17.42638779   71.92259979    0.09000000    0.07000000
   17.43055534   71.65100098    0.09000000    0.07000000
   17.43388748   70.08609772    0.09000000    0.07000000
   17.43694305   70.94609833    0.09000000    0.07000000
   17.44027710   71.26730347    0.09000000    0.07000000
   17.44361115   73.11869812    0.09000000    0.07000000
   17.44666672   72.16159821    0.09000000    0.07000000
   17.45000076   79.11160278    0.09000000    0.07000000
   17.45333481   72.98780060    0.09000000    0.07000000
   17.45639038   72.49169922    0.09000000    0.07000000
   17.45805550   75.09390259    0.09000000    0.07000000
   17.46000099   72.49500275    0.09000000    0.07000000
   17.46333504   70.99890137    0.09000000    0.07000000
   17.46638870   76.68890381    0.09000000    0.07000000
   17.46972275   72.46179962    0.09000000    0.07000000
   17.47305679   73.74600220    0.09000000    0.07000000
   17.47777748   73.74600220    0.09000000    0.07000000
   17.48166656   73.17919922    0.09000000    0.07000000
   17.48500061   71.79170227    0.09000000    0.07000000
   17.48833275   75.71640015    0.09000000    0.07000000
   17.49138832   75.40969849    0.09000000    0.07000000
   17.49472237   73.08260345    0.09000000    0.07000000
   17.49805641   74.03600311    0.09000000    0.07000000
   17.50111198   78.22779846    0.09000000    0.07000000
   17.50444412   81.79239655    0.09000000    0.07000000
   17.50749969   79.79489899    0.09000000    0.07000000
   17.50805473   79.40100098    0.09000000    0.07000000
   17.51138878   77.06900024    0.09000000    0.07000000
   17.51472282   73.44539642    0.09000000    0.07000000
   17.51777840   78.82599640    0.09000000    0.07000000
   17.52111053   75.28029633    0.09000000    0.07000000
   17.52444458   78.93920135    0.09000000    0.07000000
   17.52888870   78.93920135    0.09000000    0.07000000
   17.53305435   71.66049957    0.09000000    0.07000000
   17.53610992   76.60520172    0.09000000    0.07000000
   17.53944397   71.92479706    0.09000000    0.07000000
   17.54277802   70.25710297    0.09000000    0.07000000
   17.54583359   73.32420349    0.09000000    0.07000000
   17.54916573   76.40209961    0.09000000    0.07000000
   17.55249977   72.03379822    0.09000000    0.07000000
   17.55555534   72.26450348    0.09000000    0.07000000
   17.55833244   72.90809631    0.09000000    0.07000000
   17.55916595   70.57990265    0.09000000    0.07000000
   17.56250000   70.14550018    0.09000000    0.07000000
   17.56555557   72.42800140    0.09000000    0.07000000
   17.56888962   78.84739685    0.09000000    0.07000000
   17.57222366   72.22149658    0.09000000    0.07000000
   17.57527924   73.74400330    0.09000000    0.07000000
   17.58000183   73.74400330    0.09000000    0.07000000
   17.58416748   72.18199921    0.09000000    0.07000000
   17.58750153   80.57869720    0.09000000    0.07000000
   17.59055710   72.01069641    0.09000000    0.07000000
   17.59388924   72.04070282    0.09000000    0.07000000
   17.59694481   69.17169952    0.09000000    0.07000000
   17.60027885   70.18939972    0.09000000    0.07000000
   17.60361099   71.75669861    0.09000000    0.07000000
   17.60666656   73.28489685    0.09000000    0.07000000
   17.60833359   72.18779755    0.09000000    0.07000000
   17.61027908   72.07050323    0.09000000    0.07000000
   17.61361122   71.20030212    0.09000000    0.07000000
   17.61694527   73.37509918    0.09000000    0.07000000
   17.62000084   74.32109833    0.09000000    0.07000000
   17.62333298   79.82160187    0.09000000    0.07000000
   17.62638855   79.92790222    0.09000000    0.07000000
   17.63111115   79.92790222    0.09000000    0.07000000
   17.63527679   75.65380096    0.09000000    0.07000000
   17.63861084   83.92250061    0.09000000    0.07000000
   17.64166641   75.49610138    0.09000000    0.07000000
   17.64500046   76.85649872    0.09000000    0.07000000
   17.64833260   71.98380280    0.09000000    0.07000000
   17.65138817   70.82700348    0.09000000    0.07000000
   17.65472221   73.33149719    0.09000000    0.07000000
   17.65805435   74.16010284    0.09000000    0.07000000
   17.65833282   73.06269836    0.09000000    0.07000000
   17.66166687   75.96530151    0.09000000    0.07000000
   17.66499901   73.05130005    0.09000000    0.07000000
   17.66805458   75.07710266    0.09000000    0.07000000
   17.67138863   72.48539734    0.09000000    0.07000000
   17.67472076   72.21040344    0.09000000    0.07000000
   17.67777634   72.96410370    0.09000000    0.07000000
   17.68249893   72.96410370    0.09000000    0.07000000
   17.68638802   71.87570190    0.09000000    0.07000000
   17.68972206   73.65440369    0.09000000    0.07000000
   17.69305420   71.29969788    0.09000000    0.07000000
   17.69610977   72.66770172    0.09000000    0.07000000
   17.69944382   73.93979645    0.09000000    0.07000000
   17.70250130   73.24189758    0.09000000    0.07000000
   17.70583344   71.89450073    0.09000000    0.07000000
   17.70833397   72.84100342    0.09000000    0.07000000
   17.70944595   76.30870056    0.09000000    0.07000000
   17.71277809   80.20169830    0.09000000    0.07000000
   17.71583366   73.68789673    0.09000000    0.07000000
   17.71916771   72.71730042    0.09000000    0.07000000
   17.72249985   75.49479675    0.09000000    0.07000000
   17.72555542   74.56839752    0.09000000    0.07000000
   17.72888947   73.89720154    0.09000000    0.07000000
   17.73361206   73.89720154    0.09000000    0.07000000
   17.73777771   74.75969696    0.09000000    0.07000000
   17.74083328   72.13289642    0.09000000    0.07000000
   17.74416733   70.88439941    0.09000000    0.07000000
   17.74722290   71.88950348    0.09000000    0.07000000
   17.75055504   73.27590179    0.09000000    0.07000000
   17.75388908   72.05909729    0.09000000    0.07000000
   17.75694466   73.97820282    0.09000000    0.07000000
   17.75833321   70.50090027    0.09000000    0.07000000
   17.76055527   70.46649933    0.09000000    0.07000000
   17.76388931   74.54609680    0.09000000    0.07000000
   17.76694489   71.53749847    0.09000000    0.07000000
   17.77027702   73.37310028    0.09000000    0.07000000
   17.77361107   70.07980347    0.09000000    0.07000000
   17.77666664   74.23950195    0.09000000    0.07000000
   17.78000069   74.33679962    0.09000000    0.07000000
   17.78472137   74.33679962    0.09000000    0.07000000
   17.78888893   74.95760345    0.09000000    0.07000000
   17.79194450   77.81909943    0.09000000    0.07000000
   17.79527664   72.37409973    0.09000000    0.07000000
   17.79861069   75.17929840    0.09000000    0.07000000
   17.80166626   72.56510162    0.09000000    0.07000000
   17.80499840   74.89959717    0.09000000    0.07000000
   17.80833244   77.67050171    0.09000000    0.07000000
   17.80888748   75.66490173    0.09000000    0.07000000
   17.81194305   73.44380188    0.09000000    0.07000000
   17.81527710   76.37550354    0.09000000    0.07000000
   17.81833458   75.85780334    0.09000000    0.07000000
   17.82166672   75.34559631    0.09000000    0.07000000
   17.82500076   77.34339905    0.09000000    0.07000000
   17.82805634   76.65239716    0.09000000    0.07000000
   17.83139038   74.11049652    0.09000000    0.07000000
   17.83583450   74.11049652    0.09000000    0.07000000
   17.84000015   72.87750244    0.09000000    0.07000000
   17.84333420   73.23249817    0.09000000    0.07000000
   17.84638977   76.78410339    0.09000000    0.07000000
   17.84972191   73.85639954    0.09000000    0.07000000
   17.85305595   73.51059723    0.09000000    0.07000000
   17.85611153   75.42479706    0.09000000    0.07000000
   17.85888863   71.29679871    0.09000000    0.07000000
   17.85972214   73.15450287    0.09000000    0.07000000
   17.86305618   73.86820221    0.09000000    0.07000000
   17.86611176   73.78530121    0.09000000    0.07000000
   17.86944389   73.66690063    0.09000000    0.07000000
   17.87277794   71.47070313    0.09000000    0.07000000
   17.87583351   78.44779968    0.09000000    0.07000000
   17.87916756   76.19499969    0.09000000    0.07000000
   17.88249969   73.90879822    0.09000000    0.07000000
   17.88694382   73.90879822    0.09000000    0.07000000
   17.89111137   73.07129669    0.09000000    0.07000000
   17.89444351   70.07250214    0.09000000    0.07000000
   17.89777756   72.10939789    0.09000000    0.07000000
   17.90083313   74.35530090    0.09000000    0.07000000
   17.90416718   71.02449799    0.09000000    0.07000000
   17.90749931   74.93900299    0.09000000    0.07000000
   17.90888786   74.54759979    0.09000000    0.07000000
   17.91083336   71.40049744    0.09000000    0.07000000
   17.91416550   74.57589722    0.09000000    0.07000000
   17.91722107   78.91519928    0.09000000    0.07000000
   17.92055511   75.80970001    0.09000000    0.07000000
   17.92388916   73.69049835    0.09000000    0.07000000
   17.92694473   81.06790161    0.09000000    0.07000000
   17.93027687   72.64949799    0.09000000    0.07000000
   17.93361092   73.79389954    0.09000000    0.07000000
   17.93833160   73.79389954    0.09000000    0.07000000
   17.94249916   72.22000122    0.09000000    0.07000000
   17.94555473   72.14050293    0.09000000    0.07000000
   17.94888878   70.23190308    0.09000000    0.07000000
   17.95194435   74.91310120    0.09000000    0.07000000
   17.95527840   71.87850189    0.09000000    0.07000000
   17.95861244   73.35579681    0.09000000    0.07000000
   17.95916748   72.07369995    0.09000000    0.07000000
   17.96222305   71.25659943    0.09000000    0.07000000
   17.96555710   73.31529999    0.09000000    0.07000000
   17.96888924   71.84100342    0.09000000    0.07000000
   17.97194481   74.92240143    0.09000000    0.07000000
   17.97527885   72.58190155    0.09000000    0.07000000
   17.97833443   70.91529846    0.09000000    0.07000000
   17.98166656   70.53589630    0.09000000    0.07000000
   17.98500061   76.17359924    0.09000000    0.07000000
   17.98944473   76.17359924    0.09000000    0.07000000
   17.99361229   78.15959930    0.09000000    0.07000000
   17.99666786   73.18520355    0.09000000    0.07000000
   18.00000000   71.52799988    0.09000000    0.07000000
   18.00333405   73.83769989    0.09000000    0.07000000
   18.00638962   74.00730133    0.09000000    0.07000000
   18.00916672   73.49379730    0.09000000    0.07000000
   18.01000023   72.58139801    0.09000000    0.07000000
   18.01333427   71.39969635    0.09000000    0.07000000
   18.01638794   74.54810333    0.09000000    0.07000000
   18.01972198   73.29830170    0.09000000    0.07000000
   18.02305603   69.13719940    0.09000000    0.07000000
   18.02611160   72.27909851    0.09000000    0.07000000
   18.02944374   76.08529663    0.09000000    0.07000000
   18.03277779   74.14330292    0.09000000    0.07000000
   18.03583336   71.40889740    0.09000000    0.07000000
   18.04055595   71.40889740    0.09000000    0.07000000
   18.04472160   69.66449738    0.09000000    0.07000000
   18.04805565   71.15319824    0.09000000    0.07000000
   18.05111122   76.75579834    0.09000000    0.07000000
   18.05444336   71.88430023    0.09000000    0.07000000
   18.07416725   72.25319672    0.09000000    0.07000000
   18.07472229   71.38790131    0.09000000    0.07000000
   18.07777786   77.51119995    0.09000000    0.07000000
   18.08111191   71.48660278    0.09000000    0.07000000
   18.08444595   74.91549683    0.09000000    0.07000000
   18.08750153   70.73899841    0.09000000    0.07000000
   18.09166718   70.73899841    0.09000000    0.07000000
   18.09583473   71.12899780    0.09000000    0.07000000
   18.09916687   77.74379730    0.09000000    0.07000000
   18.10250092   74.59590149    0.09000000    0.07000000
   18.10555649   73.30999756    0.09000000    0.07000000
   18.10888863   72.65969849    0.09000000    0.07000000
   18.11194420   70.90339661    0.09000000    0.07000000
   18.11527824   70.94589996    0.09000000    0.07000000
   18.11861038   72.45189667    0.09000000    0.07000000
   18.12166595   71.08589935    0.09000000    0.07000000
   18.12472153   71.51039886    0.09000000    0.07000000
   18.12527847   73.02300262    0.09000000    0.07000000
   18.12861061   70.04660034    0.09000000    0.07000000
   18.13194466   77.86830139    0.09000000    0.07000000
   18.13500023   79.23179626    0.09000000    0.07000000
   18.13833237   75.38670349    0.09000000    0.07000000
   18.14305496   75.38670349    0.09000000    0.07000000
   18.14722252   71.42929840    0.09000000    0.07000000
   18.15027809   73.74600220    0.09000000    0.07000000
   18.15361023   69.36889648    0.09000000    0.07000000
   18.15666580   71.90059662    0.09000000    0.07000000
