    HOUR (UT)   FLARE FACTOR    SKY TESTER    SUN TESTER
   11.20472240   -1.00000000   -1.00000000   -1.00000000
   11.26666641  103.70700073    4.53999996    2.50000000
   11.27388859   97.67350006    4.53999996    2.50000000
   11.27750015   86.16739655    4.53000021    2.50000000
   11.28083324   81.72260284    4.53999996    2.50000000
   11.28388977  104.95899963    4.53999996    2.50000000
   11.28722286   97.36930084    4.53000021    2.50000000
   11.29027843   91.67230225    4.53999996    2.50000000
   11.29361153   82.83239746    4.53000021    2.50000000
   11.29666710   88.30419922    4.53999996    2.50000000
   11.30000019   99.85030365    4.53000021    2.51999998
   11.30055618   84.29989624    4.53000021    2.51999998
   11.30361176   82.63829803    4.53999996    2.51999998
   11.30694485   96.59539795    4.53000021    2.51999998
   11.31000042  104.30300140    4.51000023    2.51999998
   11.31333351  107.93800354    4.53999996    2.50000000
   11.31638908   84.45960236    4.53000021    2.50000000
   11.31972218   89.74440002    4.53000021    2.51999998
   11.32277775   99.04370117    4.55999994    2.50000000
   11.32611084   91.32140350    4.57999992    2.51999998
   11.32916641   97.59300232    4.59999990    2.51999998
   11.33249950   94.59500122    4.59999990    2.51999998
   11.33555508   89.77790070    4.57999992    2.51999998
   11.33888817  103.48400116    4.57999992    2.50000000
   11.34194374  103.66100311    4.55999994    2.51999998
   11.34527779  111.39600372    4.55999994    2.51999998
   11.34833336   99.05239868    4.57999992    2.51999998
   11.35000038   94.58080292    4.61999989    2.51999998
   11.35194492  100.83000183    4.59999990    2.51999998
   11.35500050  109.78299713    4.59999990    2.51999998
   11.35833359  109.89700317    4.61999989    2.51999998
   11.36138916  123.86100006    4.63999987    2.51999998
   11.36472225   93.78890228    4.63999987    2.51999998
   11.36777782   91.58889771    4.63999987    2.51999998
   11.37111092  104.71299744    4.61999989    2.51999998
   11.37416649   88.19000244    4.61999989    2.51999998
   11.37750053  102.28099823    4.59999990    2.51999998
   11.38055611   86.70709991    4.61999989    2.51999998
   11.38388920  133.93699646    4.61999989    2.53999996
   11.38694477   88.98619843    4.59999990    2.53999996
   11.39027786   98.70459747    4.59999990    2.51999998
   11.39333344   90.23049927    4.59999990    2.53999996
   11.39666653   94.48970032    4.59999990    2.51999998
   11.39972210  104.38300323    4.65999985    2.53999996
   11.40027714   85.68109894    4.65999985    2.53999996
   11.40333271   87.02349854    4.65999985    2.51999998
   11.40666676  109.82900238    4.65999985    2.53999996
   11.40972137  115.12500000    4.65999985    2.53999996
   11.41305542   95.29910278    4.67999983    2.53999996
   11.41611099   82.51029968    4.69999981    2.53999996
   11.41944504   88.97889709    4.65999985    2.53999996
   11.42250061  103.42700195    4.67999983    2.53999996
   11.42583370   97.57679749    4.73999977    2.53999996
   11.42888927  105.62000275    4.73999977    2.51999998
   11.43222237   95.66020203    4.76000023    2.53999996
   11.43527794   90.62840271    4.76000023    2.53999996
   11.43861103   91.10040283    4.78000021    2.53999996
   11.44166660  101.66600037    4.80999994    2.53999996
   11.44499969  106.75399780    4.82999992    2.53999996
   11.44805527   94.58300018    4.88999987    2.53999996
   11.45027733   97.48449707    4.90999985    2.55999994
   11.45166683   86.68630219    4.90999985    2.55999994
   11.45499992   91.81199646    4.90999985    2.51999998
   11.45805550   89.21589661    4.90999985    2.51999998
   11.46138859   90.74259949    4.90999985    2.51999998
   11.46444416  105.09999847    4.90999985    2.51999998
   11.46777725  105.44499969    4.90999985    2.50000000
   11.47083282   95.42050171    4.90999985    2.51999998
   11.47416592   94.00689697    4.90999985    2.53999996
   11.47722149  101.96600342    4.90999985    2.50000000
   11.48055553  115.04000092    4.90999985    2.48000002
   11.48361111   94.59960175    4.90999985    2.50000000
   11.48694515   97.08129883    4.90999985    2.53999996
   11.49000072   98.56379700    4.90999985    2.51999998
   11.49333382  105.17900085    4.90999985    2.51999998
   11.49638939  139.04800415    4.90999985    2.51999998
   11.49972248  122.12200165    4.90999985    2.51999998
   11.50027752  114.50299835    4.90999985    2.53999996
   11.50333309  119.32700348    4.90999985    2.53999996
   11.50638866  113.52300262    4.90999985    2.53999996
   11.50944424  122.00499725    4.90999985    2.53999996
   11.51277733  103.86199951    4.88999987    2.53999996
   11.51583290  116.09100342    4.88999987    2.53999996
   11.51916599   93.67939758    4.90999985    2.53999996
   11.52222157  104.14499664    4.88999987    2.55999994
   11.52555561  100.95400238    4.88999987    2.55999994
   11.52861118  118.07499695    4.90999985    2.53999996
   11.53194427   86.51719666    4.90999985    2.53999996
   11.53500080  101.68800354    4.90999985    2.55999994
   11.53833389   94.33000183    4.90999985    2.53999996
   11.54138947   91.64320374    4.90999985    2.55999994
   11.54472256   99.53359985    4.90999985    2.55999994
   11.54777813   99.32129669    4.90999985    2.55999994
   11.55027771   96.57189941    4.90999985    2.53999996
   11.55138874   98.85849762    4.90999985    2.55999994
   11.55472279   95.20140076    4.90999985    2.55999994
   11.55777836   89.54589844    4.88999987    2.55999994
   11.56111145   97.28829956    4.86999989    2.55999994
   11.56416702   88.50440216    4.84999990    2.57999992
   11.56750011   88.52279663    4.86999989    2.55999994
   11.57055569   87.95379639    4.82999992    2.55999994
   11.57388878   97.42259979    4.82999992    2.55999994
   11.57694435   92.34300232    4.80999994    2.55999994
   11.58027744   91.66999817    4.80000019    2.55999994
   11.58333302   88.68679810    4.78000021    2.57999992
   11.58666611   93.87359619    4.76000023    2.57999992
   11.58972168   94.42929840    4.76000023    2.57999992
   11.59305477   91.86859894    4.73999977    2.57999992
   11.59611034   95.89630127    4.73999977    2.55999994
   11.59944439   96.08589935    4.71999979    2.57999992
   11.60027790   95.68160248    4.71999979    2.57999992
   11.60277843  102.13400269    4.76000023    2.57999992
   11.60611153   98.05639648    4.80999994    2.57999992
   11.60916710   99.18900299    4.80999994    2.57999992
   11.61250019   88.18849945    4.84999990    2.55999994
   11.61555576   93.45539856    4.86999989    2.57999992
   11.61888885   97.84230042    4.90999985    2.57999992
   11.62194443   98.55570221    4.86999989    2.57999992
   11.62527752  109.41899872    4.88999987    2.57999992
   11.62833309   96.22489929    4.90999985    2.57999992
   11.63166714   98.58679962    4.90999985    2.57999992
   11.63472176   98.62629700    4.90999985    2.57999992
   11.63805580   95.17659760    4.90999985    2.57999992
   11.64138889   95.02110291    4.90999985    2.57999992
   11.64444447   93.29620361    4.90999985    2.57999992
   11.64777756   95.64489746    4.90999985    2.57999992
   11.65027714   94.75509644    4.90999985    2.57999992
   11.65111065   93.54419708    4.90999985    2.57999992
   11.65444374   99.88369751    4.90999985    2.57999992
   11.65749931   91.96530151    4.90999985    2.57999992
   11.66083336   96.37030029    4.90999985    2.57999992
   11.66388893   95.81600189    4.90999985    2.57999992
   11.66722298   93.00579834    4.90999985    2.55999994
   11.67027855  102.70500183    4.90999985    2.57999992
   11.67361164   94.18250275    4.90999985    2.57999992
   11.67666721   99.37349701    4.90999985    2.59999990
   11.68000031   92.66580200    4.90999985    2.57999992
   11.68305588   95.43569946    4.90999985    2.57999992
   11.68638897  103.12300110    4.90999985    2.57999992
   11.68944454   98.22039795    4.90999985    2.57999992
   11.69277763   99.92430115    4.90999985    2.57999992
   11.69583321   98.58969879    4.90999985    2.57999992
   11.69916630   99.51740265    4.90999985    2.57999992
   11.70027733  100.06900024    4.90999985    2.57999992
   11.70249939  107.80899811    4.90999985    2.59999990
   11.70583344  107.18699646    4.90999985    2.57999992
   11.70888901  101.85600281    4.90999985    2.57999992
   11.71222210   89.81390381    4.90999985    2.57999992
   11.71527767   89.61630249    4.90999985    2.57999992
   11.71861076  104.15000153    4.90999985    2.57999992
   11.72166634   95.40579987    4.90999985    2.59999990
   11.72499943   90.69450378    4.90999985    2.57999992
   11.72833252   97.24659729    4.90999985    2.57999992
   11.73138809   98.22299957    4.90999985    2.57999992
   11.73472214   98.60849762    4.90999985    2.57999992
   11.73777771  100.39399719    4.90999985    2.59999990
   11.74111176   93.19860077    4.90999985    2.57999992
   11.74416733   90.33560181    4.90999985    2.57999992
   11.74750042   96.20960236    4.90999985    2.57999992
   11.75027752   90.44129944    4.90999985    2.59999990
   11.75111103   98.95169830    4.90999985    2.59999990
   11.75416660   98.06269836    4.90999985    2.57999992
   11.75722218   86.21150208    4.90999985    2.59999990
   11.76055527   93.38780212    4.90999985    2.57999992
   11.76361084   98.47480011    4.90999985    2.57999992
   11.76694393   96.09639740    4.90999985    2.59999990
   11.76999950   98.75740051    4.90999985    2.59999990
   11.77333355   97.65329742    4.90999985    2.59999990
   11.77638817   88.75859833    4.90999985    2.59999990
   11.77972221   96.22370148    4.90999985    2.59999990
   11.78277779   93.61609650    4.90999985    2.59999990
   11.78611183   93.92379761    4.90999985    2.59999990
   11.78916740   95.88990021    4.90999985    2.61999989
   11.79250050   95.12580109    4.90999985    2.61999989
   11.79555607   98.45179749    4.88999987    2.59999990
   11.79888916   91.28579712    4.88999987    2.59999990
   11.80027771   96.93779755    4.88999987    2.61999989
   11.80249977   92.23030090    4.90999985    2.61999989
   11.80555534   95.05549622    4.88999987    2.61999989
   11.80888939   96.83249664    4.88999987    2.61999989
   11.81194496   88.73400116    4.88999987    2.59999990
   11.81527805  100.75599670    4.88999987    2.61999989
   11.81833363   96.35710144    4.84999990    2.61999989
   11.82166672   93.94349670    4.80999994    2.61999989
   11.82472229  101.73899841    4.80999994    2.61999989
   11.82805538   93.23049927    4.82999992    2.61999989
   11.83111095  101.27600098    4.82999992    2.61999989
   11.83444405   99.35510254    4.86999989    2.61999989
   11.83749962   86.23519897    4.88999987    2.61999989
   11.84083271   98.06340027    4.90999985    2.59999990
   11.84388828   91.19589996    4.90999985    2.61999989
   11.84722233   95.81700134    4.90999985    2.61999989
   11.85027790  104.58200073    4.90999985    2.61999989
   11.85083389   93.15869904    4.90999985    2.61999989
   11.85388947   96.93689728    4.90999985    2.61999989
   11.85694504   98.56610107    4.90999985    2.61999989
   11.86027813   92.99970245    4.90999985    2.61999989
   11.86333370   96.83719635    4.90999985    2.61999989
   11.86666679   91.34999847    4.90999985    2.61999989
   11.86972237   97.03869629    4.90999985    2.64000010
   11.87305546   96.51249695    4.90999985    2.61999989
   11.87611103   93.42410278    4.90999985    2.64000010
   11.87944412   89.28929901    4.90999985    2.61999989
   11.88249969   91.10849762    4.90999985    2.61999989
   11.88583279  103.46499634    4.90999985    2.61999989
   11.88888836   97.23919678    4.90999985    2.61999989
   11.89222240   95.15769958    4.90999985    2.61999989
   11.89555550  101.55799866    4.90999985    2.61999989
   11.89861107   91.98940277    4.90999985    2.61999989
   11.90055561   94.44049835    4.90999985    2.61999989
   11.90249920   91.43959808    4.90999985    2.61999989
   11.90555477   91.38110352    4.90999985    2.59999990
   11.90888882   90.35679626    4.90999985    2.61999989
   11.91194439  102.85600281    4.90999985    2.61999989
   11.91527748   98.92739868    4.90999985    2.64000010
   11.91833401   91.67659760    4.88999987    2.64000010
   11.92166710   95.00070190    4.86999989    2.64000010
   11.92472267   92.63839722    4.88999987    2.61999989
   11.92805576   92.98159790    4.82999992    2.64000010
   11.93111134   94.97940063    4.80999994    2.64000010
   11.93416691  103.98899841    4.80999994    2.64000010
   11.93750000   99.78209686    4.82999992    2.61999989
   11.94055557   94.46579742    4.82999992    2.64000010
   11.94388866   99.76730347    4.82999992    2.64000010
   11.94694424   91.66649628    4.80999994    2.64000010
   11.95027733   95.33989716    4.78000021    2.66000009
   11.95055580   92.02760315    4.78000021    2.66000009
   11.95388889   96.97129822    4.76000023    2.64000010
   11.95694447   89.48290253    4.76000023    2.66000009
   11.96027756   93.41999817    4.71999979    2.64000010
   11.96333313   92.93409729    4.69999981    2.64000010
   11.96666622   87.12860107    4.65999985    2.66000009
   11.96972179   87.46510315    4.61999989    2.66000009
   11.97305489   90.13970184    4.65999985    2.64000010
   11.97611046  116.40299988    4.67999983    2.64000010
   11.97916603  102.61699677    4.71999979    2.64000010
   11.98249912   97.64550018    4.73999977    2.64000010
   11.98555565   86.87259674    4.73999977    2.64000010
   11.98888874   94.09700012    4.73999977    2.66000009
   11.99194431  103.35900116    4.73999977    2.66000009
   11.99527836  119.49700165    4.71999979    2.64000010
   11.99833393  103.03900146    4.73999977    2.66000009
   12.00111103  118.40100098    4.76000023    2.66000009
   12.00249958  110.16699982    4.76000023    2.64000010
   12.00555515   98.89640045    4.76000023    2.66000009
   12.00888920  106.69599915    4.76000023    2.64000010
   12.01194477  101.56900024    4.76000023    2.66000009
   12.01527786  108.24299622    4.73999977    2.66000009
   12.01833344   97.62629700    4.73999977    2.66000009
   12.02166653   95.06690216    4.71999979    2.66000009
   12.02472210   90.22640228    4.67999983    2.66000009
   12.02805519   97.35060120    4.65999985    2.67000008
   12.03111076  112.52100372    4.61999989    2.66000009
   12.03444481  111.22499847    4.59999990    2.66000009
   12.03750038  102.84400177    4.59999990    2.66000009
   12.04083347  114.16899872    4.57999992    2.66000009
   12.04388905  102.19799805    4.55999994    2.67000008
   12.04722309   93.20410156    4.53000021    2.66000009
   12.05027771  107.90399933    4.51000023    2.69000006
   12.05083370  124.18499756    4.51000023    2.67000008
   12.05361176   86.79380035    4.48999977    2.67000008
   12.05694485   92.02300262    4.44999981    2.66000009
   12.06000042   90.85630035    4.40999985    2.67000008
   12.06333351  100.28399658    4.36999989    2.67000008
   12.06638908   91.29820251    4.30999994    2.67000008
   12.06972218   94.47519684    4.26999998    2.67000008
   12.07277775   98.34880066    4.23999977    2.67000008
   12.07611084   98.39350128    4.23999977    2.69000006
   12.07916641   91.02100372    4.21999979    2.67000008
   12.08249950   93.11799622    4.23999977    2.67000008
   12.08555508   90.47899628    4.30999994    2.69000006
   12.08888817   95.88339996    4.38999987    2.67000008
   12.09194374   90.64890289    4.40999985    2.67000008
   12.09527779   94.37529755    4.44999981    2.67000008
   12.09833336   96.31639862    4.51000023    2.69000006
   12.10083389   94.22869873    4.53000021    2.67000008
   12.10194492   91.73400116    4.53999996    2.66000009
   12.10527802  101.92600250    4.57999992    2.67000008
   12.10833359  101.37999725    4.59999990    2.67000008
   12.11166668   93.00090027    4.59999990    2.67000008
   12.11472225   99.17749786    4.61999989    2.66000009
   12.11777782   93.85870361    4.63999987    2.67000008
   12.12111092   99.93399811    4.63999987    2.66000009
   12.12416649   92.60579681    4.63999987    2.67000008
   12.12750053  104.02600098    4.65999985    2.67000008
   12.13055611  102.53199768    4.65999985    2.67000008
   12.13388920   97.84529877    4.61999989    2.67000008
   12.13694477   98.33229828    4.57999992    2.67000008
   12.14000034   93.01349640    4.51000023    2.69000006
   12.14333344   88.65969849    4.42999983    2.69000006
   12.14638901   96.68000031    4.38999987    2.69000006
   12.14972210   99.76139832    4.34999990    2.69000006
   12.15083313   99.92359924    4.32999992    2.69000006
   12.15305519   91.58239746    4.26999998    2.69000006
   12.15638828   91.22619629    4.26000023    2.67000008
   12.15944386   96.78540039    4.26000023    2.69000006
   12.16277695   94.65820313    4.23999977    2.69000006
   12.16583252   93.21040344    4.26000023    2.69000006
   12.16888905   95.32589722    4.26999998    2.69000006
   12.17222214   93.63710022    4.26999998    2.69000006
   12.17527771   97.38169861    4.30999994    2.69000006
   12.17861176   96.70790100    4.30999994    2.69000006
   12.18166733   92.85369873    4.30999994    2.69000006
   12.18472195   98.45989990    4.30999994    2.69000006
   12.18805599   96.05370331    4.26999998    2.69000006
   12.19111156   95.82260132    4.26000023    2.69000006
   12.19444466   92.29799652    4.23999977    2.69000006
   12.19750023  106.25000000    4.26000023    2.69000006
   12.20055580   93.49710083    4.28999996    2.69000006
   12.20111084   93.09829712    4.28999996    2.69000006
   12.20444393  105.30000305    4.28999996    2.69000006
   12.20749950   92.11389923    4.30999994    2.69000006
   12.21055508  102.01599884    4.32999992    2.69000006
   12.21388912   96.27749634    4.36999989    2.69000006
   12.21694374   99.94349670    4.40999985    2.69000006
   12.22027779   96.38569641    4.40999985    2.69000006
   12.22333336   92.19029999    4.42999983    2.69000006
   12.22638798   94.91290283    4.44999981    2.69000006
   12.22972202   90.82569885    4.46999979    2.67000008
   12.23277760   88.90319824    4.44999981    2.69000006
   12.23611164   97.29959869    4.44999981    2.69000006
   12.23916721   93.37989807    4.40999985    2.69000006
   12.24222279   90.90070343    4.38999987    2.69000006
   12.24555588   94.11419678    4.30999994    2.69000006
   12.24861145   92.89089966    4.26000023    2.69000006
   12.25111103   89.28520203    4.21999979    2.71000004
   12.25222206   96.33869934    4.19999981    2.71000004
   12.25527763   88.24960327    4.17999983    2.69000006
   12.25861073   95.14649963    4.17999983    2.71000004
   12.26166630   94.74379730    4.15999985    2.71000004
   12.26472187   99.23210144    4.13999987    2.71000004
   12.28472233   98.83809662    4.21999979    2.71000004
   12.28777790   90.89070129    4.23999977    2.71000004
   12.29111195  102.70400238    4.26999998    2.71000004
   12.29416752   93.33409882    4.28999996    2.71000004
   12.29750061   96.79750061    4.28999996    2.71000004
   12.30055618   98.22530365    4.26000023    2.71000004
   12.30138874   92.12039948    4.23999977    2.71000004
   12.30416679   95.56099701    4.21999979    2.71000004
   12.30749989   89.02529907    4.17999983    2.69000006
   12.31055546   99.14389801    4.17999983    2.73000002
   12.31388950   90.43199921    4.17999983    2.71000004
   12.31694412  101.01999664    4.15999985    2.73000002
   12.32027817   93.41429901    4.07999992    2.73000002
   12.32333374   90.25129700    3.99000001    2.73000002
   12.32666683   88.98100281    3.97000003    2.73000002
   12.32972240  100.00399780    3.99000001    2.73000002
   12.33305550   88.06620026    4.00000000    2.71000004
   12.33611107   95.01969910    3.99000001    2.73000002
   12.33944416   86.84970093    3.89000010    2.73000002
   12.34249973   97.29949951    3.89000010    2.73000002
   12.34583282   97.92240143    3.93000007    2.73000002
   12.34888840   87.08769989    3.97000003    2.73000002
   12.35138893   90.08609772    3.97000003    2.73000002
   12.35249996   90.61900330    3.93000007    2.71000004
   12.35583401   88.92579651    3.89000010    2.75000000
   12.35888958   95.49469757    3.89000010    2.73000002
   12.36222267   90.91790009    3.86999989    2.73000002
   12.36527824   88.84059906    3.84999990    2.73000002
   12.36861134   90.91699982    3.86999989    2.73000002
   12.37166691   96.11910248    3.89000010    2.75000000
   12.37500000   84.95729828    3.91000009    2.73000002
   12.37805557   90.71430206    3.91000009    2.75000000
   12.38138866   85.05120087    3.89000010    2.73000002
   12.38444424   89.60849762    3.84999990    2.75000000
   12.38777733   88.96880341    3.82999992    2.75000000
   12.39083290   93.77400208    3.82999992    2.75000000
   12.39416695   94.74620056    3.82999992    2.73000002
   12.39722252   94.08959961    3.78999996    2.75000000
   12.40055561  103.04399872    3.75000000    2.75000000
   12.40138817   95.71559906    3.75000000    2.75000000
   12.40388870   93.05690002    3.72000003    2.75000000
   12.40722179   93.64129639    3.72000003    2.75000000
   12.41027737   94.26349640    3.73000002    2.75000000
   12.41361046   89.04779816    3.75000000    2.75000000
   12.41666698   91.70999908    3.75000000    2.75000000
   12.42000008   88.53600311    3.76999998    2.75000000
   12.42305565   88.58740234    3.75000000    2.75000000
   12.42638874   87.12339783    3.75000000    2.75000000
   12.42944431   87.61109924    3.73000002    2.75000000
   12.43277836   86.30200195    3.72000003    2.75000000
   12.43583298   88.85700226    3.72000003    2.75000000
   12.43916702   81.84780121    3.75000000    2.75000000
   12.44222260   87.72290039    3.78999996    2.75000000
   12.44555569   97.65519714    3.82999992    2.73000002
   12.44861126   84.14890289    3.84999990    2.75000000
   12.45138836   87.27559662    3.89000010    2.75000000
   12.45222187   99.84449768    3.91000009    2.75000000
   12.45555496   90.12899780    3.91000009    2.75000000
   12.45861053   87.13619995    3.95000005    2.75000000
   12.46194458   90.24330139    3.97000003    2.75000000
   12.46500015   95.56220245    3.97000003    2.75000000
   12.46833324   90.19640350    3.97000003    2.75000000
   12.47138882   92.56870270    3.93000007    2.75000000
   12.47472191   89.17259979    3.93000007    2.75000000
   12.47777748   93.05879974    3.93000007    2.75000000
   12.48111057   96.12249756    3.93000007    2.75000000
   12.48416710   94.52249908    3.91000009    2.75000000
   12.48750019   86.95780182    3.91000009    2.75000000
   12.49055576   86.99299622    3.86999989    2.75000000
   12.49388885   93.57440186    3.84999990    2.75000000
   12.49694443   95.83850098    3.80999994    2.75000000
   12.50027752   94.24819946    3.72000003    2.75000000
   12.50138855   83.33799744    3.70000005    2.75000000
   12.50361156   87.27850342    3.66000009    2.76999998
   12.50694466   93.21320343    3.61999989    2.76999998
   12.51000023   93.25800323    3.64000010    2.76999998
   12.51333332   88.44950104    3.66000009    2.75000000
   12.51638889   85.94329834    3.68000007    2.75000000
   12.51972198   87.93460083    3.68000007    2.76999998
   12.52277756   85.75009918    3.70000005    2.76999998
   12.52611065   82.26049805    3.68000007    2.75000000
   12.52916622   87.03350067    3.66000009    2.76999998
   12.53249931   92.18550110    3.61999989    2.76999998
   12.53555584   84.07050323    3.61999989    2.75000000
   12.53888893   88.16069794    3.64000010    2.75000000
   12.54194450   87.50050354    3.66000009    2.76999998
   12.54527855   84.74310303    3.68000007    2.76999998
   12.54833412   86.07260132    3.68000007    2.76999998
   12.55138874   81.56130219    3.68000007    2.76999998
   12.55194473   87.94830322    3.68000007    2.76999998
   12.55527782   85.85559845    3.70000005    2.76999998
   12.55833340   85.97260284    3.72000003    2.76999998
   12.56166649   80.77950287    3.72000003    2.76999998
   12.56472206   89.79850006    3.68000007    2.76999998
   12.56805515   82.07360077    3.66000009    2.76999998
   12.57111073   87.75640106    3.61999989    2.76999998
   12.57444477   84.65489960    3.59999990    2.75000000
   12.57750034   88.35469818    3.59999990    2.76999998
   12.58083344   82.51830292    3.61999989    2.76999998
   12.58388901   84.97949982    3.66000009    2.76999998
   12.58722210   91.16300201    3.72000003    2.76999998
   12.59027767   87.81539917    3.73000002    2.75000000
   12.59361076   87.71389771    3.76999998    2.78999996
   12.59666634   99.99459839    3.76999998    2.76999998
   12.60000038   97.10099792    3.78999996    2.76999998
   12.60138893   88.67520142    3.78999996    2.76999998
   12.60333347   86.65579987    3.78999996    2.76999998
   12.60666752   86.34700012    3.78999996    2.78999996
   12.60972214   85.32180023    3.76999998    2.76999998
   12.61305618   90.44879913    3.75000000    2.75000000
   12.61611176   80.16889954    3.73000002    2.78999996
   12.61944485   86.91770172    3.70000005    2.78999996
   12.62250042   83.67120361    3.66000009    2.76999998
   12.62583351   83.46309662    3.66000009    2.78999996
   12.62888908   83.94909668    3.70000005    2.78999996
   12.63222218   86.30400085    3.70000005    2.78999996
   12.63527775   88.38069916    3.68000007    2.76999998
   12.63861084   94.20359802    3.66000009    2.76999998
   12.64166641   85.05100250    3.68000007    2.76999998
   12.64499950   86.41139984    3.75000000    2.76999998
   12.64805508   88.67189789    3.80999994    2.76999998
   12.65138817   89.80419922    3.78999996    2.75000000
   12.65166664   84.83820343    3.78999996    2.75000000
   12.65499973   93.47429657    4.09999990    2.75000000
   12.65805531   86.60459900    4.26999998    2.78999996
   12.66138840   95.51619720    3.82999992    2.78999996
   12.66444397   86.03700256    3.46000004    2.76999998
   12.66777802   86.79530334    3.48000002    2.78999996
   12.67083359   82.47029877    3.51999998    2.78999996
   12.67416668   90.73090363    3.48000002    2.78999996
   12.67722225   92.82199860    3.39000010    2.78999996
   12.68055630   87.44519806    3.41000009    2.78999996
   12.68361092   85.40750122    3.43000007    2.78999996
   12.68694496   85.21150208    3.61999989    2.76999998
   12.69000053   88.87640381    3.70000005    2.76999998
   12.69333363  102.88200378    3.75000000    2.76999998
   12.69638920   89.69300079    3.89000010    2.78999996
   12.69972229   88.22389984    3.76999998    2.78999996
   12.70138836   84.05239868    3.64000010    2.78999996
   12.70305538   89.98410034    3.51999998    2.78999996
   12.70638847   89.55120087    3.48000002    2.78999996
   12.70944405   93.81710052    3.43000007    2.78999996
   12.71277714   87.12969971    3.41000009    2.78999996
   12.71583271   84.10220337    3.43000007    2.78999996
   12.71916580   87.10199738    3.48000002    2.78999996
   12.72222137   87.90529633    3.46000004    2.78999996
   12.72555542   95.64630127    3.45000005    2.78999996
   12.72861099   90.57460022    3.43000007    2.80999994
   12.73194408   86.81950378    3.41000009    2.80999994
   12.73527813   90.14209747    3.41000009    2.80999994
   12.73833370   79.98940277    3.45000005    2.80999994
   12.74166679   95.61540222    3.50000000    2.78999996
   12.74472237   90.34600067    3.55999994    2.78999996
   12.74805546   97.56089783    3.59999990    2.78999996
   12.75111103   88.28910065    3.64000010    2.78999996
   12.75166702   86.87359619    3.66000009    2.78999996
   12.75472260   98.41660309    3.64000010    2.78999996
   12.75805569   87.24880219    3.61999989    2.78999996
   12.76111126   89.91179657    3.64000010    2.78999996
   12.76444435   91.93309784    3.64000010    2.78999996
   12.76749992   88.80629730    3.66000009    2.78999996
   12.77083302   92.51170349    3.66000009    2.78999996
   12.77388859   94.22720337    3.72000003    2.78999996
   12.77722168   93.33110046    3.76999998    2.78999996
   12.78027725   91.99269867    3.76999998    2.78999996
   12.78361130   91.53040314    3.99000001    2.78999996
   12.78666687   90.81189728    3.82999992    2.76999998
   12.79000092   89.77940369    3.55999994    2.78999996
   12.79305553   95.96800232    3.46000004    2.80999994
   12.79638958   93.35790253    3.45000005    2.78999996
   12.79944515   96.38359833    3.46000004    2.78999996
   12.80166721   90.42299652    3.43000007    2.78999996
   12.80305576   91.69460297    3.41000009    2.78999996
   12.80638885   90.43460083    3.32999992    2.80999994
   12.80944443   95.55190277    3.28999996    2.78999996
   12.81277752   97.21109772    3.26999998    2.80999994
   12.81583309   98.06939697    3.30999994    2.80999994
   12.81916618   98.56670380    3.28999996    2.80999994
   12.82222176   99.41380310    3.25000000    2.80999994
   12.82555580   86.95899963    3.26999998    2.80999994
   12.82861137   93.97250366    3.28999996    2.80999994
   12.83194447   91.07550049    3.28999996    2.80999994
   12.83500004   90.54190063    3.28999996    2.80999994
   12.83833313   91.69400024    3.28999996    2.80999994
   12.84138870   95.12979889    3.20000005    2.82999992
   12.84472179   91.48310089    3.16000009    2.80999994
   12.84777737   93.90689850    3.16000009    2.82999992
   12.85111141   86.31829834    3.14000010    2.82999992
   12.85166740  102.11100006    3.14000010    2.80999994
   12.85444450   96.39710236    3.09999990    2.82999992
   12.85777855   95.86969757    3.09999990    2.82999992
   12.86083412   98.54989624    3.05999994    2.82999992
   12.86416721   95.17919922    3.01999998    2.82999992
   12.86722279   96.68840027    3.01999998    2.80999994
   12.87055588   88.87220001    3.01999998    2.82999992
   12.87361145   95.71119690    3.01999998    2.80999994
   12.87694454   92.93750000    3.03999996    2.82999992
   12.88000011   77.26750183    3.07999992    2.82999992
   12.88333321   85.15019989    3.09999990    2.82999992
   12.88638878   87.74579620    3.03999996    2.82999992
   12.88972187   81.13610077    3.05999994    2.82999992
   12.89277744   88.69460297    3.00000000    2.82999992
   12.89611053   92.48840332    2.98000002    2.82999992
   12.89916611   87.43879700    2.96000004    2.82999992
   12.90166664   90.03220367    2.98000002    2.84999990
   12.90277767   82.86409760    2.96000004    2.82999992
   12.90611076   87.70520020    3.00000000    2.82999992
   12.90916634   89.12889862    3.00000000    2.82999992
   12.91249943   91.93930054    2.96000004    2.84999990
   12.91555500   94.41349792    2.93000007    2.82999992
   12.91888905   86.18620300    2.80999994    2.84999990
   12.92194462   86.42019653    2.78999996    2.84999990
   12.92527771   93.27809906    2.84999990    2.82999992
   12.92833328   88.43750000    2.94000006    2.82999992
   12.93166733   91.57309723    3.03999996    2.82999992
   12.93472195   96.43199921    3.11999989    2.80999994
   12.93805599   88.19069672    3.14000010    2.80999994
   12.94111156   88.15129852    3.07999992    2.82999992
   12.94444466   87.29740143    3.01999998    2.82999992
   12.94750023   83.14309692    2.96000004    2.84999990
   12.95083332   87.52819824    3.00000000    2.82999992
   12.95166683   83.93740082    3.05999994    2.84999990
   12.95416641   90.76280212    3.23000002    2.82999992
   12.95749950   93.59390259    3.34999990    2.82999992
   12.96055508   85.08200073    3.39000010    2.82999992
   12.96388912   93.86910248    3.39000010    2.80999994
   12.96694374   91.02130127    3.48000002    2.80999994
   12.97027779   92.62290192    3.59999990    2.80999994
   12.97333336   93.24410248    3.68000007    2.80999994
   12.97666645   95.23169708    3.72000003    2.80999994
   12.97972202   88.65390015    3.73000002    2.78999996
   12.98305511   84.96289825    3.75000000    2.78999996
   12.98638916   87.97609711    3.76999998    2.78999996
   12.98944473  101.86599731    3.76999998    2.78999996
   12.99250031   95.30439758    3.80999994    2.78999996
   12.99583340   85.22959900    3.80999994    2.78999996
   12.99888897   94.79699707    3.80999994    2.80999994
   13.00166702   93.11430359    3.75000000    2.78999996
   13.00249958  100.90499878    3.73000002    2.80999994
   13.00583363  101.53299713    3.73000002    2.80999994
   13.00888920   91.56120300    3.72000003    2.80999994
   13.01222229   91.02549744    3.73000002    2.80999994
   13.01527786   88.93379974    3.73000002    2.80999994
   13.01861095   85.68029785    3.72000003    2.80999994
   13.02166653   88.97509766    3.70000005    2.80999994
   13.02499962   84.79299927    3.66000009    2.82999992
   13.02805519   93.03399658    3.59999990    2.80999994
   13.03138828   97.55570221    3.51999998    2.82999992
   13.03444481   88.12860107    3.45000005    2.82999992
   13.03777790   83.91780090    3.39000010    2.80999994
   13.04083347   90.01339722    3.28999996    2.82999992
   13.04416752   86.86009979    3.18000007    2.82999992
   13.04722309   87.69499969    3.05999994    2.82999992
   13.05055618   82.27950287    2.98000002    2.86999989
   13.05166721   86.29060364    2.96000004    2.84999990
   13.05388927   88.28910065    2.96000004    2.82999992
   13.05722237   92.16280365    2.96000004    2.84999990
   13.06027794   91.94319916    3.03999996    2.84999990
   13.06361103   92.01409912    3.14000010    2.82999992
   13.06666660   88.39279938    3.16000009    2.82999992
   13.06999969   89.49420166    3.16000009    2.82999992
   13.07333374   95.97499847    3.14000010    2.82999992
   13.07638836   88.55180359    3.14000010    2.84999990
   13.07972240   97.77909851    3.18000007    2.84999990
   13.08277798   88.45010376    3.21000004    2.82999992
   13.08611107   83.83229828    3.26999998    2.82999992
   13.08916664   84.41850281    3.30999994    2.82999992
   13.09249973   82.38860321    3.39000010    2.82999992
   13.09555531   89.78679657    3.45000005    2.82999992
   13.09888840   90.35659790    3.46000004    2.82999992
   13.10166740   89.65090179    3.55999994    2.80999994
   13.10222244   84.42910004    3.55999994    2.80999994
   13.10555553   81.99299622    3.68000007    2.80999994
   13.10861111   90.44339752    3.76999998    2.80999994
   13.11194515   94.72669983    3.84999990    2.78999996
   13.11500072   84.93520355    3.86999989    2.82999992
   13.11833382   91.13909912    3.86999989    2.80999994
   13.12138939   84.47480011    3.91000009    2.80999994
   13.12472248   82.21880341    3.97000003    2.82999992
   13.12777805   81.99420166    3.95000005    2.80999994
   13.13111115   83.87920380    3.95000005    2.80999994
   13.13416672   85.71219635    3.97000003    2.80999994
   13.13749981   86.37920380    3.97000003    2.80999994
   13.14055538   88.38510132    3.95000005    2.80999994
   13.14388847   84.75839996    3.95000005    2.80999994
   13.14694405   81.53150177    3.91000009    2.80999994
   13.15027714   90.18579865    3.95000005    2.80999994
   13.15166664   89.61840057    3.91000009    2.78999996
   13.15388870   85.51609802    3.89000010    2.80999994
   13.15694427   84.77200317    3.86999989    2.80999994
   13.16027737   88.19689941    3.82999992    2.80999994
   13.16333294   88.25150299    3.82999992    2.82999992
   13.16666698   85.47010040    3.82999992    2.80999994
   13.16972256   84.17759705    3.86999989    2.82999992
   13.17305565   85.04229736    3.89000010    2.80999994
   13.17611122   86.21499634    3.93000007    2.80999994
   13.17944431   87.04959869    3.99000001    2.80999994
   13.18249989   84.22180176    4.01999998    2.80999994
   13.18583298   82.09059906    4.07999992    2.78999996
   13.18888855   88.10019684    4.11999989    2.78999996
   13.19222260   90.64659882    4.15999985    2.78999996
   13.19527817   90.62740326    4.21999979    2.78999996
   13.19861126   91.82679749    4.26000023    2.78999996
   13.20166683   84.90779877    4.26000023    2.78999996
   13.20194435   87.46489716    4.26000023    2.78999996
   13.20527744   87.03869629    4.23999977    2.78999996
   13.20833302   86.68289948    4.23999977    2.78999996
   13.21166611   86.18979645    4.15999985    2.78999996
   13.21472168   87.40489960    4.09999990    2.80999994
   13.21805477   81.08419800    4.07999992    2.80999994
   13.22111034   91.47830200    4.05999994    2.80999994
   13.22444439   86.65010071    4.01999998    2.80999994
   13.22749996   84.78690338    4.00000000    2.80999994
   13.23083305   85.14189911    3.97000003    2.80999994
   13.23388958   85.42099762    3.93000007    2.80999994
   13.23722267   85.69010162    3.89000010    2.82999992
   13.24027824   83.31670380    3.84999990    2.82999992
   13.24361134   88.95459747    3.80999994    2.82999992
   13.24666691   92.56649780    3.78999996    2.80999994
   13.25000000  103.81999969    3.78999996    2.82999992
   13.25166702   90.68630219    3.76999998    2.82999992
   13.25361156   87.40260315    3.76999998    2.82999992
   13.25666714   88.17320251    3.76999998    2.82999992
   13.26000023  101.50900269    3.80999994    2.80999994
   13.26305580   84.82910156    3.80999994    2.82999992
   13.26638889   91.99050140    3.80999994    2.80999994
   13.26944447   93.46459961    3.78999996    2.82999992
   13.27277756   92.67289734    3.78999996    2.82999992
   13.27583313  100.83000183    3.76999998    2.82999992
   13.27916622   83.75620270    3.78999996    2.80999994
   13.28222179   84.75260162    3.76999998    2.82999992
   13.30194473   83.45290375    3.51999998    2.84999990
   13.30249977   80.90699768    3.51999998    2.84999990
   13.30555534   84.80680084    3.50000000    2.84999990
   13.30888939   80.40010071    3.50000000    2.82999992
   13.31194496   88.85050201    3.51999998    2.84999990
   13.31527805   90.02899933    3.51999998    2.82999992
   13.42888927   -1.00000000   -1.00000000   -1.00000000
   13.53027725   -1.00000000   -1.00000000   -1.00000000
   13.64138889   -1.00000000   -1.00000000   -1.00000000
   13.74750042   -1.00000000   -1.00000000   -1.00000000
   13.84472179   -1.00000000   -1.00000000   -1.00000000
   13.94805527   -1.00000000   -1.00000000   -1.00000000
   14.04527855   -1.00000000   -1.00000000   -1.00000000
   14.14222240   -1.00000000   -1.00000000   -1.00000000
   14.24444485   -1.00000000   -1.00000000   -1.00000000
   14.28888893   70.21119690    3.82999992    2.93000007
   14.29194450  108.92900085    4.28999996    2.86999989
   14.29527855  124.70800018    4.46999979    2.86999989
   14.29833412  112.05899811    4.84999990    2.93000007
   14.30166721   99.48120117    4.80000019    2.89000010
   14.30472279  110.68599701    4.90999985    2.84999990
   14.30805588  100.03800201    4.90999985    2.75000000
   14.31111145  109.62599945    4.90999985    2.93000007
   14.31750011  109.62599945    4.90999985    2.96000004
   14.32166672  121.81400299    3.99000001    2.94000006
   14.32472229  109.23799896    2.67000008    2.93000007
   14.32805538  100.35399628    2.55999994    2.94000006
   14.33111095   93.68350220    2.66000009    2.96000004
   14.33444405   93.55049896    2.66000009    2.94000006
   14.33749962  105.27100372    2.46000004    2.96000004
   14.33888817  112.02400208    2.23000002    2.94000006
   14.34083271  106.20400238    2.15000010    2.94000006
   14.34416676  109.43699646    2.03999996    2.96000004
   14.34722233   89.03669739    1.96000004    2.94000006
   14.35055637  100.69200134    1.91999996    2.96000004
   14.35361195  109.92099762    1.94000006    2.94000006
   14.35694504   80.64489746    1.91999996    2.94000006
   14.36000061  107.71600342    1.91999996    2.94000006
   14.36333370   77.36710358    1.91999996    2.96000004
   14.36861134   77.36710358    2.00000000    2.94000006
   14.37277794  116.89600372    1.98000002    2.96000004
   14.37583351   79.37400055    1.94000006    2.94000006
   14.37916660  100.72000122    1.96000004    2.94000006
   14.38222218  122.30500031    2.00000000    2.94000006
   14.38555527   91.73680115    2.00000000    2.94000006
   14.38861084  100.12999725    2.03999996    2.94000006
   14.38916683   92.00229645    2.03999996    2.94000006
   14.39249992   90.20410156    2.07999992    2.94000006
   14.39555550   89.89270020    2.09999990    2.93000007
   14.39888859   86.40979767    2.11999989    2.93000007
   14.40194416   86.41909790    2.11999989    2.94000006
   14.40527725   86.33699799    2.13000011    2.93000007
   14.40833282   96.75109863    2.19000006    2.94000006
   14.41166592   87.45700073    2.19000006    2.94000006
   14.41472149   83.30889893    2.19000006    2.94000006
   14.41972256   83.30889893    2.17000008    2.94000006
   14.42388916  101.05799866    2.13000011    2.94000006
   14.42722225   93.21610260    2.13000011    2.94000006
   14.43027782   77.30139923    2.11999989    2.94000006
   14.43361092  111.19200134    2.11999989    2.96000004
   14.43666649   94.83719635    2.11999989    2.94000006
   14.43916702  100.14099884    2.07999992    2.94000006
   14.44027805   90.55979919    2.07999992    2.94000006
   14.44333363  100.63099670    2.07999992    2.94000006
   14.44666672   99.67169952    2.07999992    2.94000006
   14.44972229  109.12899780    2.07999992    2.94000006
   14.45305538   95.10600281    2.09999990    2.94000006
   14.45611095  103.85299683    2.09999990    2.94000006
   14.45944405  110.67299652    2.09999990    2.94000006
   14.46249962  104.13200378    2.11999989    2.94000006
   14.46583271  104.04000092    2.15000010    2.94000006
   14.47111034  104.04000092    2.13000011    2.94000006
   14.47499943   95.18969727    2.13000011    2.94000006
   14.47833252  112.59600067    2.11999989    2.94000006
   14.48138809  100.86599731    2.15000010    2.94000006
   14.48472214   97.68890381    2.21000004    2.94000006
   14.48777771   83.63089752    2.30999994    2.94000006
   14.48916721   93.93139648    2.30999994    2.94000006
   14.49138927   84.05210114    2.25000000    2.94000006
   14.49444485  100.34899902    2.21000004    2.94000006
   14.49777794   92.71869659    2.26999998    2.96000004
   14.50083351   93.02179718    2.28999996    2.94000006
   14.50416660  104.77100372    2.13000011    2.94000006
   14.50722218   94.30899811    2.17000008    2.94000006
   14.51055527   92.70950317    2.17000008    2.94000006
   14.51361084  100.91600037    2.15000010    2.94000006
   14.51694393   88.94589996    2.15000010    2.94000006
   14.52222157   88.94589996    2.21000004    2.94000006
   14.52638817   96.42320251    2.25000000    2.94000006
   14.52944374   95.72550201    2.26999998    2.94000006
   14.53277779   89.62889862    2.26999998    2.94000006
   14.53583336   92.01830292    2.30999994    2.94000006
   14.53916740   87.16850281    2.25000000    2.94000006
   14.53944492   97.34739685    2.25000000    2.94000006
   14.54277802   93.71769714    2.25000000    2.94000006
   14.54583359   90.29489899    2.21000004    2.94000006
   14.54916668   93.28330231    2.19000006    2.94000006
   14.55222225   89.98600006    2.19000006    2.96000004
   14.55555534   84.11779785    2.25000000    2.94000006
   14.55861092   79.46759796    2.17000008    2.94000006
   14.56194496   91.17720032    2.13000011    2.94000006
   14.56500053   87.47669983    2.17000008    2.94000006
   14.56833363   81.16799927    2.21000004    2.94000006
   14.57333374   81.16799927    2.15000010    2.94000006
   14.57750034   85.02970123    2.21000004    2.94000006
   14.58055592   80.47029877    2.21000004    2.94000006
   14.58388901   79.09459686    2.21000004    2.94000006
   14.58694458   82.89800262    2.25000000    2.94000006
   14.58944416   79.86779785    2.30999994    2.94000006
   14.59055519   87.30130005    2.36999989    2.94000006
   14.59361076   81.87570190    2.34999990    2.94000006
   14.59694386   80.67199707    2.32999992    2.94000006
   14.60000038   81.76519775    2.40000010    2.94000006
   14.60333347   82.33619690    2.40000010    2.94000006
   14.60638905   79.17910004    2.44000006    2.94000006
   14.60972214   79.45520020    2.44000006    2.94000006
   14.61277771   81.69319916    2.42000008    2.94000006
   14.61611176   78.54350281    2.42000008    2.94000006
   14.61916637   76.12280273    2.50000000    2.93000007
   14.62444496   76.12280273    2.55999994    2.94000006
   14.62861156   87.28140259    2.48000002    2.93000007
   14.63194466   84.00859833    2.48000002    2.94000006
   14.63500023   80.75209808    2.36999989    2.94000006
   14.63833332   86.27870178    2.34999990    2.94000006
   14.63972187   90.49569702    2.34999990    2.94000006
   14.64194393   80.81849670    2.30999994    2.94000006
   14.64499950   89.51709747    2.30999994    2.94000006
   14.64833355   83.56970215    2.34999990    2.94000006
   14.65138817   82.33879852    2.36999989    2.94000006
   14.65472221   83.55970001    2.39000010    2.94000006
   14.65777779   84.81230164    2.36999989    2.94000006
   14.66111088   90.91549683    2.36999989    2.94000006
   14.66416645   88.89459991    2.39000010    2.93000007
   14.66750050   81.11789703    2.39000010    2.94000006
   14.67055607   87.54060364    2.39000010    2.94000006
   14.67583370   87.54060364    2.30999994    2.94000006
   14.67972279   80.80460358    2.26999998    2.94000006
   14.68305588   82.19950104    2.23000002    2.94000006
   14.68611145   86.72470093    2.32999992    2.94000006
   14.68944454   88.88649750    2.32999992    2.94000006
   14.69000053   90.58499908    2.17000008    2.94000006
   14.69305515   89.27839661    2.17000008    2.94000006
   14.69611073   82.95110321    2.17000008    2.94000006
   14.69944477   93.72830200    2.17000008    2.94000006
   14.70249939   84.62290192    2.25000000    2.94000006
   14.70583344   80.55049896    2.26999998    2.94000006
   14.70888901   89.26930237    2.19000006    2.96000004
   14.71222210   86.85939789    2.30999994    2.94000006
   14.71527767   88.68650055    2.19000006    2.96000004
   14.71861076   88.91570282    2.34999990    2.94000006
   14.72166634   83.39810181    2.48000002    2.96000004
   14.72694397   83.39810181    2.64000010    2.94000006
   14.73111057   83.02069855    2.86999989    2.94000006
   14.73416710   94.07630157    2.91000009    2.94000006
   14.73750019   80.20079803    2.67000008    2.94000006
   14.74000072   83.32679749    2.51999998    2.94000006
   14.74111176   89.59300232    2.48000002    2.93000007
   14.74416733   95.27980042    2.39000010    2.94000006
   14.74750042   89.93219757    2.28999996    2.96000004
   14.75055599   92.65380096    2.25000000    2.94000006
   14.75388908   89.75240326    2.17000008    2.94000006
   14.75694466   88.94470215    2.11999989    2.94000006
   14.76027775   91.37590027    2.13000011    2.94000006
   14.76333332   87.65560150    2.13000011    2.94000006
   14.76666641   91.33750153    2.13000011    2.94000006
   14.76972198   90.24800110    2.13000011    2.94000006
   14.77305508   81.96990204    2.13000011    2.94000006
   14.77805519   81.96990204    2.13000011    2.96000004
   14.78222179   93.41069794    2.11999989    2.94000006
   14.78527832   91.06569672    2.11999989    2.96000004
   14.78861141   80.62889862    2.11999989    2.94000006
   14.79000092   87.46350098    2.11999989    2.94000006
   14.79222298   93.55139923    2.09999990    2.94000006
   14.79527855   81.41230011    2.07999992    2.96000004
   14.79861164   87.23320007    2.05999994    2.96000004
   14.80166721   90.13690186    2.00000000    2.96000004
   14.80500031   88.92320251    2.01999998    2.96000004
   14.80805588   87.73930359    1.98000002    2.96000004
   14.81138897   91.62039948    1.94000006    2.94000006
   14.81444454   84.52709961    1.94000006    2.94000006
   14.81777763   86.70310211    1.91999996    2.94000006
   14.82083321   88.72679901    1.94000006    2.94000006
   14.82416630   82.67620087    1.96000004    2.94000006
   14.82916641   82.67620087    1.98000002    2.94000006
   14.83333302   92.78790283    2.00000000    2.96000004
   14.83666611   94.43849945    2.00000000    2.94000006
   14.83972168   81.46499634    1.98000002    2.94000006
   14.84027767   88.28569794    1.98000002    2.94000006
   14.84305477   90.36569977    1.98000002    2.94000006
   14.84638882   87.45030212    1.96000004    2.94000006
   14.84944439   89.48570251    1.96000004    2.94000006
   14.85277843   90.85009766    2.00000000    2.96000004
   14.85583401   93.80690002    2.01999998    2.94000006
   14.85916710   93.18969727    2.01999998    2.94000006
   14.86222267   87.46739960    2.01999998    2.94000006
   14.86555576   93.29859924    2.03999996    2.94000006
   14.86861134   96.17610168    2.03999996    2.96000004
   14.87194443   90.81469727    2.05999994    2.94000006
   14.87500000   85.32119751    2.07999992    2.94000006
   14.88055611   85.32119751    2.09999990    2.94000006
   14.88444424   88.59960175    2.13000011    2.94000006
   14.88777733   87.93920135    2.19000006    2.94000006
   14.89027786   84.92669678    2.21000004    2.94000006
   14.89111137   83.77760315    2.21000004    2.94000006
   14.89444447   87.34709930    2.26999998    2.94000006
   14.89750004   87.99770355    2.30999994    2.94000006
   14.90083313   79.67890167    2.32999992    2.94000006
   14.90388870   82.03939819    2.36999989    2.94000006
   14.90722179   83.53479767    2.39000010    2.94000006
   14.91027737   85.45829773    2.40000010    2.94000006
   14.91361046   87.14369965    2.39000010    2.94000006
   14.91666698   86.42410278    2.36999989    2.93000007
   14.92000008   82.52500153    2.36999989    2.93000007
   14.92305565   87.42410278    2.39000010    2.93000007
   14.92638874   88.62819672    2.39000010    2.93000007
   14.93166733   88.62819672    2.36999989    2.94000006
   14.93583298   84.47779846    2.36999989    2.94000006
   14.93888855   80.52670288    2.40000010    2.94000006
   14.94027805   85.63710022    2.40000010    2.93000007
   14.94222260   93.72810364    2.44000006    2.93000007
   14.94555569   84.03710175    2.44000006    2.93000007
   14.94861126   87.45629883    2.42000008    2.94000006
   14.95194435   92.05889893    2.44000006    2.93000007
   14.95499992   88.84149933    2.44000006    2.93000007
   14.95833302   81.71430206    2.44000006    2.94000006
   14.96138859   86.88220215    2.44000006    2.94000006
   14.96472168   95.17600250    2.42000008    2.93000007
   14.96777725   85.72170258    2.40000010    2.94000006
   14.97111034   89.18190002    2.34999990    2.94000006
   14.97416592   90.02760315    2.30999994    2.93000007
   14.97749996   96.94139862    2.28999996    2.94000006
   14.98277760   96.94139862    2.13000011    2.94000006
   14.98694515   91.06390381    2.05999994    2.94000006
   14.99000072   87.47959900    2.01999998    2.96000004
   14.99055576   86.34559631    2.01999998    2.96000004
   14.99388885   86.96019745    2.01999998    2.94000006
   14.99694443   86.68689728    1.96000004    2.96000004
   15.00027752   92.49680328    1.91999996    2.96000004
   15.00333309   85.40399933    1.86000001    2.96000004
   15.00666714   87.09700012    1.80999994    2.96000004
   15.00972176   89.05110168    1.78999996    2.98000002
   15.01305580   87.32129669    1.78999996    2.96000004
   15.01611137   86.37650299    1.76999998    2.96000004
   15.01944447   95.03199768    1.73000002    2.96000004
   15.02250004   91.31109619    1.71000004    2.96000004
   15.02583313   83.37840271    1.71000004    2.96000004
   15.02888870   84.34549713    1.71000004    2.96000004
   15.03388977   84.34549713    1.73000002    2.96000004
   15.03805637   92.27469635    1.73000002    2.98000002
   15.04055595   88.83360291    1.76999998    2.96000004
   15.04166698   86.61360168    1.76999998    2.96000004
   15.04472256   83.17680359    1.76999998    2.96000004
   15.04805565   84.14140320    1.66999996    2.96000004
   15.05111122   83.20950317    1.66999996    2.98000002
   15.05444431   84.88749695    1.76999998    2.96000004
   15.05749989   75.40270233    1.88000000    2.96000004
   15.06083393   85.09069824    1.88000000    2.96000004
   15.06388950   89.57379913    1.89999998    2.94000006
   15.06722260   87.29180145    1.94000006    2.94000006
   15.07027817   83.50959778    1.96000004    2.96000004
   15.07361126   94.93750000    1.96000004    2.94000006
   15.07666683   96.40029907    1.98000002    2.94000006
   15.07999992   91.50779724    1.96000004    2.98000002
   15.08527756   91.50779724    1.96000004    2.98000002
   15.08916664   97.39459991    2.30999994    2.94000006
   15.09055519   86.03939819    2.30999994    2.94000006
   15.09277725   96.67009735    2.48000002    2.96000004
   15.09583282   85.99520111    2.61999989    2.89000010
   15.09916592   92.10060120    2.71000004    2.94000006
   15.10222244   93.91529846    2.09999990    2.94000006
   15.10555553   90.91120148    1.94000006    2.96000004
   15.10861111   93.67929840    1.88000000    2.96000004
   15.11194515   99.20999908    1.86000001    2.96000004
   15.11500072   95.08529663    1.98000002    2.96000004
   15.11833382   83.23889923    2.05999994    2.94000006
   15.12138939   87.73269653    2.07999992    2.96000004
   15.12472248   94.19779968    2.36999989    2.94000006
   15.12777805   91.99690247    2.46000004    2.94000006
   15.13111115   92.99839783    2.76999998    2.93000007
   15.13638878   92.99839783    3.05999994    2.93000007
   15.14055538   81.47389984    3.39000010    2.89000010
   15.14083290   87.93589783    3.50000000    2.94000006
   15.14416695   81.93180084    3.75000000    2.91000009
   15.14722252   88.50579834    4.00000000    2.91000009
   15.15055561   84.73789978    4.07999992    2.89000010
   15.15361118   88.38569641    4.82999992    2.91000009
   15.15694427   84.60910034    4.80000019    2.86999989
   15.15999985   84.29380035    4.63999987    2.82999992
   15.16333294   94.20749664    4.01999998    2.91000009
   15.16638851   87.36699677    3.28999996    2.91000009
   15.16972256   84.19460297    3.14000010    2.94000006
   15.17277813   87.91100311    3.25000000    2.91000009
   15.17611122   83.68930054    4.07999992    2.91000009
   15.17916679  137.79499817    4.86999989    2.89000010
   15.18249989   88.27110291    4.90999985    2.84999990
   15.18750000   88.27110291    4.90999985    2.71000004
   15.19166660   80.35489655    4.90999985    2.86999989
   15.19472218   93.00559998    4.90999985    2.82999992
   15.19805527   84.53240204    4.90999985    2.76999998
   15.20111084   91.26260376    4.90999985    2.93000007
   15.20444393  100.81700134    3.43000007    2.93000007
   15.20749950   88.89089966    2.86999989    2.93000007
   15.21083355   91.74909973    2.82999992    2.94000006
   15.21388912   85.91539764    3.03999996    2.94000006
   15.21722221   89.84230042    3.57999992    2.94000006
   15.22027779   76.92479706    3.99000001    2.91000009
   15.22361088   90.68009949    4.07999992    2.91000009
   15.22666645   92.88009644    4.40999985    2.93000007
   15.22999954   91.38379669    4.90999985    2.82999992
   15.23305511   92.56529999    4.90999985    2.82999992
   15.23861122   92.56529999    4.90999985    2.71000004
   15.24277782   83.87190247    4.90999985    2.75000000
   15.24611092   85.90489960    4.90999985    2.89000010
   15.24916649   86.74629974    4.78000021    2.93000007
   15.25249958   80.86299896    2.96000004    2.94000006
   15.25555515   92.94789886    2.67000008    2.93000007
   15.25861073   89.48570251    2.76999998    2.93000007
   15.26194477   87.77580261    2.82999992    2.93000007
   15.26500034   92.10089874    2.89000010    2.93000007
   15.26833344   86.28359985    2.55999994    2.94000006
   15.27138901   91.48439789    2.30999994    2.94000006
   15.27472210   91.25959778    2.21000004    2.94000006
   15.27777767  102.83000183    2.19000006    2.94000006
   15.28111076   88.59120178    2.21000004    2.94000006
   15.28416729   91.32029724    2.17000008    2.94000006
   15.30611134   89.44650269    2.03999996    2.96000004
   15.30638885   90.36640167    2.03999996    2.96000004
   15.30944443   95.76499939    2.00000000    2.96000004
   15.31277752   89.56069946    1.98000002    2.94000006
   15.31583309   86.51640320    1.98000002    2.96000004
   15.31916618   82.24330139    1.89999998    2.96000004
   15.32222176   92.70089722    1.86000001    2.96000004
   15.32555580   87.80930328    1.85000002    2.96000004
   15.32861137   92.61239624    1.83000004    2.98000002
   15.33194447   84.16590118    1.80999994    2.98000002
   15.33527756   86.22139740    1.83000004    2.96000004
   15.34111118   86.22139740    1.85000002    2.96000004
   15.34527779   91.32620239    1.86000001    2.96000004
   15.34833336   88.22059631    1.91999996    2.96000004
   15.35166740   91.58370209    1.94000006    2.96000004
   15.35472298   90.10420227    1.89999998    2.96000004
   15.35583401   79.04170227    1.89999998    2.96000004
   15.35833359   99.84200287    1.94000006    2.96000004
   15.36166668   89.21820068    1.94000006    2.96000004
   15.36472225   93.87889862    1.94000006    2.96000004
   15.36805534   93.57839966    1.89999998    2.96000004
   15.37111092   91.68309784    1.88000000    2.98000002
   15.37444496   84.65699768    1.94000006    2.96000004
   15.37750053   91.51580048    1.91999996    2.96000004
   15.38083363   83.95249939    1.88000000    2.96000004
   15.38388920   90.97930145    1.85000002    2.96000004
   15.38722229  100.80699921    1.76999998    2.98000002
   15.39222240  100.80699921    1.75000000    2.96000004
   15.39638901  100.03600311    1.71000004    2.98000002
   15.39972210  101.37300110    1.71000004    2.98000002
   15.40277767   94.62599945    1.73000002    2.96000004
   15.40583324   94.09220123    1.73000002    2.98000002
   15.40611076   92.59190369    1.73000002    2.98000002
   15.40944386   97.93070221    1.64999998    2.98000002
   15.41249943   91.41110229    1.63000000    2.98000002
   15.41583252   90.45600128    1.64999998    2.96000004
   15.41888905   87.57150269    1.66999996    2.96000004
   15.42222214   89.92060089    1.66999996    2.96000004
   15.42527771   83.31749725    1.71000004    2.96000004
   15.42861176  102.59700012    1.71000004    2.96000004
   15.43166733   94.61530304    1.71000004    2.96000004
   15.43500042   99.05989838    1.71000004    2.98000002
   15.43805599   94.40950012    1.71000004    2.96000004
   15.44361115   94.40950012    1.71000004    2.96000004
   15.44750023   99.10089874    1.63000000    2.98000002
   15.45083332   77.71410370    1.63000000    2.98000002
   15.45388889   88.40090179    1.73000002    2.96000004
   15.45583344  102.09799957    1.76999998    2.98000002
   15.45749950   87.02780151    1.76999998    2.98000002
   15.46083355   87.27760315    1.88000000    2.98000002
   15.46416664   94.52799988    2.48000002    2.96000004
   15.46722221   93.53469849    3.50000000    2.96000004
   15.47055531  100.35500336    4.48999977    2.91000009
   15.47361088   80.40699768    4.90999985    2.93000007
   15.47694397   91.13069916    4.82999992    2.94000006
   15.47999954   84.57350159    3.09999990    2.96000004
   15.48333359   79.67849731    2.13000011    2.98000002
   15.48638916   83.65280151    2.28999996    2.96000004
   15.48972225   80.52610016    2.13000011    2.98000002
   15.49472237   80.52610016    1.85000002    2.96000004
   15.49888897   83.60469818    1.78999996    2.96000004
   15.50194454   86.76249695    1.78999996    2.96000004
   15.50527763   82.92330170    1.80999994    2.98000002
   15.50583363   93.47059631    1.80999994    2.98000002
   15.50888920   89.64839935    1.76999998    2.98000002
   15.51194477   82.89890289    1.75000000    2.98000002
   15.51500034   88.41889954    1.75000000    2.96000004
   15.51833344   88.68669891    1.76999998    2.96000004
   15.52138901   78.39980316    1.76999998    2.96000004
   15.52472210   78.61070251    1.78999996    2.98000002
   15.52805519   81.38469696    2.75000000    2.96000004
   15.53111076   82.77739716    2.07999992    2.98000002
   15.53444481   73.48040009    1.76999998    2.96000004
   15.53750038   78.56950378    1.78999996    2.98000002
   15.54083347   82.99539948    1.63000000    2.98000002
   15.54583359   82.99539948    1.61000001    3.00000000
   15.55000019   78.49629974    1.60000002    2.98000002
   15.55305576   81.56130219    1.58000004    2.98000002
   15.55583382   82.64080048    1.58000004    3.00000000
   15.55694485   84.21559906    1.58000004    3.00000000
   15.56000042   85.14459991    1.53999996    2.98000002
   15.56333351   87.14009857    1.53999996    2.98000002
   15.56638908   86.61280060    1.50000000    2.98000002
   15.56972218   89.70500183    1.50000000    2.98000002
   15.57277775   86.54689789    1.51999998    2.98000002
   15.57611084   89.08769989    1.51999998    2.98000002
   15.57916641   81.92559814    1.51999998    2.98000002
   15.58249950   87.61849976    1.46000004    3.00000000
   15.58555508   84.58190155    1.44000006    3.00000000
   15.58888817   88.86599731    1.44000006    3.00000000
   15.59194374   83.23349762    1.41999996    3.00000000
   15.59694386   83.23349762    1.41999996    3.00000000
   15.60111141   86.84480286    1.46000004    3.00000000
   15.60444450   84.05570221    1.46000004    3.00000000
   15.60583401   83.70050049    1.46000004    3.00000000
   15.60805607   78.83409882    1.46000004    3.00000000
   15.61111164   84.49549866    1.51999998    2.98000002
   15.61444473   80.52050018    1.51999998    2.96000004
   15.61750031   87.21630096    1.51999998    3.00000000
   15.62083340   87.88469696    1.53999996    2.98000002
   15.62388897   83.72409821    1.53999996    2.98000002
   15.62722206   86.54209900    1.55999994    2.98000002
   15.63027763   85.65460205    1.55999994    2.98000002
   15.63361073   84.75180054    1.58000004    2.98000002
   15.63666630   88.60729980    1.50000000    2.98000002
   15.64000034   90.01249695    1.46000004    2.98000002
   15.64305496   86.58010101    1.46000004    3.00000000
   15.64833355   86.58010101    1.44000006    3.00000000
   15.65222168   86.22779846    1.44000006    3.00000000
   15.65555477   87.76090240    1.46000004    3.00000000
   15.65611076   88.11209869    1.46000004    3.00000000
   15.65916634   87.30680084    1.44000006    3.00000000
   15.66249943   89.57050323    1.44000006    3.00000000
   15.66555500   86.75859833    1.44000006    3.00000000
   15.66888905   81.17389679    1.41999996    3.00000000
   15.67194462   83.22669983    1.41999996    3.00000000
   15.67527771   85.27439880    1.41999996    3.00000000
   15.67833328   81.90740204    1.38000000    3.00000000
   15.68166733   81.04250336    1.39999998    3.00000000
   15.68472195   85.55290222    1.38000000    3.00000000
   15.68805599   86.31469727    1.44000006    3.01999998
   15.69111156   81.55899811    1.44000006    3.00000000
   15.69444466   93.98239899    1.50000000    3.00000000
   15.69944477   93.98239899    1.50000000    3.00000000
   15.70361137   88.89219666    1.50000000    3.00000000
   15.70611095   76.52580261    1.46000004    3.00000000
   15.70694447   86.23789978    1.48000002    2.98000002
   15.71027756   82.86280060    1.46000004    2.98000002
   15.71333313   80.45739746    1.46000004    3.00000000
   15.71666622   80.74549866    1.53999996    2.98000002
   15.71972179   83.37870026    1.53999996    2.98000002
   15.72305489   84.42230225    1.58000004    2.98000002
   15.72611046   92.18869781    1.58000004    2.98000002
   15.72944355   89.04679871    1.55999994    2.98000002
   15.73249912   87.44809723    1.55999994    3.00000000
   15.73583317   93.31719971    1.55999994    3.00000000
   15.73888874   90.46070099    1.55999994    3.00000000
   15.74222279   82.15249634    1.55999994    2.98000002
   15.74527836   87.19830322    1.55999994    2.98000002
   15.75055599   87.19830322    1.58000004    2.98000002
   15.75472260   85.21589661    1.58000004    2.98000002
   15.75611115   86.30229950    1.58000004    2.98000002
   15.75805569   88.00229645    1.55999994    2.98000002
   15.76138878   84.85549927    1.55999994    2.98000002
   15.76444435   89.62349701    1.48000002    3.00000000
   15.76777744   88.98320007    1.46000004    3.00000000
   15.77083302   88.90709686    1.41999996    3.00000000
   15.77416611   93.56590271    1.44000006    2.98000002
   15.77722168   88.11959839    1.39999998    3.00000000
   15.78055573   85.65720367    1.44000006    3.00000000
   15.78361130   88.90380096    1.41999996    3.00000000
   15.78694534   97.37439728    1.39999998    2.98000002
   15.79000092   87.34700012    1.39999998    3.00000000
   15.79333401   95.01580048    1.38000000    3.00000000
   15.79638958   93.33799744    1.30999994    3.00000000
   15.80166721   93.33799744    1.30999994    3.00000000
   15.80583382   93.27709961    1.28999996    3.00000000
   15.80638885   86.42790222    1.28999996    3.00000000
   15.80944443   95.01319885    1.28999996    3.00000000
   15.81277752   85.93340302    1.28999996    3.00000000
   15.81583309   92.31240082    1.28999996    3.00000000
   15.81916618   87.82199860    1.30999994    3.00000000
   15.82222176   93.51229858    1.30999994    3.00000000
   15.82555580  100.27799988    1.28999996    3.00000000
   15.82861137   94.11380005    1.28999996    3.00000000
   15.83194447   90.42520142    1.30999994    3.00000000
   15.83500004   98.25969696    1.33000004    3.00000000
   15.83833313   93.90470123    1.33000004    3.01999998
   15.84138870  101.83300018    1.34000003    3.01999998
   15.84472179   80.46170044    1.34000003    3.01999998
   15.84777737   86.20919800    1.33000004    3.00000000
   15.85305595   86.20919800    1.28999996    3.00000000
   15.85694504   88.34960175    1.25000000    3.00000000
   15.86027813   82.85800171    1.25000000    3.00000000
   15.86333370   87.80239868    1.26999998    3.00000000
   15.86666679  101.11000061    1.28999996    3.01999998
   15.86972237   91.03099823    1.26999998    3.01999998
   15.87305546   89.43299866    1.26999998    3.01999998
   15.87638855   91.41790009    1.26999998    3.00000000
   15.87944412  110.07299805    1.26999998    3.00000000
   15.88249969   94.36019897    1.26999998    3.00000000
   15.88583279   79.46140289    1.26999998    3.00000000
   15.88888836   96.47329712    1.26999998    3.00000000
   15.89222240   86.60870361    1.26999998    3.00000000
   15.89527798   90.82790375    1.28999996    3.00000000
   15.89861107   89.42209625    1.28999996    3.00000000
   15.90444374   89.42209625    1.30999994    2.98000002
   15.90833282   98.71099854    1.33000004    3.01999998
   15.91166592   94.07180023    1.34000003    3.00000000
   15.91472149  104.09999847    1.33000004    3.01999998
   15.91805553   89.24089813    1.33000004    3.01999998
   15.92111111   95.31849670    1.30999994    3.00000000
   15.92444515   88.54370117    1.28999996    3.00000000
   15.92750072   86.01629639    1.30999994    3.01999998
   15.93083382   96.37210083    1.33000004    3.00000000
   15.93388939   91.02809906    1.33000004    3.00000000
   15.93722248  104.81300354    1.33000004    3.00000000
   15.94027805   88.83170319    1.30999994    3.01999998
   15.94361115   92.01730347    1.30999994    3.00000000
   15.94666672   98.91230011    1.30999994    3.01999998
   15.94999981   98.45259857    1.34000003    3.01999998
   15.95527744   98.45259857    1.33000004    3.01999998
   15.95944405   76.95349884    1.28999996    3.01999998
   15.96249962   82.96309662    1.28999996    3.00000000
   15.96583271   88.63809967    1.28999996    3.01999998
   15.96888828   87.91600037    1.28999996    3.00000000
   15.97249985   90.10440063    1.34000003    3.00000000
   15.97555542   81.53170013    1.36000001    3.00000000
   15.97888851  101.07299805    1.36000001    3.00000000
   15.98194408   79.86679840    1.46000004    3.00000000
   15.98527813   77.51940155    1.50000000    3.00000000
   15.98833370   84.09459686    1.50000000    3.00000000
   15.99166679   81.71559906    1.55999994    2.98000002
   15.99472237   80.94709778    1.55999994    2.98000002
   15.99805546   83.53639984    1.55999994    3.00000000
   16.00111198   92.28279877    1.58000004    3.00000000
   16.00666618   92.28279877    1.66999996    2.98000002
   16.01055527   82.48259735    1.73000002    2.96000004
   16.01388931   81.23490143    1.75000000    2.98000002
   16.01694489   83.02860260    1.76999998    2.98000002
   16.02027702   84.25859833    1.76999998    2.98000002
   16.02333260   90.25579834    1.78999996    3.00000000
   16.02666664   91.10649872    1.78999996    3.00000000
   16.02972221   86.91210175    1.83000004    2.96000004
   16.03305435   84.35500336    1.85000002    2.98000002
   16.03610992   83.46589661    1.86000001    2.98000002
   16.03944397   82.09269714    1.88000000    2.98000002
   16.04249954   83.21970367    1.89999998    2.96000004
   16.04583359   79.48529816    1.94000006    2.98000002
   16.04888916   84.75710297    1.96000004    2.98000002
   16.05222130   77.80020142    1.96000004    2.98000002
   16.05777740   77.80020142    2.21000004    2.98000002
   16.06166649   85.38449860    2.17000008    2.98000002
   16.06499863   87.67680359    2.15000010    2.98000002
   16.06805611   91.79920197    2.15000010    2.98000002
   16.07139015   93.86689758    2.13000011    2.98000002
   16.07444572   92.00330353    2.13000011    2.98000002
   16.07777786   84.93260193    2.09999990    2.96000004
   16.08083344   86.52970123    2.09999990    2.96000004
   16.08416748   83.40190125    2.05999994    2.98000002
   16.08722305   86.14440155    1.98000002    2.98000002
   16.09055710   86.32160187    1.96000004    2.98000002
   16.09361267   87.55410004    1.91999996    2.98000002
   16.09694481   84.16770172    1.89999998    2.96000004
   16.10000038   88.63870239    1.91999996    2.98000002
   16.10333443   85.54689789    1.96000004    2.96000004
   16.10888863   85.54689789    2.15000010    2.98000002
   16.11305618   83.39710236    2.30999994    2.98000002
   16.11611176   83.26519775    2.48000002    2.98000002
   16.11944389   82.65670013    2.75000000    3.00000000
   16.12249947   85.79350281    3.11999989    3.00000000
   16.12583351   83.09549713    3.57999992    3.00000000
   16.12888908   85.62539673    4.19999981    3.00000000
   16.13222313   88.63520050    4.51000023    3.00000000
   16.13527679   90.00990295    4.90999985    3.00000000
   16.13861084   83.42500305    4.90999985    3.00000000
   16.14166641   84.13710022    4.90999985    3.00000000
   16.14500046   83.59420013    4.90999985    3.00000000
   16.14805603   91.31069946    4.90999985    3.00000000
   16.15138817   89.48200226    4.90999985    3.00000000
   16.15444374   84.79170227    4.90999985    3.00000000
   16.15999985   84.79170227    4.90999985    3.00000000
   16.16416550   89.96260071    4.90999985    3.01999998
   16.16722107   87.77239990    4.90999985    3.00000000
   16.17055511   93.05960083    4.90999985    3.00000000
   16.17361069   90.85530090    4.90999985    3.00000000
   16.17694473   87.20700073    4.90999985    3.00000000
   16.18000031   89.79579926    4.90999985    3.01999998
   16.18333244   86.56310272    4.90999985    3.01999998
   16.18666649   82.54479980    4.90999985    3.01999998
   16.18972206   84.16510010    4.90999985    3.03999996
   16.19305420   83.96880341    4.90999985    3.05999994
   16.19610977   94.52980042    4.90999985    3.05999994
   16.19944382   80.81649780    4.90999985    3.07999992
   16.20250130   88.52079773    4.90999985    3.07999992
   16.20583344   87.86000061    4.90999985    3.07999992
   16.21111107   87.86000061    4.90999985    3.09999990
   16.21527863   93.28359985    4.90999985    3.09999990
   16.21861076   76.57520294    4.90999985    3.09999990
   16.22166634   88.45010376    4.90999985    3.09999990
   16.22500038  105.22299957    4.90999985    3.09999990
   16.22805595   94.02989960    4.90999985    3.11999989
   16.23139000   96.34380341    4.90999985    3.09999990
   16.23444557   98.94529724    4.90999985    3.09999990
   16.23777771  134.23500061    4.90999985    3.09999990
   16.24083328   97.07769775    4.90999985    3.07999992
   16.24416733   98.02870178    4.90999985    3.05999994
   16.24722290   97.67379761    0.13000000    0.41999999
   16.25055504  110.51999664    0.11000000    0.17000000
   16.25361061   87.93560028    0.11000000    0.17000000
   16.25694466   95.19069672    0.11000000    0.17000000
   16.26250076   95.19069672    0.11000000    0.17000000
   16.26638794   91.28690338    0.11000000    0.17000000
   16.26972198  103.67299652    0.11000000    0.17000000
   16.27277756  102.73799896    0.11000000    0.17000000
   16.27611160  112.80799866    0.11000000    0.17000000
   16.27916718  102.21800232    0.11000000    0.17000000
   16.28249931   93.77110291    0.11000000    0.17000000
   16.28555489   98.54779816    0.11000000    0.17000000
   16.28888893  103.97399902    0.11000000    0.17000000
   16.29194450  112.58000183    0.11000000    0.17000000
   16.29527664   89.19609833    0.11000000    0.17000000
   16.29833221   99.56670380    0.11000000    0.17000000
   16.30166626  138.22300720    0.11000000    0.17000000
   16.30472183   91.56120300    0.11000000    0.17000000
   16.32638931   91.56120300    0.11000000    0.17000000
   16.33027840  112.72799683    0.11000000    0.17000000
   16.33361244  117.60399628    0.11000000    0.17000000
   16.33666801   98.81060028    0.11000000    0.17000000
   16.34000015  117.61100006    0.11000000    0.17000000
   16.34305573  126.54299927    0.11000000    0.17000000
   16.34638977  134.82400513    0.11000000    0.17000000
   16.34944534  183.59399414    0.11000000    0.17000000
   16.35277748  164.73300171    0.11000000    0.17000000
   16.35583305  214.86399841    0.11000000    0.17000000
   16.35916710  166.17300415    0.11000000    0.17000000
   16.36222267  158.45199585    0.11000000    0.17000000
   16.36555672  111.25099945    0.11000000    0.17000000
   16.36861038  180.41099548    0.11000000    0.17000000
   16.37194443  147.16299438    0.11000000    0.17000000
   16.37361145  144.92599487    0.11000000    0.17000000
   16.37777710  144.92599487    0.11000000    0.17000000
   16.38194466  117.71099854    0.11000000    0.17000000
   16.38500023  144.23699951    0.11000000    0.17000000
   16.38833237   87.44180298    0.11000000    0.17000000
   16.39138794  121.70999908    0.11000000    0.17000000
   16.39472198  131.69400024    0.11000000    0.17000000
   16.39777756  108.35399628    0.11000000    0.17000000
   16.40111160  114.84300232    0.11000000    0.17000000
   16.40416718  138.25500488    0.11000000    0.17000000
   16.40749931  147.22300720    0.11000000    0.17000000
   16.41055489  123.92600250    0.11000000    0.17000000
   16.41388893  116.58000183    0.11000000    0.17000000
   16.41694450  113.53900146    0.11000000    0.17000000
   16.42027664   97.03589630    0.11000000    0.17000000
   16.42333221  111.69499969    0.11000000    0.17000000
   16.42388916  112.15699768    0.11000000    0.17000000
   16.42888832  112.15699768    0.11000000    0.17000000
   16.43305397   78.69589996    0.11000000    0.17000000
   16.43638802  139.61399841    0.11000000    0.17000000
   16.43944359  113.99900055    0.11000000    0.17000000
   16.44277763  115.83100128    0.11000000    0.17000000
   16.44583321  115.80200195    0.11000000    0.17000000
   16.44916534  128.38999939    0.11000000    0.17000000
   16.45222282  115.19400024    0.11000000    0.17000000
   16.45555687  107.17099762    0.11000000    0.17000000
   16.45861244  112.68499756    0.11000000    0.17000000
   16.46194458  117.95999908    0.11000000    0.17000000
   16.46500015  111.63800049    0.11000000    0.17000000
   16.46833420  116.74400330    0.11000000    0.17000000
   16.47138977  103.76100159    0.11000000    0.17000000
   16.47389030  121.82399750    0.11000000    0.17000000
   16.47527885  114.38700104    0.11000000    0.17000000
   16.48027802  114.38700104    0.11000000    0.17000000
   16.48416710  111.91899872    0.11000000    0.17000000
   16.48750114  126.92900085    0.11000000    0.17000000
   16.49055672  113.30799866    0.11000000    0.17000000
   16.49388885  120.67299652    0.11000000    0.17000000
   16.49694443  109.69899750    0.11000000    0.17000000
   16.50027847   97.57659912    0.11000000    0.17000000
   16.50333405  119.67500305    0.11000000    0.17000000
   16.50666618  101.25199890    0.11000000    0.17000000
   16.50972176   99.89520264    0.11000000    0.17000000
   16.51305580   94.59660339    0.11000000    0.17000000
   16.51611137  112.77400208    0.11000000    0.17000000
   16.51944351   91.89659882    0.11000000    0.17000000
   16.52277756   97.09510040    0.11000000    0.17000000
   16.52388954  118.97000122    0.11000000    0.17000000
   16.52638817  109.36299896    0.11000000    0.17000000
   16.53138924  109.36299896    0.11000000    0.17000000
   16.53555489   99.82659912    0.11000000    0.17000000
   16.53861046  106.67400360    0.11000000    0.17000000
   16.54194450   99.11070251    0.11000000    0.17000000
   16.54500008  102.19400024    0.11000000    0.17000000
   16.54833221   93.09459686    0.11000000    0.17000000
   16.55138779  110.63200378    0.11000000    0.17000000
   16.55472183   99.61360168    0.11000000    0.17000000
   16.55777740   89.64969635    0.11000000    0.17000000
   16.56110954   97.64739990    0.11000000    0.17000000
   16.56416512   98.19750214    0.11000000    0.17000000
   16.56750107   88.69239807    0.11000000    0.17000000
   16.57055664   88.26419830    0.11000000    0.17000000
   16.57389069   87.32469940    0.11000000    0.17000000
   16.57416725   91.20649719    0.11000000    0.17000000
   16.57750130   99.11920166    0.11000000    0.17000000
   16.58250046   99.11920166    0.11000000    0.17000000
   16.58666801   90.55300140    0.11000000    0.17000000
   16.58972359   92.83889771    0.11000000    0.17000000
   16.59305573   97.35880280    0.11000000    0.17000000
   16.59611130   91.46849823    0.11000000    0.17000000
   16.59944534   89.08260345    0.11000000    0.17000000
   16.60250092   92.54969788    0.11000000    0.17000000
   16.60583305   88.91780090    0.11000000    0.17000000
   16.60916710   89.01180267    0.11000000    0.17000000
   16.61222267   91.80690002    0.11000000    0.17000000
   16.61555672   94.82599640    0.11000000    0.17000000
   16.61861038   96.41059875    0.11000000    0.17000000
   16.62194443   95.26270294    0.11000000    0.17000000
   16.62416649   87.00939941    0.11000000    0.17000000
   16.62555504   90.78800201    0.11000000    0.17000000
   16.62861061   96.00610352    0.11000000    0.17000000
   16.63361168   96.00610352    0.11000000    0.17000000
   16.63777733   93.67669678    0.11000000    0.17000000
   16.64111137  108.64499664    0.11000000    0.17000000
   16.64416695  110.01399994    0.11000000    0.17000000
   16.64749908  104.65499878    0.11000000    0.17000000
   16.65055466   87.44339752    0.11000000    0.17000000
   16.65388870   87.34230042    0.11000000    0.17000000
   16.65694427  102.44100189    0.11000000    0.17000000
   16.66027832   87.65049744    0.11000000    0.17000000
   16.66333389   97.17819977    0.11000000    0.17000000
   16.66666603   92.03939819    0.11000000    0.17000000
   16.66972160   82.09860229    0.11000000    0.17000000
   16.67305565   81.76740265    0.11000000    0.17000000
   16.67416573   86.78209686    0.11000000    0.17000000
   16.67638779   88.31050110    0.11000000    0.17000000
   16.67944336   86.41490173    0.11000000    0.17000000
   16.68499947   86.41490173    0.11000000    0.17000000
   16.68888855   95.34459686    0.11000000    0.17000000
   16.69222069   88.59079742    0.11000000    0.17000000
   16.69527626   86.65799713    0.11000000    0.17000000
   16.69861031   86.03649902    0.11000000    0.17000000
   16.70166779   85.59470367    0.11000000    0.17000000
   16.70499992   83.44490051    0.11000000    0.17000000
   16.70805550   76.53919983    0.11000000    0.17000000
   16.71138954   79.85549927    0.11000000    0.17000000
   16.71444511   79.53690338    0.11000000    0.17000000
   16.71777916   81.90429688    0.11000000    0.17000000
   16.72083473   82.57610321    0.11000000    0.17000000
   16.72416687   85.69319916    0.11000000    0.17000000
   16.72472191   87.56390381    0.11000000    0.17000000
   16.72777748   88.05909729    0.11000000    0.17000000
   16.73111153   84.41259766    0.11000000    0.17000000
   16.73611069   84.41259766    0.11000000    0.17000000
   16.74027824   84.94819641    0.11000000    0.17000000
   16.74333382   81.40409851    0.11000000    0.17000000
   16.74666786   83.41809845    0.11000000    0.17000000
   16.74972153   91.36229706    0.11000000    0.17000000
   16.75305557   80.64530182    0.11000000    0.17000000
   16.75611115   85.94539642    0.11000000    0.17000000
   16.75944519   81.08260345    0.11000000    0.17000000
   16.76250076   82.15059662    0.11000000    0.17000000
   16.76583290   80.71230316    0.11000000    0.17000000
   16.76888847   84.66359711    0.11000000    0.17000000
   16.77222252   83.12729645    0.11000000    0.17000000
   16.77472115   81.65260315    0.11000000    0.17000000
   16.77555466   92.54910278    0.11000000    0.17000000
   16.77861023   84.76930237    0.11000000    0.17000000
   16.78194427   93.81030273    0.11000000    0.17000000
   16.78722191   93.81030273    0.11000000    0.17000000
   16.79138756   93.35350037    0.11000000    0.17000000
   16.79444313   88.48909760    0.11000000    0.17000000
   16.79777718   87.41709900    0.11000000    0.17000000
   16.80083275   80.65650177    0.11000000    0.17000000
   16.80416679   78.33350372    0.11000000    0.17000000
   16.80722237   93.64330292    0.11000000    0.17000000
   16.81055450   95.05829620    0.11000000    0.17000000
   16.81361008   93.23380280    0.11000000    0.17000000
   16.81694603   84.62020111    0.11000000    0.17000000
   16.82000160   81.95420074    0.11000000    0.17000000
   16.82333374   87.94499969    0.11000000    0.17000000
   16.82472229   85.61160278    0.11000000    0.17000000
   16.82666779   95.50299835    0.11000000    0.17000000
   16.83000183   95.30879974    0.11000000    0.17000000
   16.83305550   86.91290283    0.11000000    0.17000000
   16.83833313   86.91290283    0.11000000    0.17000000
   16.84250069   86.99330139    0.11000000    0.17000000
   16.84583473   86.55100250    0.11000000    0.17000000
   16.84889030   83.71399689    0.11000000    0.17000000
   16.85222244   88.17970276    0.11000000    0.17000000
   16.85527802   78.77269745    0.11000000    0.17000000
   16.85861206   88.36689758    0.11000000    0.17000000
   16.86166763   88.39579773    0.11000000    0.17000000
   16.86499977   93.58940125    0.11000000    0.17000000
   16.86805534   85.02020264    0.11000000    0.17000000
   16.87138939   82.84709930    0.11000000    0.17000000
   16.87444496   79.06670380    0.11000000    0.17000000
   16.87500000   85.17710114    0.11000000    0.17000000
   16.87805557   89.02159882    0.11000000    0.17000000
   16.88138962   85.25640106    0.11000000    0.17000000
   16.88444519   87.35310364    0.11000000    0.17000000
   16.88972282   87.35310364    0.11000000    0.17000000
   16.89361191   85.45240021    0.11000000    0.17000000
   16.89694405   89.65889740    0.11000000    0.17000000
   16.89999962   88.16329956    0.11000000    0.17000000
   16.90333366   83.83270264    0.11000000    0.17000000
   16.90638924   87.45099640    0.11000000    0.17000000
   16.90972137   85.69509888    0.11000000    0.17000000
   16.91277695   87.58039856    0.11000000    0.17000000
   16.91611099   93.98709869    0.11000000    0.17000000
   16.91916656  100.51100159    0.11000000    0.17000000
   16.92249870   95.45629883    0.11000000    0.17000000
   16.92499924   86.95619965    0.11000000    0.17000000
   16.92583275   88.55829620    0.11000000    0.17000000
   16.92916679   93.15319824    0.11000000    0.17000000
   16.93222237   85.71520233    0.11000000    0.17000000
   16.93555450   87.63009644    0.11000000    0.17000000
   16.94083214   87.63009644    0.11000000    0.17000000
   16.94499969   88.95680237    0.11000000    0.17000000
   16.94805527   89.43689728    0.11000000    0.17000000
   16.95138931   81.01560211    0.11000000    0.17000000
   16.95444489   86.57949829    0.11000000    0.17000000
   16.95777893   83.26809692    0.11000000    0.17000000
   16.96083450   84.17150116    0.11000000    0.17000000
   16.96416664   92.60800171    0.11000000    0.17000000
   16.96722221   84.24600220    0.11000000    0.17000000
   16.97055626   80.79799652    0.11000000    0.17000000
   16.97361183   82.91600037    0.11000000    0.17000000
   16.97500038   80.53199768    0.11000000    0.17000000
   16.97694588   80.82050323    0.11000000    0.17000000
   16.98027802   82.48239899    0.11000000    0.17000000
   16.98333359   84.77510071    0.11000000    0.17000000
   16.98666763   82.30989838    0.11000000    0.17000000
   16.99194527   82.30989838    0.11000000    0.17000000
   16.99611092   96.48390198    0.11000000    0.17000000
   16.99916649   82.84660339    0.11000000    0.17000000
   17.00250053   87.58740234    0.11000000    0.17000000
   17.00555611   92.55310059    0.11000000    0.17000000
   17.00888824   88.44470215    0.11000000    0.17000000
   17.01194382   85.88500214    0.11000000    0.17000000
   17.01527786   90.84140015    0.11000000    0.17000000
   17.01833344   82.36380005    0.11000000    0.17000000
   17.02166557   92.49829865    0.11000000    0.17000000
   17.02472115   80.14520264    0.11000000    0.17000000
   17.02527809   89.28179932    0.11000000    0.17000000
   17.02861023  102.45899963    0.11000000    0.17000000
   17.03166580   88.52549744    0.11000000    0.17000000
   17.03499985   89.40809631    0.11000000    0.17000000
   17.03805542   92.37239838    0.11000000    0.17000000
   17.04305458   92.37239838    0.11000000    0.17000000
   17.04722214  107.58999634    0.11000000    0.17000000
   17.05055428   99.32379913    0.11000000    0.17000000
   17.05360985   89.22329712    0.11000000    0.17000000
   17.05694389   95.18489838    0.11000000    0.17000000
   17.05999947   85.70980072    0.11000000    0.17000000
   17.06333351   82.53769684    0.11000000    0.17000000
   17.06638718   95.98519897    0.11000000    0.17000000
   17.06972313   78.89700317    0.11000000    0.17000000
   17.07277870   94.09940338    0.11000000    0.17000000
   17.07527924   92.63780212    0.11000000    0.17000000
   17.07638931   91.25389862    0.11000000    0.17000000
   17.07944489   96.52390289    0.11000000    0.17000000
   17.08250046   91.76609802    0.11000000    0.17000000
   17.08583450   87.96610260    0.11000000    0.17000000
   17.08889008   93.39700317    0.11000000    0.17000000
   17.09444427   93.39700317    0.11000000    0.17000000
   17.09833336   88.62779999    0.11000000    0.17000000
   17.10166740   87.63300323    0.11000000    0.17000000
   17.10472298   83.66870117    0.11000000    0.17000000
   17.10805511   89.77819824    0.11000000    0.17000000
   17.11111069   84.72730255    0.11000000    0.17000000
   17.11444473   93.33679962    0.11000000    0.17000000
   17.11750031   88.31320190    0.11000000    0.17000000
   17.12083435   87.37550354    0.11000000    0.17000000
   17.12388992   90.07720184    0.11000000    0.17000000
   17.12527847   85.91510010    0.11000000    0.17000000
   17.12750053   85.29889679    0.11000000    0.17000000
   17.13055611   94.89140320    0.11000000    0.17000000
   17.13388824   88.53179932    0.11000000    0.17000000
   17.13694382   91.34429932    0.11000000    0.17000000
   17.14027786   91.25460052    0.11000000    0.17000000
   17.14555550   91.25460052    0.11000000    0.17000000
   17.14944458   86.18000031    0.11000000    0.17000000
   17.15277672   79.57450104    0.11000000    0.17000000
   17.15583229   85.27110291    0.11000000    0.17000000
   17.15916634   81.45649719    0.11000000    0.17000000
   17.16222191   81.95829773    0.11000000    0.17000000
   17.16555595   82.71970367    0.11000000    0.17000000
   17.16860962   92.39060211    0.11000000    0.17000000
   17.17194366   86.01709747    0.11000000    0.17000000
   17.17499924   86.55339813    0.11000000    0.17000000
   17.17555428   88.40869904    0.11000000    0.17000000
   17.17888832   88.24990082    0.11000000    0.17000000
   17.18194389   92.83809662    0.11000000    0.17000000
   17.18527603   92.32949829    0.11000000    0.17000000
   17.18833160   89.71089935    0.11000000    0.17000000
   17.19166565   80.42289734    0.11000000    0.17000000
   17.19666672   80.42289734    0.11000000    0.17000000
   17.20083427   89.37249756    0.11000000    0.17000000
   17.20388985   87.66840363    0.11000000    0.17000000
   17.20722389   84.36190033    0.11000000    0.17000000
   17.21027946   84.28079987    0.11000000    0.17000000
   17.21361160   85.58280182    0.11000000    0.17000000
   17.21666718   90.65709686    0.11000000    0.17000000
   17.22000122   81.87950134    0.11000000    0.17000000
   17.22305679   89.14810181    0.11000000    0.17000000
   17.22583389   85.79720306    0.11000000    0.17000000
   17.22666740   79.80529785    0.11000000    0.17000000
   17.23000145   88.49089813    0.11000000    0.17000000
   17.23305511   84.94349670    0.11000000    0.17000000
   17.23638916   82.78389740    0.11000000    0.17000000
   17.23944473   83.96299744    0.11000000    0.17000000
   17.24277878   81.46890259    0.11000000    0.17000000
   17.24777794   81.46890259    0.11000000    0.17000000
   17.25194359   89.12059784    0.11000000    0.17000000
   17.25527763   91.80619812    0.11000000    0.17000000
   17.25833321   88.64089966    0.11000000    0.17000000
   17.26166725   80.98020172    0.11000000    0.17000000
   17.26472282   79.26039886    0.11000000    0.17000000
   17.26805496   87.69000244    0.11000000    0.17000000
   17.27111053   90.51570129    0.11000000    0.17000000
   17.27444458   87.66510010    0.11000000    0.17000000
   17.27583313   81.88569641    0.11000000    0.17000000
   17.27777672   93.50119781    0.11000000    0.17000000
   17.28111076   91.67019653    0.11000000    0.17000000
   17.28416634   88.26989746    0.11000000    0.17000000
   17.28750038   87.07649994    0.11000000    0.17000000
   17.29055595   87.89669800    0.11000000    0.17000000
   17.29388809   88.87470245    0.11000000    0.17000000
   17.29916573   88.87470245    0.11000000    0.17000000
   17.30305481   88.88529968    0.11000000    0.17000000
   17.30638885   85.38809967    0.11000000    0.17000000
   17.30944443   83.73709869    0.11000000    0.17000000
   17.31277657   82.20269775    0.11000000    0.17000000
   17.31583214   84.99649811    0.11000000    0.17000000
   17.31916809   93.20850372    0.11000000    0.17000000
   17.32222366   92.81999969    0.11000000    0.17000000
   17.33944511   78.60800171    0.11000000    0.17000000
   17.34194565   75.06759644    0.11000000    0.17000000
   17.34500122   80.97859955    0.11000000    0.17000000
   17.35027885   80.97859955    0.11000000    0.17000000
   17.35444450   75.53820038    0.11000000    0.17000000
   17.35777855   74.82039642    0.11000000    0.17000000
   17.36083412   77.06520081    0.11000000    0.17000000
   17.36416626   76.63030243    0.11000000    0.17000000
   17.36722183   80.32309723    0.11000000    0.17000000
   17.37055588   86.26660156    0.11000000    0.17000000
   17.37361145   86.98909760    0.11000000    0.17000000
   17.37694550   78.17929840    0.11000000    0.17000000
   17.38000107   83.21369934    0.11000000    0.17000000
   17.38333321   82.44010162    0.11000000    0.17000000
   17.38638878   80.17150116    0.11000000    0.17000000
   17.38944435   76.40390015    0.11000000    0.17000000
   17.38972282   74.89250183    0.11000000    0.17000000
   17.39305496   82.33750153    0.11000000    0.17000000
   17.39611053   86.58889771    0.11000000    0.17000000
   17.40166664   86.58889771    0.11000000    0.17000000
   17.40555573   85.46910095    0.11000000    0.17000000
   17.40888786   79.48709869    0.11000000    0.17000000
   17.41194344   81.66870117    0.11000000    0.17000000
   17.41527748   83.19920349    0.11000000    0.17000000
   17.41833305   84.12120056    0.11000000    0.17000000
   17.42166519   77.82530212    0.11000000    0.17000000
   17.42472076   79.21240234    0.11000000    0.17000000
   17.42805481   84.02469635    0.11000000    0.17000000
   17.43111038   78.09860229    0.11000000    0.17000000
   17.43444443   80.66870117    0.11000000    0.17000000
   17.43750000   78.83550262    0.11000000    0.17000000
   17.43944359   75.89920044    0.11000000    0.17000000
   17.44111061   81.24649811    0.11000000    0.17000000
   17.44444275   82.63970184    0.11000000    0.17000000
   17.44749832   84.68039703    0.11000000    0.17000000
   17.45277786   84.68039703    0.11000000    0.17000000
   17.45694542   85.62079620    0.11000000    0.17000000
   17.46000099   85.36479950    0.11000000    0.17000000
   17.46333504   85.55889893    0.11000000    0.17000000
   17.46638870   88.59380341    0.11000000    0.17000000
   17.46972275   81.87169647    0.11000000    0.17000000
   17.47277832   90.44180298    0.11000000    0.17000000
   17.47611237   83.32319641    0.11000000    0.17000000
   17.47916794   81.66570282    0.11000000    0.17000000
   17.48250008   93.79360199    0.11000000    0.17000000
   17.48555565   86.86750031    0.11000000    0.17000000
   17.48888969   90.79049683    0.11000000    0.17000000
   17.48944473   83.19879913    0.11000000    0.17000000
   17.49222183   89.03810120    0.11000000    0.17000000
   17.49555588   92.26480103    0.11000000    0.17000000
   17.49861145   88.72000122    0.11000000    0.17000000
   17.50388908   88.72000122    0.11000000    0.17000000
   17.50805473   84.98739624    0.11000000    0.17000000
   17.51111031   87.24849701    0.11000000    0.17000000
   17.51444435   79.21040344    0.11000000    0.17000000
   17.51749992   86.12339783    0.11000000    0.17000000
   17.52083397   85.70140076    0.11000000    0.17000000
   17.52388954   84.54260254    0.11000000    0.17000000
   17.52722168   93.04409790    0.11000000    0.17000000
   17.53027725   82.70760345    0.11000000    0.17000000
   17.53361130   81.89209747    0.11000000    0.17000000
   17.53666687   98.28379822    0.11000000    0.17000000
   17.53944397   90.70320129    0.11000000    0.17000000
   17.54055595   89.76349640    0.11000000    0.17000000
   17.54361153   92.12760162    0.11000000    0.17000000
   17.54666710   81.11460114    0.11000000    0.17000000
   17.54999924   94.85549927    0.11000000    0.17000000
   17.55499840   94.85549927    0.11000000    0.17000000
   17.55916595   91.27649689    0.11000000    0.17000000
   17.56250000   81.03199768    0.11000000    0.17000000
   17.56555557   80.08029938    0.11000000    0.17000000
   17.56888962   86.32350159    0.11000000    0.17000000
   17.57194519   90.67479706    0.11000000    0.17000000
   17.57527924   95.93389893    0.11000000    0.17000000
   17.57833481   86.17089844    0.11000000    0.17000000
   17.58166695   92.37979889    0.11000000    0.17000000
   17.58472252   88.89219666    0.11000000    0.17000000
   17.58805656   76.11620331    0.11000000    0.17000000
   17.58944511   80.76490021    0.11000000    0.17000000
   17.59166718   81.13860321    0.11000000    0.17000000
   17.59472275   86.50019836    0.11000000    0.17000000
   17.59805679   83.20390320    0.11000000    0.17000000
   17.60111237   79.83129883    0.11000000    0.17000000
   17.60639000   79.83129883    0.11000000    0.17000000
   17.61027908   96.55629730    0.11000000    0.17000000
   17.61361122   82.17690277    0.11000000    0.17000000
   17.61666679   86.12100220    0.11000000    0.17000000
   17.62000084   81.02510071    0.11000000    0.17000000
   17.62305641   88.64040375    0.11000000    0.17000000
   17.62638855   88.13580322    0.11000000    0.17000000
   17.62944412   85.12200165    0.11000000    0.17000000
   17.63277817   85.89399719    0.11000000    0.17000000
   17.63583374   83.02500153    0.11000000    0.17000000
   17.63916588   85.17040253    0.11000000    0.17000000
   17.63972282   83.42630005    0.11000000    0.17000000
   17.64277840   94.43430328    0.11000000    0.17000000
   17.64583397   82.45230103    0.11000000    0.17000000
   17.64916611   81.52320099    0.11000000    0.17000000
   17.65222168   80.81999969    0.11000000    0.17000000
   17.65749931   80.81999969    0.11000000    0.17000000
   17.66138840   84.74629974    0.11000000    0.17000000
   17.66472244   88.40910339    0.11000000    0.17000000
   17.66777802   78.67469788    0.11000000    0.17000000
   17.67111015   81.78959656    0.11000000    0.17000000
   17.67416573   84.31259918    0.11000000    0.17000000
   17.67749977   89.46330261    0.11000000    0.17000000
   17.68055534   82.60310364    0.11000000    0.17000000
   17.68388748   79.43039703    0.11000000    0.17000000
   17.68694305   85.31970215    0.11000000    0.17000000
   17.68999863   76.67870331    0.11000000    0.17000000
   17.69083214   80.00859833    0.11000000    0.17000000
   17.69388771   79.49659729    0.11000000    0.17000000
   17.69694328   82.02120209    0.11000000    0.17000000
   17.70027924   77.07440186    0.11000000    0.17000000
   17.70333481   78.28009796    0.11000000    0.17000000
   17.70861244   78.28009796    0.11000000    0.17000000
   17.71277809   77.07469940    0.11000000    0.17000000
   17.71583366   84.07489777    0.11000000    0.17000000
   17.71916771   83.08879852    0.11000000    0.17000000
   17.72222328   84.18199921    0.11000000    0.17000000
   17.72555542   90.58589935    0.11000000    0.17000000
   17.72861099   85.22840118    0.11000000    0.17000000
   17.73194504   85.81909943    0.11000000    0.17000000
   17.73500061   82.97609711    0.11000000    0.17000000
   17.73833275   79.46230316    0.11000000    0.17000000
   17.73999977   85.94470215    0.11000000    0.17000000
   17.74194527   78.19390106    0.11000000    0.17000000
   17.74500084   82.08619690    0.11000000    0.17000000
   17.74833298   77.63719940    0.11000000    0.17000000
   17.75138855   79.18840027    0.11000000    0.17000000
   17.75472260   80.02780151    0.11000000    0.17000000
   17.75972176   80.02780151    0.11000000    0.17000000
   17.76388931   83.43250275    0.11000000    0.17000000
   17.76694489   86.08619690    0.11000000    0.17000000
   17.77027702   82.29429626    0.11000000    0.17000000
   17.77333260   84.87560272    0.11000000    0.17000000
   17.77666664   83.29679871    0.11000000    0.17000000
   17.77972221   81.48770142    0.11000000    0.17000000
   17.78305435   83.48229980    0.11000000    0.17000000
   17.78610992   76.29450226    0.11000000    0.17000000
   17.78944397   84.40879822    0.11000000    0.17000000
   17.78999901   86.87220001    0.11000000    0.17000000
   17.79305458   86.31449890    0.11000000    0.17000000
   17.79611015   85.06420135    0.11000000    0.17000000
   17.79944420   91.50759888    0.11000000    0.17000000
   17.80249977   85.03790283    0.11000000    0.17000000
   17.80583191   85.95800018    0.11000000    0.17000000
   17.81110954   85.95800018    0.11000000    0.17000000
   17.81499863   83.08799744    0.11000000    0.17000000
   17.81833458   88.40429688    0.11000000    0.17000000
   17.82139015   84.19750214    0.11000000    0.17000000
   17.82472229   93.48110199    0.11000000    0.17000000
   17.82777786   89.86329651    0.11000000    0.17000000
   17.83111191   93.67140198    0.11000000    0.17000000
   17.83416748   89.68309784    0.11000000    0.17000000
   17.83750153   80.97560120    0.11000000    0.17000000
   17.84000015   81.34380341    0.11000000    0.17000000
   17.84111214   78.04689789    0.11000000    0.17000000
   17.84416771   83.21980286    0.11000000    0.17000000
   17.84749985   85.20739746    0.11000000    0.17000000
   17.85055542   84.28250122    0.11000000    0.17000000
   17.85388947   83.47200012    0.11000000    0.17000000
   17.85694504   81.80290222    0.11000000    0.17000000
   17.86222267   81.80290222    0.11000000    0.17000000
   17.86611176   84.24030304    0.11000000    0.17000000
   17.86944389   84.98670197    0.11000000    0.17000000
   17.87249947   78.06030273    0.11000000    0.17000000
   17.87583351   79.27380371    0.11000000    0.17000000
   17.87888908   75.97389984    0.11000000    0.17000000
   17.88222313   82.95800018    0.11000000    0.17000000
   17.88527679   82.54920197    0.11000000    0.17000000
   17.88861084   78.86650085    0.11000000    0.17000000
   17.88999939   89.44439697    0.11000000    0.17000000
   17.89222145   81.30210114    0.11000000    0.17000000
   17.89527702   84.42160034    0.11000000    0.17000000
   17.89861107   86.36299896    0.11000000    0.17000000
   17.90166664   79.25460052    0.11000000    0.17000000
   17.90499878   79.09030151    0.11000000    0.17000000
   17.90805435   79.47560120    0.11000000    0.17000000
   17.91333389   79.47560120    0.11000000    0.17000000
   17.91749954  209.74699402    0.11000000    0.17000000
   17.92055511   83.29460144    0.11000000    0.17000000
   17.92388916   83.81600189    0.11000000    0.17000000
   17.92694473   79.15840149    0.11000000    0.17000000
   17.93027687   78.34670258    0.11000000    0.17000000
   17.93333244   76.71219635    0.11000000    0.17000000
   17.93666649   81.97550201    0.11000000    0.17000000
   17.93972206   86.44170380    0.11000000    0.17000000
   17.94027710   80.35720062    0.11000000    0.17000000
   17.94333267   78.25499725    0.11000000    0.17000000
   17.94666672   78.69819641    0.11000000    0.17000000
   17.94972038   83.16709900    0.11000000    0.17000000
   17.95305634   82.15019989    0.11000000    0.17000000
   17.95611191   79.43659973    0.11000000    0.17000000
   17.95944595   81.49569702    0.11000000    0.17000000
   17.96444511   81.49569702    0.11000000    0.17000000
   17.96861076   85.28759766    0.11000000    0.17000000
   17.97166634   84.30999756    0.11000000    0.17000000
   17.97500038   85.05709839    0.11000000    0.17000000
   17.97805595   78.83899689    0.11000000    0.17000000
   17.98139000   79.82679749    0.11000000    0.17000000
   17.98444557   76.99089813    0.11000000    0.17000000
   17.98777771   79.17590332    0.11000000    0.17000000
   17.99027824   76.81520081    0.11000000    0.17000000
   17.99111176   79.41850281    0.11000000    0.17000000
   17.99444389   80.09750366    0.11000000    0.17000000
   17.99749947   81.64530182    0.11000000    0.17000000
   18.00083351   74.52629852    0.11000000    0.17000000
   18.00388908   79.57309723    0.11000000    0.17000000
   18.00722313   76.51740265    0.11000000    0.17000000
   18.01027870   76.61270142    0.11000000    0.17000000
   18.01555634   76.61270142    0.11000000    0.17000000
   18.01972198   79.29499817    0.11000000    0.17000000
   18.02305603   76.19149780    0.11000000    0.17000000
   18.02611160   80.16850281    0.11000000    0.17000000
   18.02944374   77.56420135    0.11000000    0.17000000
   18.03249931   79.46089935    0.11000000    0.17000000
   18.03583336   84.28980255    0.11000000    0.17000000
   18.03888893   78.29689789    0.11000000    0.17000000
   18.04027748   79.92510223    0.11000000    0.17000000
   18.04222107   74.50849915    0.11000000    0.17000000
   18.04555511   79.00099945    0.11000000    0.17000000
   18.04861069   79.57409668    0.11000000    0.17000000
   18.05194283   74.78659821    0.11000000    0.17000000
   18.05499840   85.43540192    0.11000000    0.17000000
   18.05833244   81.05629730    0.11000000    0.17000000
   18.06138802   78.20649719    0.11000000    0.17000000
   18.06694603   78.20649719    0.11000000    0.17000000
   18.07083511   87.05429840    0.11000000    0.17000000
   18.07416725   78.95469666    0.11000000    0.17000000
   18.07722282   81.55079651    0.11000000    0.17000000
   18.08055687   81.23090363    0.11000000    0.17000000
   18.08361244   89.97029877    0.11000000    0.17000000
   18.08694458   87.90869904    0.11000000    0.17000000
   18.09000015   83.77799988    0.11000000    0.17000000
   18.09055710   88.15760040    0.11000000    0.17000000
   18.09388924   85.56590271    0.11000000    0.17000000
   18.09694481   85.61859894    0.11000000    0.17000000
   18.10027885   80.88819885    0.11000000    0.17000000
   18.10333443   78.84790039    0.11000000    0.17000000
   18.10666656   86.92900085    0.11000000    0.17000000
   18.10972214   88.17960358    0.11000000    0.17000000
   18.11305618   86.08789825    0.11000000    0.17000000
   18.11805534   86.08789825    0.11000000    0.17000000
   18.12222290  105.18699646    0.11000000    0.17000000
   18.12527847   85.91680145    0.11000000    0.17000000
   18.12861061   87.48410034    0.11000000    0.17000000
   18.13166618   81.53869629    0.11000000    0.17000000
   18.13500023   87.70240021    0.11000000    0.17000000
   18.13805580   87.55639648    0.11000000    0.17000000
   18.14055634   85.48709869    0.11000000    0.17000000
   18.14166641   76.62719727    0.11000000    0.17000000
   18.14472198   85.96170044    0.11000000    0.17000000
   18.14805603   80.99179840    0.11000000    0.17000000
   18.15111160   84.56040192    0.11000000    0.17000000
   18.15444374   80.37190247    0.11000000    0.17000000
   18.15749931   97.95649719    0.11000000    0.17000000
   18.16083336   94.90509796    0.11000000    0.17000000
   18.16388893   84.61029816    0.11000000    0.17000000
   18.16916656   84.61029816    0.11000000    0.17000000
   18.17333221   80.16549683    0.11000000    0.17000000
   18.17638779  119.20999908    0.11000000    0.17000000
