    HOUR (UT)   FLARE FACTOR    SKY TESTER    SUN TESTER
   11.53166676   -1.00000000   -1.00000000   -1.00000000
   11.58805561   76.76439667    0.81999999    2.67000008
   11.59111118   80.01029968    0.75000000    2.66000009
   11.59444427   78.72419739    0.76999998    2.66000009
   11.59777737   75.59040070    0.86000001    2.66000009
   11.60083389   79.99340057    0.86000001    2.67000008
   11.60416698   78.21779633    0.86000001    2.66000009
   11.60722256   76.33809662    0.86000001    2.66000009
   11.61055565   79.28659821    0.81999999    2.66000009
   11.61666679   79.28659821    0.80000001    2.67000008
   11.62055588   84.88919830    0.81999999    2.66000009
   11.62388897   76.78350067    0.98000002    2.66000009
   11.62722206   78.77709961    0.86000001    2.67000008
   11.63027763   76.08709717    0.83999997    2.67000008
   11.63361073   79.50440216    0.81999999    2.67000008
   11.63694477   77.12400055    0.80000001    2.66000009
   11.63805580   79.46980286    0.83999997    2.66000009
   11.64027786   78.21910095    0.88000000    2.66000009
   11.64361095   79.25250244    0.89999998    2.66000009
   11.64694405   81.22640228    0.89999998    2.67000008
   11.64999962   77.66590118    0.75000000    2.66000009
   11.65333271   79.12640381    0.75000000    2.66000009
   11.65638828   80.20739746    0.61000001    2.67000008
   11.65972137   80.77140045    0.61000001    2.67000008
   11.66305542   83.70529938    0.67000002    2.67000008
   11.66777802   83.70529938    0.73000002    2.67000008
   11.67194462   79.70200348    0.75000000    2.66000009
   11.67500019   75.47959900    0.79000002    2.67000008
   11.67833328   77.57460022    0.80000001    2.66000009
   11.68166733   78.67739868    0.75000000    2.67000008
   11.68472195   79.89240265    0.73000002    2.67000008
   11.68805599   80.29170227    0.64999998    2.67000008
   11.68833351   78.13590240    0.64999998    2.67000008
   11.69166660   78.67510223    0.64999998    2.69000006
   11.69472218   76.24189758    0.69000000    2.69000006
   11.69805527   77.49369812    0.73000002    2.67000008
   11.70138836   77.46250153    0.76999998    2.67000008
   11.70444393   79.37079620    0.70999998    2.67000008
   11.70777798   79.64430237    0.69000000    2.67000008
   11.71111107   80.20590210    0.69000000    2.67000008
   11.71416664   77.66549683    0.64999998    2.67000008
   11.71888828   77.66549683    0.64999998    2.69000006
   11.72305489   76.57140350    0.63000000    2.67000008
   11.72611046   77.12580109    0.73000002    2.69000006
   11.72972202   77.98090363    0.67000002    2.69000006
   11.73305511   79.65760040    0.69000000    2.69000006
   11.73638916   78.47170258    0.69000000    2.69000006
   11.73805618   80.96839905    0.69000000    2.69000006
   11.74000072   78.77269745    0.75000000    2.69000006
   11.74333382   78.56439972    0.80000001    2.67000008
   11.74638939   76.08360291    0.80000001    2.67000008
   11.74972248   76.65579987    0.75000000    2.69000006
   11.75305557   76.63919830    0.75000000    2.69000006
   11.75611115   79.82849884    0.69000000    2.69000006
   11.75944424   78.47740173    0.67000002    2.69000006
   11.76277733   77.59570313    0.63000000    2.69000006
   11.76583290   76.43939972    0.64999998    2.69000006
   11.76999950   76.43939972    0.64999998    2.69000006
   11.77416611   77.00129700    0.64999998    2.71000004
   11.77750015   78.36830139    0.69000000    2.71000004
   11.78055573   77.05429840    0.73000002    2.69000006
   11.78388977   76.80429840    0.73000002    2.69000006
   11.78722286   77.16629791    0.83999997    2.67000008
   11.78805637   77.40399933    0.89999998    2.69000006
   11.79055595   75.88210297    0.88000000    2.69000006
   11.79388905   75.60540009    0.81999999    2.69000006
   11.79722309   77.24099731    0.80000001    2.69000006
   11.80027771   75.64219666    0.61000001    2.71000004
   11.80361176   74.22419739    0.64999998    2.69000006
   11.80666733   80.30940247    0.76999998    2.69000006
   11.81000042   79.03240204    0.76999998    2.69000006
   11.81333351   75.44190216    0.80000001    2.69000006
   11.81638908   77.39559937    0.76999998    2.69000006
   11.82111073   77.39559937    0.75000000    2.69000006
   11.82527733   79.23190308    0.88000000    2.67000008
   11.82861137   77.00099945    0.88000000    2.67000008
   11.83194447   77.05650330    0.64999998    2.71000004
   11.83500004   82.17800140    0.83999997    2.71000004
   11.83805561   80.82980347    0.86000001    2.71000004
   11.83861065   79.54060364    0.88000000    2.69000006
   11.84194374   76.13839722    0.83999997    2.69000006
   11.84527779   79.02580261    0.75000000    2.71000004
   11.84833336   78.12120056    0.64999998    2.71000004
   11.85166740   76.98459625    0.63000000    2.71000004
   11.85472298   77.52010345    0.61000001    2.71000004
   11.85805607   80.51049805    0.63000000    2.71000004
   11.86138916   75.63980103    0.58999997    2.71000004
   11.86444473   79.09770203    0.58999997    2.71000004
   11.86777782   77.57929993    0.61000001    2.71000004
   11.87250042   77.57929993    0.63000000    2.71000004
   11.87666702   75.96939850    0.76999998    2.71000004
   11.87972260   74.94049835    0.76999998    2.71000004
   11.88305569   77.01899719    0.76999998    2.71000004
   11.88611126   77.86409760    0.73000002    2.71000004
   11.88805580   75.91519928    0.73000002    2.71000004
   11.88972187   76.36129761    0.73000002    2.73000002
   11.89305496   75.61530304    0.75000000    2.71000004
   11.89638901   80.26309967    0.92000002    2.71000004
   11.89944458   73.98500061    1.00000000    2.71000004
   11.90277767   78.81909943    0.98000002    2.71000004
   11.90638828   77.11730194    0.98000002    2.71000004
   11.90944386   75.46779633    0.89999998    2.71000004
   11.91277695   74.56500244    1.05999994    2.71000004
   11.91583252   76.98719788    1.05999994    2.71000004
   11.91916656   77.23609924    0.94000000    2.69000006
   11.92361164   77.23609924    0.76999998    2.71000004
   11.92777824   77.67430115    0.79000002    2.71000004
   11.93083382   78.71269989    0.79000002    2.71000004
   11.93416691   80.18910217    1.00000000    2.71000004
   11.93750000   77.60530090    1.30999994    2.69000006
   11.93805599   77.18180084    1.30999994    2.69000006
   11.94111156   76.56320190    1.28999996    2.69000006
   11.94416714   74.39199829    1.09000003    2.71000004
   11.94750023   76.68049622    0.83999997    2.73000002
   11.95055580   77.82260132    0.81999999    2.71000004
   11.95388889   79.08989716    0.80000001    2.71000004
   11.95722198   75.65779877    0.76999998    2.73000002
   11.96027756   77.45159912    0.76999998    2.73000002
   11.96361065   74.68250275    0.76999998    2.73000002
   11.96694374   78.24069977    0.80000001    2.71000004
   11.96999931   77.01010132    0.86000001    2.71000004
   11.97472191   77.01010132    0.89999998    2.71000004
   11.97888851   78.69229889    0.95999998    2.73000002
   11.98222160   75.17990112    1.25000000    2.71000004
   11.98527813   75.83470154    1.34000003    2.71000004
   11.98805618   81.20909882    4.90999985    2.75000000
   11.98916721   81.44750214    4.90999985    2.76999998
   11.99222279   -1.00000000    4.90999985    2.69000006
   11.99555588   79.01309967    4.90999985    2.25000000
   11.99861145  124.62300110    4.90999985    1.48000002
   12.00194454   77.58159637    4.90999985    2.75000000
   12.00527763   75.06839752    1.46000004    2.75000000
   12.00833321   76.73729706    4.90999985    2.73000002
   12.01166630   76.42050171    4.90999985    2.75000000
   12.01500034   80.64029694    4.90999985    2.61999989
   12.01805496  146.52499390    4.90999985    2.34999990
   12.02138901   89.73439789    4.90999985    1.25000000
   12.02750015   89.73439789    4.21999979    2.75000000
   12.03222179   77.71920013    1.78999996    2.71000004
   12.03527832   74.62159729    4.90999985    2.73000002
   12.04000092   79.35389709    4.90999985    2.69000006
   12.04388905  159.72999573    4.90999985    2.05999994
   12.04777813   80.75309753    4.90999985    2.73000002
   12.05111122   76.26190186    4.90999985    2.75000000
   12.05527782   82.49520111    4.90999985    2.75000000
   12.05888939   78.66190338    4.90999985    2.73000002
   12.06305599   80.40869904    2.28999996    2.75000000
   12.06694412   77.20600128    1.11000001    2.73000002
   12.07083321   77.32640076    1.19000006    2.73000002
   12.07416630   74.99109650    2.44000006    2.73000002
   12.07861137   74.99109650    3.46000004    2.75000000
   12.08277798   79.49069977    1.85000002    2.64000010
   12.08611107   83.85350037    4.63999987    2.73000002
   12.08805561   79.80229950    4.71999979    2.73000002
   12.09000015   84.01139832    4.53000021    2.71000004
   12.09333324   79.49230194    4.01999998    2.73000002
   12.09638882   79.99169922    1.88000000    2.75000000
   12.09972191   79.63200378    1.73000002    2.71000004
   12.10305595   83.39530182    4.59999990    2.75000000
   12.10638905   88.22810364    4.90999985    2.80999994
   12.10972214   82.48449707    4.90999985    1.26999998
   12.11305618   74.54940033    4.90999985    0.51999998
   12.11611176  148.08700562    4.90999985    2.71000004
   12.11972237  118.39199829    4.90999985    2.36999989
   12.12305546  119.35800171    4.90999985    2.25000000
   12.13000011  119.35800171    4.90999985    1.01999998
   12.13416672  211.08799744    4.90999985    0.88000000
   12.13749981  101.00700378    4.90999985    2.39000010
   12.13805580   90.52339935    4.90999985    2.13000011
   12.14111137  106.37699890    4.90999985    2.67000008
   12.14444447   79.20240021    4.90999985    2.11999989
   12.14777756   79.01380157    4.90999985    1.66999996
   12.15083313   75.20220184    4.90999985    2.78999996
   12.15416622   -1.00000000    4.90999985    1.98000002
   12.15749931   84.76229858    4.90999985    1.94000006
   12.16138840   84.00319672    4.90999985    2.78999996
   12.16472149  132.62600708    4.90999985    2.13000011
   12.16861153  156.58200073    4.90999985    2.13000011
   12.17222214   78.29660034    4.90999985    2.34999990
   12.17555618   81.07270050    4.90999985    2.59999990
   12.18111134   81.07270050    4.19999981    2.66000009
   12.18555546   78.21669769    2.73000002    2.76999998
   12.18805599   84.97160339    4.73999977    2.69000006
   12.18916702   80.42230225    3.97000003    2.51999998
   12.19277763   76.87220001    4.90999985    2.75000000
   12.19611073   89.01930237    4.90999985    2.76999998
   12.19944477   84.16310120    4.90999985    2.69000006
   12.20277786   74.98549652    4.90999985    2.80999994
   12.20638847   75.55370331    1.61000001    2.75000000
   12.20972157   75.85610199    4.73999977    2.73000002
   12.21305561   83.02410126    4.90999985    2.75000000
   12.21638870  136.12600708    4.90999985    1.51999998
   12.21972179   99.79429626    4.90999985    0.95999998
   12.22305489   81.40679932    4.90999985    2.48000002
   12.22638798   80.29409790    4.90999985    2.78999996
   12.23222160   80.29409790    4.90999985    2.57999992
   12.23666668   -1.00000000    4.90999985    1.71000004
   12.24027824   -1.00000000    4.90999985    0.38000000
   12.24361134  152.12399292    4.90999985    0.52999997
   12.24722290   98.66120148    4.90999985    1.80999994
   12.25055599   76.75289917    4.90999985    2.91000009
   12.25388908  132.13299561    4.90999985    2.44000006
   12.25722218   -1.00000000    4.90999985    1.63000000
   12.26083374   -1.00000000    4.90999985    0.89999998
   12.26416683   73.91149902    4.90999985    2.59999990
   12.26749992  169.85099792    4.90999985    2.76999998
   12.27083302   79.27380371    4.90999985    1.28999996
   12.27416611   79.61229706    4.90999985    2.93000007
   12.27750015   94.40299988    4.90999985    2.82999992
   12.28333378   94.40299988    4.90999985    1.71000004
   12.28750038  212.55799866    4.90999985    2.61999989
   12.29111195   -1.00000000    4.90999985    0.92000002
   12.29444504   -1.00000000    4.90999985    0.55000001
   12.29805565   -1.00000000    4.90999985    0.64999998
   12.30138874   -1.00000000    4.90999985    0.25999999
   12.30472279   76.91400146    4.90999985    0.34000000
   12.30777836   -1.00000000    4.90999985    0.89999998
   12.31111145   -1.00000000    4.90999985    0.31999999
   12.31444454   -1.00000000    4.90999985    0.23000000
   12.31750011   -1.00000000    4.90999985    0.13000000
   12.32083321   -1.00000000    4.90999985    0.52999997
   12.32416630   -1.00000000    4.90999985    1.26999998
   12.32722187   -1.00000000    4.90999985    1.26999998
   12.33055592   -1.00000000    4.90999985    0.25000000
   12.33861065   -1.00000000    4.90999985    0.41999999
   12.34194374   -1.00000000    4.90999985    0.15000001
   12.34527779   -1.00000000    4.90999985    0.19000000
   12.34833336   -1.00000000    4.90999985    2.55999994
   12.35166740   -1.00000000    4.90999985    2.94000006
   12.35583401   -1.00000000    4.90999985    2.94000006
   12.35916710   -1.00000000    4.90999985    2.82999992
   12.36222267   -1.00000000    4.90999985    2.76999998
   12.36555576   -1.00000000    4.90999985    2.26999998
   12.36888885   -1.00000000    4.90999985    2.75000000
   12.37194443   -1.00000000    4.90999985    2.84999990
   12.37527752   -1.00000000    4.90999985    2.01999998
   12.37833309   -1.00000000    4.90999985    0.92000002
   12.38166714   -1.00000000    4.90999985    2.53999996
   12.39000034   -1.00000000    4.90999985    0.98000002
   12.39361095   -1.00000000    4.90999985    0.86000001
   12.39666653   -1.00000000    4.90999985    1.38000000
   12.40027714   -1.00000000    4.90999985    1.39999998
   12.40361118   -1.00000000    4.90999985    2.44000006
   12.40694427   -1.00000000    4.90999985    2.69000006
   12.41027737   -1.00000000    4.90999985    2.91000009
   12.41361046   -1.00000000    4.90999985    2.61999989
   12.41666698   -1.00000000    4.90999985    1.73000002
   12.42000008   -1.00000000    4.90999985    2.84999990
   12.42333412   -1.00000000    4.90999985    2.93000007
   12.42666721   -1.00000000    4.90999985    1.14999998
   12.42972279   -1.00000000    4.90999985    1.33000004
   12.43305588   -1.00000000    4.90999985    0.64999998
   12.44138908   -1.00000000    4.90999985    1.23000002
   12.44472218   -1.00000000    4.90999985    2.50000000
   12.44805527   -1.00000000    4.90999985    2.53999996
   12.45111084   -1.00000000    4.90999985    2.51999998
   12.45499992   -1.00000000    4.90999985    0.36000001
   12.45805550   -1.00000000    4.90999985    0.31999999
   12.46138859   -1.00000000    4.90999985    0.40000001
   12.46472168   -1.00000000    4.90999985    2.71000004
   12.46805477   -1.00000000    4.90999985    0.56999999
   12.47138882   -1.00000000    4.90999985    0.36000001
   12.47444439   -1.00000000    4.90999985    2.91000009
   12.47777748   -1.00000000    4.90999985    2.86999989
   12.48111057   -1.00000000    4.90999985    0.67000002
   12.48444462   -1.00000000    4.90999985    1.48000002
   12.49333382   -1.00000000    4.90999985    0.31999999
   12.49638939   -1.00000000    4.90999985    0.20999999
   12.49972248   -1.00000000    4.90999985    0.31999999
   12.50305557   -1.00000000    4.90999985    0.25000000
   12.50611115   -1.00000000    4.90999985    2.67000008
   12.50944424   -1.00000000    4.90999985    2.86999989
   12.51277733   -1.00000000    4.90999985    2.86999989
   12.51583290   -1.00000000    4.90999985    2.23000002
   12.51916599   -1.00000000    4.90999985    2.86999989
   12.52250004   -1.00000000    4.90999985    1.48000002
   12.52555561   -1.00000000    4.90999985    2.28999996
   12.52888870   -1.00000000    4.90999985    2.89000010
   12.53277779   -1.00000000    4.90999985    2.86999989
   13.85500050   -1.00000000   -1.00000000   -1.00000000
   13.87888908   74.88790131    2.28999996    2.89000010
   13.88249969   81.83869934    2.59999990    2.89000010
   13.88583279   75.36039734    2.34999990    2.89000010
   13.88888836   77.22219849    2.55999994    2.89000010
   13.89222240   84.57879639    3.18000007    2.86999989
   13.89555550   81.44480133    3.41000009    2.89000010
   13.89861107   78.33650208    2.26999998    2.91000009
   13.90194416   79.21720123    2.76999998    2.89000010
   13.90722179   79.21720123    3.21000004    2.89000010
   13.91138840   74.84439850    3.53999996    2.86999989
   13.91472149   77.96109772    4.90999985    2.86999989
   13.91777802   76.77839661    4.17999983    2.84999990
   13.92111111   77.40339661    4.40999985    2.86999989
   13.92444515   79.70780182    4.23999977    2.89000010
   13.92750072   72.11499786    4.71999979    2.86999989
   13.92861176   76.81250000    4.40999985    2.86999989
   13.93111134   73.23799896    4.84999990    2.86999989
   13.93416691   77.81909943    4.90999985    2.86999989
   13.93750000   77.33719635    4.82999992    2.86999989
   13.94083309   79.04969788    4.55999994    2.89000010
   13.94388866   76.81829834    4.46999979    2.86999989
   13.94722271   93.76830292    4.90999985    2.86999989
   13.95055580   77.21600342    4.90999985    2.75000000
   13.95361137   73.15940094    4.90999985    2.91000009
   13.95833302   73.15940094    4.21999979    2.86999989
   13.96249962   86.34359741    3.14000010    2.89000010
   13.96583271   78.73840332    2.86999989    2.89000010
   13.96916580   78.58119965    2.80999994    2.91000009
   13.97222137   81.34470367    3.66000009    2.78999996
   13.97555542   75.14320374    2.21000004    2.91000009
   13.97861099   80.96959686    2.76999998    2.89000010
   13.97916603   79.59770203    2.82999992    2.91000009
   13.98222160   78.42610168    2.86999989    2.89000010
   13.98555565   77.81279755    3.91000009    2.84999990
   13.98888874   77.23729706    3.75000000    2.86999989
   13.99194431   78.30139923    3.09999990    2.89000010
   13.99527836   83.32360077    3.23000002    2.89000010
   13.99861145  130.42799377    4.13999987    2.86999989
   14.00166702   79.73139954    4.90999985    2.80999994
   14.00500011   81.97720337    3.80999994    2.89000010
   14.00972176   81.97720337    3.25000000    2.89000010
   14.01388931   76.37860107    3.11999989    2.89000010
   14.01694393   82.83460236    2.91000009    2.89000010
   14.02027798   79.31749725    3.21000004    2.89000010
   14.02333355   79.75299835    3.09999990    2.91000009
   14.02666664   83.55709839    3.78999996    2.89000010
   14.02861118   71.49649811    4.90999985    2.84999990
   14.03027725   76.82070160    4.90999985    2.50000000
   14.03361130   75.57089996    2.84999990    2.91000009
   14.03666687   78.16040039    2.09999990    2.89000010
   14.04000092   78.38909912    4.90999985    2.91000009
   14.04305553   86.13279724    2.30999994    2.93000007
   14.04638958   88.65129852    1.61000001    2.91000009
   14.04972267   77.46649933    3.20000005    2.89000010
   14.05277824   78.99990082    3.39000010    2.89000010
   14.05611134   80.56800079    2.76999998    2.89000010
   14.06083393   80.56800079    2.71000004    2.89000010
   14.06500053   74.50800323    2.30999994    2.89000010
   14.06805515   76.37349701    2.51999998    2.89000010
   14.07138920   79.31880188    3.18000007    2.89000010
   14.07499981   79.63369751    3.50000000    2.86999989
   14.07833290   77.29090118    3.01999998    2.89000010
   14.07888889   77.76080322    3.01999998    2.89000010
   14.08166695   81.92220306    3.16000009    2.89000010
   14.08500004   83.03389740    2.84999990    2.89000010
   14.08833313   80.57160187    2.51999998    2.91000009
   14.09138870   83.77490234    2.44000006    2.91000009
   14.09472179   84.53320313    2.76999998    2.91000009
   14.09777737   80.84980011    2.84999990    2.91000009
   14.10111141   80.92109680    3.18000007    2.89000010
   14.10444450   75.85119629    2.55999994    2.91000009
   14.10750008   80.35140228    2.50000000    2.91000009
   14.11194515   80.35140228    2.66000009    2.91000009
   14.11611176   75.66600037    2.75000000    2.91000009
   14.11944485   80.91130066    1.34000003    2.91000009
   14.12250042   75.36190033    1.60000002    2.89000010
   14.12583351   77.25599670    1.48000002    2.89000010
   14.12888908   77.53630066    1.33000004    2.91000009
   14.12944412   78.32250214    1.33000004    2.91000009
   14.13277817   77.70700073    1.39999998    2.91000009
   14.13611126   76.92289734    1.14999998    2.91000009
   14.13916683   79.70429993    0.92000002    2.91000009
   14.14249992   83.20339966    1.34000003    2.91000009
   14.14555550   73.47979736    1.53999996    2.91000009
   14.14888859   75.30249786    1.58000004    2.91000009
   14.15222168   77.14520264    1.53999996    2.91000009
   14.15527725   74.73950195    1.53999996    2.91000009
   14.15861034   74.89489746    1.63000000    2.93000007
   14.16305542   74.89489746    1.41999996    2.91000009
   14.16722298   75.37619781    1.33000004    2.91000009
   14.17055607   81.02300262    3.51999998    2.93000007
   14.17388916   79.62590027    2.26999998    2.89000010
   14.17694473   74.94779968    1.85000002    2.93000007
   14.17888927   76.39369965    0.89999998    2.93000007
   14.18055630   90.92220306    4.90999985    3.01999998
   14.18388939   70.99929810    4.90999985    2.40000010
   14.18722248   95.88960266    4.90999985    2.93000007
   14.19027805   95.15329742    4.90999985    2.71000004
   14.19361115   -1.00000000    4.90999985    2.03999996
   14.19666672   99.53410339    4.90999985    0.40000001
   14.19999981   78.81230164    4.90999985    2.69000006
   14.20333290   77.19390106    2.55999994    2.91000009
   14.20638847   80.74890137    1.09000003    2.93000007
   14.20972157   76.26049805    1.26999998    2.91000009
   14.21444416   76.26049805    1.26999998    2.93000007
   14.21861076   76.48639679    1.39999998    2.91000009
   14.22166634   78.56919861    1.39999998    2.91000009
   14.22499943   81.92590332    1.03999996    2.93000007
   14.22805500   79.99590302    0.98000002    2.93000007
   14.22916603   78.09210205    0.98000002    2.93000007
   14.23166656   73.34500122    0.81999999    2.93000007
   14.23500061   78.42060089    0.92000002    2.93000007
   14.23805618   81.96530151    0.98000002    2.93000007
   14.24138927   80.79340363    1.21000004    2.91000009
   14.24472237   79.39250183    1.25000000    2.93000007
   14.24777794   76.77760315    1.25000000    2.93000007
   14.25111103   76.83339691    1.26999998    2.91000009
   14.25444412   71.01550293    1.26999998    2.91000009
   14.25749969   77.14050293    1.00000000    2.93000007
   14.26083374   73.05390167    1.00000000    2.93000007
   14.26555538   73.05390167    1.01999998    2.93000007
   14.26972198   80.33170319    1.00000000    2.93000007
   14.27305508   76.20259857    1.05999994    2.93000007
   14.27611065   86.34249878    1.58000004    2.91000009
   14.27916622   79.71730042    1.30999994    2.93000007
   14.27972221   74.19570160    1.30999994    2.93000007
   14.28305531   74.53309631    1.01999998    2.93000007
   14.28611183   81.56060028    1.30999994    2.93000007
   14.28944492   83.37930298    1.46000004    2.93000007
   14.29277802   83.21219635    1.39999998    2.93000007
   14.29583359   80.98619843    1.83000004    2.93000007
   14.29916668   74.78160095    1.66999996    2.91000009
   14.30249977   72.63059998    1.64999998    2.93000007
   14.30555534   83.37359619    1.66999996    2.93000007
   14.30888939   73.07910156    2.03999996    2.91000009
   14.31194496   75.86889648    1.50000000    2.91000009
   14.31666660   75.86889648    2.03999996    2.91000009
   14.32083321   73.09020233    1.96000004    2.93000007
   14.32416630   80.73609924    2.61999989    2.91000009
   14.32722187   73.49130249    2.42000008    2.93000007
   14.32916641   76.42130280    1.66999996    2.93000007
   14.33083344   75.01909637    1.96000004    2.89000010
   14.33416653   76.93810272    1.53999996    2.91000009
   14.33749962   78.48400116    1.26999998    2.91000009
   14.34055519   77.97910309    1.39999998    2.93000007
   14.34388828   71.86209869    1.19000006    2.93000007
   14.34694386   74.86209869    1.14999998    2.93000007
   14.35027790   81.06349945    1.09000003    2.94000006
   14.35361195   77.39350128    1.19000006    2.93000007
   14.35666752   80.88040161    1.07000005    2.93000007
   14.36000061   82.52149963    1.28999996    2.93000007
   14.36333370   76.94400024    1.33000004    2.93000007
   14.36805534   76.94400024    1.34000003    2.93000007
   14.37194443   87.00319672    1.01999998    2.93000007
   14.37527752   78.76589966    0.89999998    2.93000007
   14.37861156   80.73190308    0.75000000    2.93000007
   14.37916660   81.72789764    0.75000000    2.93000007
   14.38194466   78.01879883    0.80000001    2.93000007
   14.38527775   69.96900177    0.80000001    2.93000007
   14.38861084   77.96939850    0.89999998    2.93000007
   14.39166641   80.15329742    1.39999998    2.93000007
   14.39499950   79.91950226    1.44000006    2.93000007
   14.39833355   82.89779663    1.28999996    2.94000006
   14.40138817   82.33499908    1.28999996    2.94000006
   14.40472221   80.77310181    1.21000004    2.93000007
   14.40777779   81.25520325    1.64999998    2.93000007
   14.41111088   79.55460358    1.09000003    2.93000007
   14.41444397   82.60130310    1.30999994    2.93000007
   14.41916656   82.60130310    1.26999998    2.93000007
   14.42333412   82.34359741    1.14999998    2.93000007
   14.42638874   86.06030273    1.07000005    2.93000007
   14.42916679   78.43070221    1.07000005    2.93000007
   14.43000031   81.44819641    1.07000005    2.93000007
   14.43333340   74.61139679    1.26999998    2.94000006
   14.43666649   78.17739868    1.48000002    2.93000007
   14.43972206   77.36409760    1.88000000    2.93000007
   14.44305515   76.06719971    2.19000006    2.93000007
   14.44638920   79.04589844    2.30999994    2.93000007
   14.44944477   73.46900177    2.48000002    2.93000007
   14.45277786   72.85970306    1.85000002    2.91000009
   14.45583344   77.78369904    2.03999996    2.91000009
   14.45916653   77.89179993    1.96000004    2.93000007
   14.46249962   78.16529846    1.75000000    2.93000007
   14.46555519   77.20369720    1.78999996    2.93000007
   14.47027779   77.20369720    1.30999994    2.93000007
   14.47444439   71.56279755    1.38000000    2.93000007
   14.47777748   80.66169739    1.96000004    2.93000007
   14.47916603   78.48989868    2.03999996    2.91000009
   14.48138809   75.72100067    1.89999998    2.93000007
   14.48444462   76.65299988    1.98000002    2.91000009
   14.48777771   80.93609619    2.01999998    2.93000007
   14.49083328   82.48840332    2.19000006    2.93000007
   14.49416733   77.70790100    1.96000004    2.93000007
   14.49750042   71.13169861    2.94000006    2.93000007
   14.50055599   78.09590149    2.26999998    2.93000007
   14.50388908   83.05680084    2.07999992    2.93000007
   14.50722218   79.41510010    1.98000002    2.93000007
   14.51027775   80.01779938    1.64999998    2.93000007
   14.51361084   82.64990234    1.75000000    2.93000007
   14.51666641   83.03620148    1.80999994    2.93000007
   14.52138901   83.03620148    2.30999994    2.93000007
   14.52555561   74.91020203    1.88000000    2.93000007
   14.52888870   76.12139893    1.44000006    2.94000006
   14.52944374   78.98439789    1.44000006    2.94000006
   14.53277779   77.00689697    1.19000006    2.93000007
   14.53583336   77.45410156    1.39999998    2.94000006
   14.53916740   81.49400330    1.46000004    2.93000007
   14.54222298   82.33100128    1.41999996    2.94000006
   14.54555607   82.19219971    2.01999998    2.93000007
   14.54888916   81.68440247    1.98000002    2.93000007
   14.55194473   79.59420013    2.30999994    2.93000007
   14.55527782   77.94400024    2.21000004    2.93000007
   14.55861092   71.73930359    2.98000002    2.93000007
   14.56166649   76.54660034    2.15000010    2.93000007
   14.56500053   79.86219788    2.69000006    2.89000010
   14.56805515   83.73239899    2.86999989    2.86999989
   14.57277775   83.73239899    2.11999989    2.93000007
   14.57666683   85.10199738    3.25000000    2.91000009
   14.57944393   78.78220367    2.26999998    2.93000007
   14.58027744   85.34880066    2.40000010    2.93000007
   14.58361053   80.93990326    2.86999989    2.91000009
   14.58694458   81.16419983    3.41000009    2.91000009
   14.59000015   81.48629761    3.26999998    2.91000009
   14.59333324   75.64559937    3.72000003    2.93000007
   14.59666634   79.54630280    3.55999994    2.91000009
   14.59972191   82.12290192    3.59999990    2.93000007
   14.60305595   77.69210052    4.32999992    2.91000009
   14.60611153   82.51470184    3.45000005    2.93000007
   14.60944462   89.67070007    3.59999990    2.91000009
   14.61277771   79.72889709    4.01999998    2.91000009
   14.61583328   81.79260254    4.00000000    2.91000009
   14.61916637   83.85820007    3.16000009    2.93000007
   14.62388897   83.85820007    3.34999990    2.93000007
   14.62805557   82.42539978    3.36999989    2.93000007
   14.62944412   84.37680054    3.66000009    2.91000009
   14.63138866   84.64199829    4.71999979    2.89000010
   14.63472176   83.54920197    4.88999987    2.91000009
   14.63805580   79.87809753    4.90999985    2.91000009
   14.64111137   87.72769928    4.13999987    2.91000009
   14.64444447   85.04519653    3.16000009    2.93000007
   14.64777756   80.15139771    4.01999998    2.91000009
   14.65083313   84.84500122    4.42999983    2.91000009
   14.65416622   83.62830353    4.03999996    2.91000009
   14.65722179   86.13700104    3.50000000    2.93000007
   14.66055489   84.25090027    3.68000007    2.91000009
   14.66388893   79.86940002    3.89000010    2.91000009
   14.66694450   80.25520325    3.41000009    2.91000009
   14.67027855   72.07430267    3.41000009    2.93000007
   14.67500019   72.07430267    2.89000010    2.93000007
   14.67916679   78.87999725    2.59999990    2.89000010
   14.67972279   77.65599823    2.57999992    2.89000010
   14.68305588   79.33159637    2.15000010    2.91000009
   14.68611145   78.85900116    2.44000006    2.91000009
   14.68944454   85.43530273    2.17000008    2.91000009
   14.69250011   84.80699921    2.73000002    2.91000009
   14.69583321   81.15969849    3.18000007    2.91000009
   14.69916630   73.13629913    3.21000004    2.89000010
   14.70222187   84.78600311    2.23000002    2.93000007
   14.70555496   84.83100128    2.76999998    2.91000009
   14.70888901   78.90550232    2.71000004    2.93000007
   14.71194458   78.38379669    2.94000006    2.91000009
   14.71527767   81.70700073    2.34999990    2.93000007
   14.71833324   79.19920349    2.94000006    2.89000010
   14.72166634   76.31919861    2.91000009    2.89000010
   14.72611046   76.31919861    2.51999998    2.89000010
   14.73027706   77.54570007    2.94000006    2.89000010
   14.73361111   85.76730347    2.76999998    2.89000010
   14.73666668   80.79660034    4.90999985    2.82999992
   14.74000072   85.83830261    4.90999985    2.86999989
   14.74333382   83.84760284    4.11999989    2.86999989
   14.74638939   89.79650116    3.46000004    2.89000010
   14.74972248   85.66400146    2.50000000    2.91000009
   14.75305557   81.79489899    2.64000010    2.89000010
   14.75611115   84.51129913    3.05999994    2.91000009
   14.75944424   85.98059845    3.16000009    2.89000010
   14.76249981   83.34470367    3.34999990    2.89000010
   14.76583290   90.17559814    4.90999985    2.86999989
   14.76916599   85.31349945    4.90999985    2.86999989
   14.77222157   89.30809784    4.90999985    2.86999989
   14.77750015   89.30809784    2.94000006    2.91000009
   14.78138828   85.18389893    2.91000009    2.91000009
   14.78472233   71.84899902    4.90999985    2.91000009
   14.78805637   75.18029785    4.76000023    2.91000009
   14.79111195   69.37609863    4.90999985    2.82999992
   14.79444504   75.44450378    4.15999985    2.89000010
   14.79777813   80.60420227    4.26000023    2.89000010
   14.80083370   73.36579895    4.84999990    2.86999989
   14.80416679   77.83619690    4.88999987    2.86999989
   14.80722237   77.42900085    4.90999985    2.89000010
   14.81055546   81.72660065    4.80999994    2.89000010
   14.81388950   82.72019958    4.90999985    2.89000010
   14.81694412   80.24579620    4.90999985    2.75000000
   14.82027817   72.48619843    4.90999985    2.86999989
   14.82361126   79.94920349    4.90999985    2.86999989
   14.82861137   79.94920349    4.80000019    2.84999990
   14.83277798   83.88659668    4.13999987    2.89000010
   14.83583260   80.23629761    4.19999981    2.86999989
   14.83916664   87.07520294    2.75000000    2.91000009
   14.84249973   86.95870209    2.82999992    2.89000010
   14.84555531   87.91609955    3.48000002    2.86999989
   14.84888840   83.43289948    2.75000000    2.89000010
   14.85194492   87.92030334    3.57999992    2.84999990
   14.85527802   88.52570343    4.84999990    2.80999994
   14.85861111   81.03279877    3.32999992    2.89000010
   14.86166668   75.31690216    2.13000011    2.91000009
   14.86500072   73.42620087    2.05999994    2.91000009
   14.86833382   84.16169739    2.53999996    2.89000010
   14.87138939   77.23930359    2.66000009    2.89000010
   14.87472248   85.47570038    2.76999998    2.89000010
   14.89611053   77.79560089    3.68000007    2.89000010
   14.89666653   76.06970215    3.68000007    2.89000010
   14.89972210   74.81109619    4.90999985    2.78999996
   14.90305519   78.62930298    3.48000002    2.89000010
   14.90638828   75.16809845    2.89000010    2.91000009
   14.90944386   82.16999817    3.39000010    2.91000009
   14.91277695   90.19889832    4.90999985    2.84999990
   14.91583252   77.31310272    4.90999985    2.86999989
   14.91916656   85.69979858    4.90999985    2.82999992
   14.92250061   75.19920349    4.90999985    2.84999990
   14.92555618   81.78340149    4.90999985    2.82999992
   14.93111134   81.78340149    4.90999985    2.78999996
   14.93527794  100.09700012    4.90999985    2.96000004
   14.93833351   87.58550262    0.61000001    0.50000000
   14.94166660   83.08869934    1.11000001    0.01000000
   14.94472218   78.71769714    1.11000001    0.01000000
   14.94611073   81.25489807    1.11000001    0.01000000
   14.94833374   76.29309845    1.11000001    0.01000000
   14.95166683   85.62729645    1.11000001    0.01000000
   14.95499992   77.97489929    1.11000001    0.01000000
   14.95805550   78.23770142    1.11000001    0.01000000
   14.96138859   80.41329956    1.11000001    0.01000000
   14.96472168   90.28050232    1.11000001    0.01000000
   14.96777725   74.83889771    1.11000001    0.01000000
   14.97111034   79.11479950    1.11000001    0.01000000
   14.97416592   77.13079834    1.11000001    0.01000000
   14.97749996   84.07009888    1.11000001    0.01000000
   14.98222160   84.07009888    1.11000001    0.01000000
   14.98638916   85.07669830    1.11000001    0.01000000
   14.98944473   84.31909943    1.11000001    0.01000000
   14.99277782   86.14679718    1.11000001    0.01000000
   14.99611092   80.42140198    1.11000001    0.01000000
   14.99638939   78.01339722    1.11000001    0.01000000
   14.99972248   82.12429810    1.11000001    0.01000000
   15.00305557   77.56310272    1.11000001    0.01000000
   15.00611115   79.20539856    1.11000001    0.01000000
   15.00944424   71.21769714    1.11000001    0.01000000
   15.01277733   83.22059631    1.11000001    0.01000000
   15.01583290   83.34040070    1.11000001    0.01000000
   15.01916599   81.58300018    1.11000001    0.01000000
   15.02222157   76.83899689    1.11000001    0.01000000
   15.02555561   79.74700165    1.11000001    0.01000000
   15.02888870   76.84339905    1.11000001    0.01000000
   15.03333378   76.84339905    1.11000001    0.01000000
   15.03750038   82.76470184    1.11000001    0.01000000
   15.14222240   -1.00000000   -1.00000000   -1.00000000
   15.31694412   -1.00000000   -1.00000000   -1.00000000
   15.41333294   -1.00000000   -1.00000000   -1.00000000
   15.51472187   -1.00000000   -1.00000000   -1.00000000
   15.63416672   -1.00000000   -1.00000000   -1.00000000
   15.76444435   -1.00000000   -1.00000000   -1.00000000
   15.85583401   -1.00000000   -1.00000000   -1.00000000
   15.88805580   89.23930359    1.11000001    0.01000000
   15.89138889   90.82060242    1.11000001    0.01000000
   15.89444447   89.02700043    1.11000001    0.01000000
   15.89777756   86.07060242    1.11000001    0.01000000
   15.90083313   86.52580261    1.11000001    0.01000000
   15.90416622   81.30239868    1.11000001    0.01000000
   15.90749931   82.26239777    1.11000001    0.01000000
   15.91055489   82.70059967    1.11000001    0.01000000
   15.91666698   82.70059967    1.11000001    0.01000000
   15.92055607   76.23139954    1.11000001    0.01000000
   15.92388916   77.67929840    1.11000001    0.01000000
   15.92722225   82.30139923    1.11000001    0.01000000
   15.93027782   81.59629822    1.11000001    0.01000000
   15.93361092   81.63059998    1.11000001    0.01000000
   15.93694496   81.53250122    1.11000001    0.01000000
   15.93805599   77.17569733    1.11000001    0.01000000
   15.94027805   82.39900208    1.11000001    0.01000000
   15.94361115   81.00509644    1.11000001    0.01000000
   15.94694424   77.44570160    1.11000001    0.01000000
   15.94999981   85.14540100    1.11000001    0.01000000
   15.95333290   81.49600220    1.11000001    0.01000000
   15.95638847   78.31939697    1.11000001    0.01000000
   15.95972157   73.43389893    1.11000001    0.01000000
   15.96305561   82.92199707    1.11000001    0.01000000
   15.96777725   82.92199707    1.11000001    0.01000000
   15.97194386   81.02860260    1.11000001    0.01000000
   15.97499943   87.25650024    1.11000001    0.01000000
   15.97833252   81.46549988    1.11000001    0.01000000
   15.98166656   73.00820160    1.11000001    0.01000000
   15.98472214   79.73560333    1.11000001    0.01000000
   15.98805618   79.55840302    1.11000001    0.01000000
   15.98833370   86.17209625    1.11000001    0.01000000
   15.99166679   84.25630188    1.11000001    0.01000000
   15.99472237   77.56529999    1.11000001    0.01000000
   15.99805546   74.95050049    1.11000001    0.01000000
   16.00138855   78.58840179    1.11000001    0.01000000
   16.00444412   78.37750244    1.11000001    0.01000000
   16.00777817   86.07379913    1.11000001    0.01000000
   16.01111031  129.15299988    1.11000001    0.01000000
   16.01416588   77.43199921    1.11000001    0.01000000
   16.01888847   77.43199921    1.11000001    0.01000000
   16.02305603   81.46450043    1.11000001    0.01000000
   16.02638817   79.44589996    1.11000001    0.01000000
   16.02944374   80.08390045    1.11000001    0.01000000
   16.03277779   77.26329803    1.11000001    0.01000000
   16.03583336   82.29750061    1.11000001    0.01000000
   16.03805542   84.92970276    1.11000001    0.01000000
   16.03944397   79.21790314    1.11000001    0.01000000
   16.04277802   85.38169861    1.11000001    0.01000000
   16.04611015   76.67369843    1.11000001    0.01000000
   16.04916573   83.01940155    1.11000001    0.01000000
   16.05249977   78.78209686    1.11000001    0.01000000
   16.05555534   83.41829681    1.11000001    0.01000000
   16.05888748   81.96569824    1.11000001    0.01000000
   16.06222153   85.56279755    1.11000001    0.01000000
   16.06527710   86.54859924    1.11000001    0.01000000
   16.07000160   86.54859924    1.11000001    0.01000000
   16.07416725   82.16300201    1.11000001    0.01000000
   16.07750130   84.20269775    1.11000001    0.01000000
   16.08055687   79.91089630    1.11000001    0.01000000
   16.08388901   81.35340118    1.11000001    0.01000000
   16.08722305   88.47219849    1.11000001    0.01000000
   16.08805656   81.52400208    1.11000001    0.01000000
   16.09055710   80.35769653    1.11000001    0.01000000
   16.09388924   82.77030182    1.11000001    0.01000000
   16.09722328   77.13099670    1.11000001    0.01000000
   16.10027885   75.42440033    1.11000001    0.01000000
   16.10361099   78.31009674    1.11000001    0.01000000
   16.10666656   82.49389648    1.11000001    0.01000000
   16.11000061   81.99289703    1.11000001    0.01000000
   16.11333466   76.65239716    1.11000001    0.01000000
   16.11638832   81.87699890    1.11000001    0.01000000
   16.12138939   81.87699890    1.11000001    0.01000000
   16.12555504   83.51190186    1.11000001    0.01000000
   16.12861061   79.53140259    1.11000001    0.01000000
   16.13194466   80.63289642    1.11000001    0.01000000
   16.13500023   82.30059814    1.11000001    0.01000000
   16.13805580   81.87190247    1.11000001    0.01000000
   16.13861084   87.39240265    1.11000001    0.01000000
   16.14194489   84.83920288    1.11000001    0.01000000
   16.14527702   83.40139771    1.11000001    0.01000000
   16.14833260   83.67489624    1.11000001    0.01000000
   16.15166664   86.94560242    1.11000001    0.01000000
   16.15472221   88.19779968    1.11000001    0.01000000
   16.15805435   82.07369995    1.11000001    0.01000000
   16.16138840   77.63030243    1.11000001    0.01000000
   16.16444397   80.10679626    1.11000001    0.01000000
   16.16777802   86.83049774    1.11000001    0.01000000
   16.17249870   86.83049774    1.11000001    0.01000000
   16.17666626   73.30660248    1.11000001    0.01000000
   16.17972183   77.29979706    1.11000001    0.01000000
   16.18305397   73.02850342    1.11000001    0.01000000
   16.18638802   76.65290070    1.11000001    0.01000000
   16.18805504   79.04620361    1.11000001    0.01000000
   16.18972206   70.09580231    1.11000001    0.01000000
   16.19305420   80.01640320    1.11000001    0.01000000
   16.19638824   77.41699982    1.11000001    0.01000000
   16.19944382   82.85009766    1.11000001    0.01000000
   16.20277786   76.14299774    1.11000001    0.01000000
   16.20611191   72.92800140    1.11000001    0.01000000
   16.20916748   77.50689697    1.11000001    0.01000000
   16.21250153   78.04779816    1.11000001    0.01000000
   16.21555710   75.88899994    1.11000001    0.01000000
   16.21888924   82.68000031    1.11000001    0.01000000
   16.22361183   82.68000031    1.11000001    0.01000000
   16.22777748   80.97339630    1.11000001    0.01000000
   16.23111153   79.45300293    1.11000001    0.01000000
   16.23416710   82.33740234    1.11000001    0.01000000
   16.23750114   85.01689911    1.11000001    0.01000000
   16.23805618   79.00620270    1.11000001    0.01000000
   16.24111176   80.25530243    1.11000001    0.01000000
   16.24416733   73.69010162    1.11000001    0.01000000
   16.24749947   78.77570343    1.11000001    0.01000000
   16.25083351   76.67500305    1.11000001    0.01000000
   16.25388908   81.86180115    1.11000001    0.01000000
   16.25722313   78.15249634    1.11000001    0.01000000
   16.26027870   75.59470367    1.11000001    0.01000000
   16.26361084   79.75009918    1.11000001    0.01000000
   16.26694489   77.58190155    1.11000001    0.01000000
   16.27000046   77.03459930    1.11000001    0.01000000
   16.27472115   77.03459930    1.11000001    0.01000000
   16.27888870   79.56140137    1.11000001    0.01000000
   16.28222275   77.77279663    1.11000001    0.01000000
   16.28527641   74.95300293    1.11000001    0.01000000
   16.28805542   86.74479675    1.11000001    0.01000000
   16.28916550   78.76119995    1.11000001    0.01000000
   16.29222107   82.71659851    1.11000001    0.01000000
   16.29555511   80.07129669    1.11000001    0.01000000
   16.29888916   89.45169830    1.11000001    0.01000000
   16.30194283   78.69120026    1.11000001    0.01000000
   16.30527687   79.67810059    1.11000001    0.01000000
   16.30833244   86.58070374    1.11000001    0.01000000
   16.31166649   82.88069916    1.11000001    0.01000000
   16.31499863   82.69380188    1.11000001    0.01000000
   16.31805611   81.41069794    1.11000001    0.01000000
   16.32139015   79.14270020    1.11000001    0.01000000
   16.32611275   79.14270020    1.11000001    0.01000000
   16.33000183   81.77100372    1.11000001    0.01000000
   16.33333397   78.63860321    1.11000001    0.01000000
   16.33666801   76.75360107    1.11000001    0.01000000
   16.33805656   82.53199768    1.11000001    0.01000000
   16.34027863   79.37319946    1.11000001    0.01000000
   16.34333420   80.83740234    1.11000001    0.01000000
   16.34666824   78.53250122    1.11000001    0.01000000
   16.35000038   83.47049713    1.11000001    0.01000000
   16.35305595   82.53029633    1.11000001    0.01000000
   16.35639000   79.16619873    1.11000001    0.01000000
   16.35944557   78.42070007    1.11000001    0.01000000
   16.36277771   82.65670013    1.11000001    0.01000000
   16.36611176   84.30359650    1.11000001    0.01000000
   16.36916733   79.76490021    1.11000001    0.01000000
   16.37249947   74.74469757    1.11000001    0.01000000
   16.37722206   74.74469757    1.11000001    0.01000000
   16.38138962   84.72959900    1.11000001    0.01000000
   16.38444519   78.96309662    1.11000001    0.01000000
   16.38777733   80.84339905    1.11000001    0.01000000
   16.38833237   82.77870178    1.11000001    0.01000000
   16.39138794   79.16790009    1.11000001    0.01000000
   16.39444351   78.56459808    1.11000001    0.01000000
   16.39777756   80.91590118    1.11000001    0.01000000
   16.40111160   82.59899902    1.11000001    0.01000000
   16.40416718   82.37899780    1.11000001    0.01000000
   16.40749931   85.78520203    1.11000001    0.01000000
   16.41055489   83.65599823    1.11000001    0.01000000
   16.41388893   82.97489929    1.11000001    0.01000000
   16.41722107   82.13249969    1.11000001    0.01000000
   16.42027664   86.58059692    1.11000001    0.01000000
   16.42361069   84.02480316    1.11000001    0.01000000
   16.42833328   84.02480316    1.11000001    0.01000000
   16.43249893   75.74279785    1.11000001    0.01000000
   16.43583298   80.41459656    1.11000001    0.01000000
   16.43833160   80.03430176    1.11000001    0.01000000
   16.43944359   82.27230072    1.11000001    0.01000000
   16.44249916   79.54609680    1.11000001    0.01000000
   16.44583321   83.41819763    1.11000001    0.01000000
   16.44916534   83.30429840    1.11000001    0.01000000
   16.45222282   71.68520355    1.11000001    0.01000000
   16.45555687   80.02330017    1.11000001    0.01000000
   16.45861244   80.49369812    1.11000001    0.01000000
   16.46194458   79.63300323    1.11000001    0.01000000
   16.46527863   83.49710083    1.11000001    0.01000000
   16.46833420   81.30560303    1.11000001    0.01000000
   16.47166634   84.45490265    1.11000001    0.01000000
   16.47500038   84.00930023    1.11000001    0.01000000
   16.47944450   84.00930023    1.11000001    0.01000000
   16.48361206   82.80490112    1.11000001    0.01000000
   16.48694420   82.99340057    1.11000001    0.01000000
   16.48833275   86.72910309    1.11000001    0.01000000
   16.49055672   90.62909698    1.11000001    0.01000000
   16.49361229   80.28299713    1.11000001    0.01000000
   16.49694443   79.39150238    1.11000001    0.01000000
   16.50027847   81.12629700    1.11000001    0.01000000
   16.50333405   86.48899841    1.11000001    0.01000000
   16.50666618   85.35980225    1.11000001    0.01000000
   16.50972176   85.60500336    1.11000001    0.01000000
   16.51305580   85.27429962    1.11000001    0.01000000
   16.51638794   81.84100342    1.11000001    0.01000000
   16.51944351   85.30239868    1.11000001    0.01000000
   16.52277756   81.52300262    1.11000001    0.01000000
   16.52611160   81.62480164    1.11000001    0.01000000
   16.53083229   81.62480164    1.11000001    0.01000000
   16.53472137   81.93920135    1.11000001    0.01000000
   16.53805542   82.33370209    1.11000001    0.01000000
   16.53861046   84.33619690    1.11000001    0.01000000
   16.54194450   83.95189667    1.11000001    0.01000000
   16.54500008   69.36669922    1.11000001    0.01000000
   16.54833221   79.65329742    1.11000001    0.01000000
   16.55166626   79.41989899    1.11000001    0.01000000
   16.55472183   83.27310181    1.11000001    0.01000000
   16.55805397   80.28250122    1.11000001    0.01000000
   16.56138802   81.45989990    1.11000001    0.01000000
   16.56444359   80.65840149    1.11000001    0.01000000
   16.56777954   86.38639832    1.11000001    0.01000000
   16.57083511   87.20729828    1.11000001    0.01000000
   16.57416725   81.64569855    1.11000001    0.01000000
   16.57750130   80.13300323    1.11000001    0.01000000
   16.58194542   80.13300323    1.11000001    0.01000000
   16.58611107   80.40779877    1.11000001    0.01000000
   16.58861160   85.67949677    1.11000001    0.01000000
   16.58972359   85.23570251    1.11000001    0.01000000
   16.59277916   84.25839996    1.11000001    0.01000000
   16.59611130   78.56680298    1.11000001    0.01000000
   16.59944534   83.61419678    1.11000001    0.01000000
   16.60250092   84.87149811    1.11000001    0.01000000
   16.60583305   84.26679993    1.11000001    0.01000000
   16.60888863   82.97450256    1.11000001    0.01000000
   16.61222267   85.65440369    1.11000001    0.01000000
   16.61555672   84.34909821    1.11000001    0.01000000
   16.61861038   86.20089722    1.11000001    0.01000000
   16.62194443   89.41329956    1.11000001    0.01000000
   16.62527847   84.11270142    1.11000001    0.01000000
   16.62833405   89.52680206    1.11000001    0.01000000
   16.63305473   89.52680206    1.11000001    0.01000000
   16.63722229   85.69149780    1.11000001    0.01000000
   16.63861084   86.15809631    1.11000001    0.01000000
   16.64083290   83.31950378    1.11000001    0.01000000
   16.64388847   80.58930206    1.11000001    0.01000000
   16.64722252   85.01329803    1.11000001    0.01000000
   16.65055466   85.38230133    1.11000001    0.01000000
   16.65361023   84.37419891    1.11000001    0.01000000
   16.65694427   88.92089844    1.11000001    0.01000000
   16.65999985   82.47679901    1.11000001    0.01000000
   16.66333389   93.48549652    1.11000001    0.01000000
   16.66666603   85.78070068    1.11000001    0.01000000
   16.66972160   86.33219910    1.11000001    0.01000000
   16.67305565   81.60729980    1.11000001    0.01000000
   16.67638779   82.85089874    1.11000001    0.01000000
   16.67944336   88.22979736    1.11000001    0.01000000
   16.68416595   88.22979736    1.11000001    0.01000000
   16.68833160   83.85600281    1.11000001    0.01000000
   16.68888855   85.58360291    1.11000001    0.01000000
   16.69222069   82.39620209    1.11000001    0.01000000
   16.69527626   85.12229919    1.11000001    0.01000000
   16.69861031   83.02539825    1.11000001    0.01000000
   16.70194435   79.78959656    1.11000001    0.01000000
   16.70499992   81.96510315    1.11000001    0.01000000
   16.70833397   83.55139923    1.11000001    0.01000000
   16.71166801   89.23639679    1.11000001    0.01000000
   16.71472359   89.73220062    1.11000001    0.01000000
   16.71805573   88.74269867    1.11000001    0.01000000
   16.72111130   87.15219879    1.11000001    0.01000000
   16.72444534   82.76200104    1.11000001    0.01000000
   16.72777748   83.67839813    1.11000001    0.01000000
   16.73083305   87.00959778    1.11000001    0.01000000
   16.73555565   87.00959778    1.11000001    0.01000000
   16.73944473   88.10919952    1.11000001    0.01000000
   16.74277878   85.20290375    1.11000001    0.01000000
   16.74611092   81.91310120    1.11000001    0.01000000
   16.74916649   79.09899902    1.11000001    0.01000000
   16.75250053   84.16040039    1.11000001    0.01000000
   16.75583267   80.54759979    1.11000001    0.01000000
   16.75888824   85.78340149    1.11000001    0.01000000
   16.76222229   85.82669830    1.11000001    0.01000000
   16.76527786   84.80120087    1.11000001    0.01000000
   16.76861000   86.54769897    1.11000001    0.01000000
   16.77194405   87.56719971    1.11000001    0.01000000
   16.77499962   86.40180206    1.11000001    0.01000000
   16.77833366   84.41110229    1.11000001    0.01000000
   16.78166580   85.27189636    1.11000001    0.01000000
   16.78666687   85.27189636    1.11000001    0.01000000
   16.79083252   90.04019928    1.11000001    0.01000000
   16.79388809   85.32610321    1.11000001    0.01000000
   16.79722214   86.57309723    1.11000001    0.01000000
   16.80055428   86.85729980    1.11000001    0.01000000
   16.80360985   89.14679718    1.11000001    0.01000000
   16.80694389   87.55130005    1.11000001    0.01000000
   16.81027794   87.58719635    1.11000001    0.01000000
   16.81333351   86.75340271    1.11000001    0.01000000
   16.81666756   83.19049835    1.11000001    0.01000000
   16.81972313   87.75019836    1.11000001    0.01000000
   16.82305717   86.46810150    1.11000001    0.01000000
   16.82638931   87.56700134    1.11000001    0.01000000
   16.82944489   85.30280304    1.11000001    0.01000000
   16.83277893   87.10079956    1.11000001    0.01000000
   16.83777809   87.10079956    1.11000001    0.01000000
   16.84194565   87.98059845    1.11000001    0.01000000
   16.84527779   82.94750214    1.11000001    0.01000000
   16.84833336   88.73770142    1.11000001    0.01000000
   16.85166740   86.97920227    1.11000001    0.01000000
   16.85472298   90.47360229    1.11000001    0.01000000
   16.85805511   85.73130035    1.11000001    0.01000000
   16.86138916   86.35880280    1.11000001    0.01000000
   16.86444473   78.77220154    1.11000001    0.01000000
   16.86777878   81.74790192    1.11000001    0.01000000
   16.87111092   83.33100128    1.11000001    0.01000000
   16.87416649   85.83290100    1.11000001    0.01000000
   16.87750053   89.76280212    1.11000001    0.01000000
   16.88055611   81.87069702    1.11000001    0.01000000
   16.88388824   87.04979706    1.11000001    0.01000000
   16.90527725   85.05300140    1.11000001    0.01000000
   16.90583229   88.46019745    1.11000001    0.01000000
   16.90916634   87.18990326    1.11000001    0.01000000
   16.91222191   80.42120361    1.11000001    0.01000000
   16.91555595   88.64119720    1.11000001    0.01000000
   16.91860962   82.47979736    1.11000001    0.01000000
   16.92194366   84.60569763    1.11000001    0.01000000
   16.92527771   86.06060028    1.11000001    0.01000000
   16.92833328   84.66349792    1.11000001    0.01000000
   16.93166542   79.65100098    1.11000001    0.01000000
   16.93499947   80.32859802    1.11000001    0.01000000
   16.94027710   80.32859802    1.11000001    0.01000000
   16.94444275   82.39299774    1.11000001    0.01000000
   16.94749832   86.37799835    1.11000001    0.01000000
   16.95083427   86.34459686    1.11000001    0.01000000
   16.95416832   81.45330048    1.11000001    0.01000000
   16.95527840   82.87270355    1.11000001    0.01000000
   16.95777893   89.77030182    1.11000001    0.01000000
   16.96083450   87.97059631    1.11000001    0.01000000
   16.96416664   85.64060211    1.11000001    0.01000000
   16.96750069   87.95580292    1.11000001    0.01000000
   16.97055626   80.17379761    1.11000001    0.01000000
   16.97389030   87.91290283    1.11000001    0.01000000
   16.97694588   85.49810028    1.11000001    0.01000000
   16.98027802   84.30619812    1.11000001    0.01000000
   16.98361206   82.17539978    1.11000001    0.01000000
   16.98666763   84.06929779    1.11000001    0.01000000
   16.99138832   84.06929779    1.11000001    0.01000000
   16.99555588   83.26029968    1.11000001    0.01000000
   16.99888992   83.79759979    1.11000001    0.01000000
   17.00194359   81.87550354    1.11000001    0.01000000
   17.00527763   85.43969727    1.11000001    0.01000000
   17.00583267   81.68640137    1.11000001    0.01000000
   17.00916672   78.31079865    1.11000001    0.01000000
   17.01222229   81.96279907    1.11000001    0.01000000
   17.01555634   82.64540100    1.11000001    0.01000000
   17.01861000   82.65339661    1.11000001    0.01000000
   17.02194405   88.89309692    1.11000001    0.01000000
   17.02527809   84.93779755    1.11000001    0.01000000
   17.02833366   86.27880096    1.11000001    0.01000000
   17.03166580   91.88809967    1.11000001    0.01000000
   17.03499985   88.29180145    1.11000001    0.01000000
   17.03805542   83.22910309    1.11000001    0.01000000
   17.04249954   83.22910309    1.11000001    0.01000000
   17.04666710   82.67929840    1.11000001    0.01000000
   17.04999924   86.91049957    1.11000001    0.01000000
   17.05333328   83.68240356    1.11000001    0.01000000
   17.05527687   90.13150024    1.11000001    0.01000000
   17.05694389   88.39250183    1.11000001    0.01000000
   17.05999947   86.57039642    1.11000001    0.01000000
   17.06333351   91.14060211    1.11000001    0.01000000
   17.06666756   86.17739868    1.11000001    0.01000000
   17.06972313   87.04589844    1.11000001    0.01000000
   17.07305717   86.17500305    1.11000001    0.01000000
   17.07638931   87.05819702    1.11000001    0.01000000
   17.07944489   86.80039978    1.11000001    0.01000000
   17.08277893   89.26409912    1.11000001    0.01000000
   17.08583450   83.39260101    1.11000001    0.01000000
   17.08916664   86.36869812    1.11000001    0.01000000
   17.09388924   86.36869812    1.11000001    0.01000000
   17.09805679   90.37149811    1.11000001    0.01000000
   17.10111237   90.72599792    1.11000001    0.01000000
   17.10444450   91.08689880    1.11000001    0.01000000
   17.10527802   87.77429962    1.11000001    0.01000000
   17.10805511   91.45059967    1.11000001    0.01000000
   17.11111069   91.56420135    1.11000001    0.01000000
   17.11444473   88.33840179    1.11000001    0.01000000
   17.11777878   86.56369781    1.11000001    0.01000000
   17.12083435   88.78990173    1.11000001    0.01000000
   17.12416649   84.59519958    1.11000001    0.01000000
   17.12750053   80.65699768    1.11000001    0.01000000
   17.13055611   86.42700195    1.11000001    0.01000000
   17.13388824   90.26309967    1.11000001    0.01000000
   17.13694382   84.62539673    1.11000001    0.01000000
   17.14027786   86.09629822    1.11000001    0.01000000
   17.14500046   86.09629822    1.11000001    0.01000000
   17.14916611   85.41339874    1.11000001    0.01000000
   17.15222168   89.66919708    1.11000001    0.01000000
   17.15555573   89.46880341    1.11000001    0.01000000
   17.15583229   84.34110260    1.11000001    0.01000000
   17.15916634   90.38459778    1.11000001    0.01000000
   17.16250038   89.54740143    1.11000001    0.01000000
   17.16555595   86.27809906    1.11000001    0.01000000
   17.16888809   80.52380371    1.11000001    0.01000000
   17.17222214   85.30680084    1.11000001    0.01000000
   17.17527771   87.70880127    1.11000001    0.01000000
   17.17860985   86.87789917    1.11000001    0.01000000
   17.18166542   86.11160278    1.11000001    0.01000000
   17.18499947   89.79450226    1.11000001    0.01000000
   17.18833160   89.82579803    1.11000001    0.01000000
   17.19138718   83.45950317    1.11000001    0.01000000
   17.19610977   83.45950317    1.11000001    0.01000000
   17.20027924   92.20770264    1.11000001    0.01000000
   17.20361137   86.50319672    1.11000001    0.01000000
   17.20555687   86.68720245    1.11000001    0.01000000
   17.20722389   83.63400269    1.11000001    0.01000000
   17.21027946   91.35099792    1.11000001    0.01000000
   17.21361160   91.13030243    1.11000001    0.01000000
   17.21666718   69.10359955    1.11000001    0.01000000
   17.22000122   86.70719910    1.11000001    0.01000000
   17.22333336   86.16169739    1.11000001    0.01000000
   17.22638893   86.59999847    1.11000001    0.01000000
   17.22972298   87.09040070    1.11000001    0.01000000
   17.23305511   93.80380249    1.11000001    0.01000000
   17.23611069   88.20429993    1.11000001    0.01000000
   17.23944473   88.56900024    1.11000001    0.01000000
   17.24250031   89.38770294    1.11000001    0.01000000
   17.24749947   89.38770294    1.11000001    0.01000000
   17.25166702   81.06999969    1.11000001    0.01000000
   17.25472260   88.90249634    1.11000001    0.01000000
   17.25555611   91.87210083    1.11000001    0.01000000
   17.25861168   89.84609985    1.11000001    0.01000000
   17.26166725   88.18440247    1.11000001    0.01000000
   17.26499939   86.29540253    1.11000001    0.01000000
   17.26805496   90.84369659    1.11000001    0.01000000
   17.27138901   87.88529968    1.11000001    0.01000000
   17.27472115   88.80519867    1.11000001    0.01000000
   17.27777672   85.76260376    1.11000001    0.01000000
   17.28111076   83.84529877    1.11000001    0.01000000
   17.28444481   88.67710114    1.11000001    0.01000000
   17.28750038   83.18049622    1.11000001    0.01000000
   17.29083252   85.13809967    1.11000001    0.01000000
   17.29388809   87.28230286    1.11000001    0.01000000
   17.29861069   87.28230286    1.11000001    0.01000000
   17.30277634   84.79209900    1.11000001    0.01000000
   17.30555534   84.97229767    1.11000001    0.01000000
   17.30638885   84.04810333    1.11000001    0.01000000
   17.30944443   86.13770294    1.11000001    0.01000000
   17.31277657   83.03079987    1.11000001    0.01000000
   17.31583214   83.20179749    1.11000001    0.01000000
   17.31916809   84.32160187    1.11000001    0.01000000
   17.32250023   86.05410004    1.11000001    0.01000000
   17.32555580   86.96720123    1.11000001    0.01000000
   17.32888985   85.24970245    1.11000001    0.01000000
   17.33222389   94.52149963    1.11000001    0.01000000
   17.33527756   82.71929932    1.11000001    0.01000000
   17.33861160   88.50520325    1.11000001    0.01000000
   17.34166718   83.63069916    1.11000001    0.01000000
   17.34500122   84.85359955    1.11000001    0.01000000
   17.34972191   84.85359955    1.11000001    0.01000000
   17.35388947   82.13770294    1.11000001    0.01000000
   17.35555649   83.30590057    1.11000001    0.01000000
   17.35777855   78.69920349    1.11000001    0.01000000
   17.36083412   78.98909760    1.11000001    0.01000000
   17.36416626   89.92569733    1.11000001    0.01000000
   17.36750031   76.98840332    1.11000001    0.01000000
   17.37055588   85.91470337    1.11000001    0.01000000
   17.37388992   81.44229889    1.11000001    0.01000000
   17.37694550   83.18489838    1.11000001    0.01000000
   17.38027763   88.09480286    1.11000001    0.01000000
   17.38361168   81.23390198    1.11000001    0.01000000
   17.38666725   87.97080231    1.11000001    0.01000000
   17.38999939   87.85030365    1.11000001    0.01000000
   17.39333344   89.45989990    1.11000001    0.01000000
   17.39638901   84.32129669    1.11000001    0.01000000
   17.40083313   84.32129669    1.11000001    0.01000000
   17.40499878   84.87259674    1.11000001    0.01000000
   17.40555573   89.11000061    1.11000001    0.01000000
   17.40861130   81.05419922    1.11000001    0.01000000
   17.41166687   83.10119629    1.11000001    0.01000000
   17.41499901   80.62850189    1.11000001    0.01000000
   17.41833305   88.81230164    1.11000001    0.01000000
   17.42138863   86.47480011    1.11000001    0.01000000
   17.42472076   91.15709686    1.11000001    0.01000000
   17.42805481   90.27610016    1.11000001    0.01000000
   17.43111038   87.79550171    1.11000001    0.01000000
   17.43444443   86.33270264    1.11000001    0.01000000
   17.43750000   92.07540131    1.11000001    0.01000000
   17.44083214   89.50849915    1.11000001    0.01000000
   17.44416618   88.95950317    1.11000001    0.01000000
   17.44722176   91.68949890    1.11000001    0.01000000
   17.45222282   91.68949890    1.11000001    0.01000000
   17.45639038   87.62670135    1.11000001    0.01000000
   17.45944595   85.18939972    1.11000001    0.01000000
   17.46277809   91.13059998    1.11000001    0.01000000
   17.46583366   70.26190186    1.11000001    0.01000000
   17.46916771   89.70240021    1.11000001    0.01000000
   17.47249985   87.25360107    1.11000001    0.01000000
   17.47555542   87.82309723    1.11000001    0.01000000
   17.47888947   84.43699646    1.11000001    0.01000000
   17.48222351   88.76010132    1.11000001    0.01000000
   17.48527718   88.87819672    1.11000001    0.01000000
   17.48861122   92.99120331    1.11000001    0.01000000
   17.49166679   91.90360260    1.11000001    0.01000000
   17.49500084   92.08830261    1.11000001    0.01000000
   17.49833298   91.81459808    1.11000001    0.01000000
   17.50333405   91.81459808    1.11000001    0.01000000
   17.50749969   93.11370087    1.11000001    0.01000000
   17.51055527   93.46230316    1.11000001    0.01000000
   17.51388931   91.46920013    1.11000001    0.01000000
   17.51722145   89.68990326    1.11000001    0.01000000
   17.52027702   88.51959991    1.11000001    0.01000000
   17.52361107   93.76940155    1.11000001    0.01000000
   17.52666664   88.67649841    1.11000001    0.01000000
   17.53000069   91.26490021    1.11000001    0.01000000
   17.53333282   86.69619751    1.11000001    0.01000000
   17.53638840   90.89450073    1.11000001    0.01000000
   17.53972244   96.08599854    1.11000001    0.01000000
   17.54305458   87.29049683    1.11000001    0.01000000
   17.54611015   89.61940002    1.11000001    0.01000000
   17.54944420   95.44339752    1.11000001    0.01000000
   17.55444336   95.44339752    1.11000001    0.01000000
   17.55861092   87.94640350    1.11000001    0.01000000
   17.56194305   77.96790314    1.11000001    0.01000000
   17.56499863   91.65940094    1.11000001    0.01000000
   17.56833458   95.58940125    1.11000001    0.01000000
   17.57139015   86.72669983    1.11000001    0.01000000
   17.57472229   90.58899689    1.11000001    0.01000000
   17.57805634   87.59220123    1.11000001    0.01000000
   17.58111191   87.07209778    1.11000001    0.01000000
   17.58444595   89.47239685    1.11000001    0.01000000
   17.58777809   88.57949829    1.11000001    0.01000000
   17.59083366   86.87059784    1.11000001    0.01000000
   17.59416771   90.61779785    1.11000001    0.01000000
   17.59722328   90.34549713    1.11000001    0.01000000
   17.60055542   97.53869629    1.11000001    0.01000000
   17.60555649   97.53869629    1.11000001    0.01000000
   17.60972214   91.47200012    1.11000001    0.01000000
   17.61305618   88.21479797    1.11000001    0.01000000
   17.61638832   87.43080139    1.11000001    0.01000000
   17.61944389   89.89129639    1.11000001    0.01000000
   17.62277794   86.99109650    1.11000001    0.01000000
   17.62611198   91.66619873    1.11000001    0.01000000
   17.62916756   90.23619843    1.11000001    0.01000000
   17.63249969   82.30899811    1.11000001    0.01000000
   17.63555527   83.77559662    1.11000001    0.01000000
   17.63888931   91.15609741    1.11000001    0.01000000
   17.64222145   82.62429810    1.11000001    0.01000000
   17.64527702   95.93990326    1.11000001    0.01000000
   17.64861107   90.55149841    1.11000001    0.01000000
   17.65194321   91.83570099    1.11000001    0.01000000
   17.65694427   91.83570099    1.11000001    0.01000000
   17.66083336   93.85160065    1.11000001    0.01000000
   17.66416550   91.99060059    1.11000001    0.01000000
   17.66749954   94.96959686    1.11000001    0.01000000
   17.67055511   91.55400085    1.11000001    0.01000000
   17.67388916   88.17330170    1.11000001    0.01000000
   17.67722130   82.53669739    1.11000001    0.01000000
   17.68027687   83.07050323    1.11000001    0.01000000
   17.68361092   82.68979645    1.11000001    0.01000000
   17.68666649   91.69149780    1.11000001    0.01000000
   17.68999863   86.99210358    1.11000001    0.01000000
   17.69333267   97.16840363    1.11000001    0.01000000
   17.69666672   88.53029633    1.11000001    0.01000000
   17.69972038   93.73439789    1.11000001    0.01000000
   17.70305634   86.73139954    1.11000001    0.01000000
   17.70805550   86.73139954    1.11000001    0.01000000
   17.71222305   79.06520081    1.11000001    0.01000000
   17.71527863   78.01660156    1.11000001    0.01000000
   17.71861076   88.40029907    1.11000001    0.01000000
   17.72194481   89.04119873    1.11000001    0.01000000
   17.72500038   88.02030182    1.11000001    0.01000000
   17.72833443   79.13410187    1.11000001    0.01000000
   17.73139000   88.55370331    1.11000001    0.01000000
   17.73472214   90.21520233    1.11000001    0.01000000
   17.73805618   91.04589844    1.11000001    0.01000000
   17.74111176   92.35970306    1.11000001    0.01000000
   17.74444389   90.35859680    1.11000001    0.01000000
   17.74777794   85.68170166    1.11000001    0.01000000
   17.75083351   87.62999725    1.11000001    0.01000000
   17.75416756   85.11889648    1.11000001    0.01000000
   17.75916672   85.11889648    1.11000001    0.01000000
   17.76333427   89.81030273    1.11000001    0.01000000
   17.76666641   89.69920349    1.11000001    0.01000000
   17.76972198   94.09709930    1.11000001    0.01000000
   17.77305603   87.16310120    1.11000001    0.01000000
   17.77611160   92.80090332    1.11000001    0.01000000
   17.77944374   93.17220306    1.11000001    0.01000000
   17.78277779   89.05239868    1.11000001    0.01000000
   17.78583336   90.93000031    1.11000001    0.01000000
   17.78916550   88.87750244    1.11000001    0.01000000
   17.79249954   85.09500122    1.11000001    0.01000000
   17.79555511   89.07289886    1.11000001    0.01000000
   17.79888916   91.43750000    1.11000001    0.01000000
   17.80222130   93.23370361    1.11000001    0.01000000
   17.80527687   92.13639832    1.11000001    0.01000000
   17.81027794   92.13639832    1.11000001    0.01000000
   17.81444359   87.18720245    1.11000001    0.01000000
   17.81777954   88.16860199    1.11000001    0.01000000
   17.82083511   85.70439911    1.11000001    0.01000000
   17.82416725   92.54270172    1.11000001    0.01000000
   17.82750130   95.43009949    1.11000001    0.01000000
   17.83055687   89.48459625    1.11000001    0.01000000
   17.83388901   88.75759888    1.11000001    0.01000000
   17.83722305   88.02189636    1.11000001    0.01000000
   17.84027863   87.26319885    1.11000001    0.01000000
   17.84361267   90.48889923    1.11000001    0.01000000
   17.84666824   80.24189758    1.11000001    0.01000000
   17.85000038   85.23049927    1.11000001    0.01000000
   17.85333443   85.44580078    1.11000001    0.01000000
   17.85639000   90.64450073    1.11000001    0.01000000
   17.86166763   90.64450073    1.11000001    0.01000000
   17.86555672   93.79979706    1.11000001    0.01000000
   17.86888885   94.14389801    1.11000001    0.01000000
   17.87222290   91.46730042    1.11000001    0.01000000
   17.87527847   96.36940002    1.11000001    0.01000000
   17.87861061   93.16339874    1.11000001    0.01000000
   17.88194466   95.42849731    1.11000001    0.01000000
   17.88500023   92.03649902    1.11000001    0.01000000
   17.88833237   97.80650330    1.11000001    0.01000000
   17.89138794   91.27660370    1.11000001    0.01000000
   17.89472198   91.84020233    1.11000001    0.01000000
   17.89805603   97.19200134    1.11000001    0.01000000
   17.90111160   93.90529633    1.11000001    0.01000000
   17.90444374   97.86969757    1.11000001    0.01000000
   17.92555428   97.86969757    1.11000001    0.01000000
   17.92972183   80.81759644    1.11000001    0.01000000
   17.93305397   89.06130219    1.11000001    0.01000000
   17.93610954   72.46549988    1.11000001    0.01000000
   17.93944359   92.80660248    1.11000001    0.01000000
   17.94249916   96.40180206    1.11000001    0.01000000
   17.94583321   90.06220245    1.11000001    0.01000000
   17.94916534   93.80650330    1.11000001    0.01000000
   17.95222282   96.94049835    1.11000001    0.01000000
   17.95555687   89.59239960    1.11000001    0.01000000
   17.95888901   93.41850281    1.11000001    0.01000000
   17.96194458   94.26650238    1.11000001    0.01000000
   17.96527863   87.14089966    1.11000001    0.01000000
   17.96833420   92.39299774    1.11000001    0.01000000
   17.97166634   91.55020142    1.11000001    0.01000000
   17.97305679   74.76370239    1.11000001    0.01000000
   17.97722244   74.76370239    1.11000001    0.01000000
   17.98139000   94.88510132    1.11000001    0.01000000
   17.98444557   94.90309906    1.11000001    0.01000000
   17.98777771   92.89990234    1.11000001    0.01000000
   17.99111176   90.76760101    1.11000001    0.01000000
   17.99416733   99.43370056    1.11000001    0.01000000
   17.99749947   80.85489655    1.11000001    0.01000000
   18.00083351   94.04740143    1.11000001    0.01000000
   18.00388908   86.04470062    1.11000001    0.01000000
   18.00722313   87.58830261    1.11000001    0.01000000
   18.01027870   86.13439941    1.11000001    0.01000000
   18.01361084   91.04959869    1.11000001    0.01000000
   18.01694489   87.16729736    1.11000001    0.01000000
   18.02000046   87.50550079    1.11000001    0.01000000
   18.02305603   88.83309937    1.11000001    0.01000000
   18.02388954   94.21009827    1.11000001    0.01000000
   18.02833366   94.21009827    1.11000001    0.01000000
   18.03249931   96.47059631    1.11000001    0.01000000
   18.03583336   91.76959991    1.11000001    0.01000000
   18.03888893   98.34010315    1.11000001    0.01000000
   18.04222107   94.60160065    1.11000001    0.01000000
   18.04555511   90.67140198    1.11000001    0.01000000
   18.04861069   90.15059662    1.11000001    0.01000000
   18.05194283   91.84829712    1.11000001    0.01000000
   18.05499840   96.22260284    1.11000001    0.01000000
   18.05833244   96.55590057    1.11000001    0.01000000
   18.06166649   93.58550262    1.11000001    0.01000000
   18.06472206   85.11080170    1.11000001    0.01000000
   18.06805611   93.84719849    1.11000001    0.01000000
   18.07139015   90.84420013    1.11000001    0.01000000
   18.07305717   92.64379883    1.11000001    0.01000000
   18.07500076   89.06620026    1.11000001    0.01000000
   18.07944489   89.06620026    1.11000001    0.01000000
   18.08361244   89.25959778    1.11000001    0.01000000
   18.08694458   97.21710205    1.11000001    0.01000000
   18.09027863   89.44960022    1.11000001    0.01000000
   18.09333420   90.99849701    1.11000001    0.01000000
   18.09666824   97.10859680    1.11000001    0.01000000
   18.09972191   90.94709778    1.11000001    0.01000000
   18.10305595   96.87190247    1.11000001    0.01000000
   18.10639000   98.24479675    1.11000001    0.01000000
   18.10944557   96.69830322    1.11000001    0.01000000
   18.11277771   93.10310364    1.11000001    0.01000000
   18.11611176   95.87259674    1.11000001    0.01000000
   18.11916733   98.64800262    1.11000001    0.01000000
   18.12249947   92.53250122    1.11000001    0.01000000
   18.12305641   92.61959839    1.11000001    0.01000000
   18.12611198   93.36009979    1.11000001    0.01000000
   18.13083267   93.36009979    1.11000001    0.01000000
   18.13500023   91.21640015    1.11000001    0.01000000
   18.13805580   91.07109833    1.11000001    0.01000000
   18.14138794   94.33899689    1.11000001    0.01000000
   18.14444351   90.07620239    1.11000001    0.01000000
   18.14777756   88.16410065    1.11000001    0.01000000
   18.15111160   84.56849670    1.11000001    0.01000000
   18.15416718   97.06210327    1.11000001    0.01000000
   18.15749931   95.12169647    1.11000001    0.01000000
   18.16083336   95.43460083    1.11000001    0.01000000
   18.16388893   93.49449921    1.11000001    0.01000000
   18.16722107   92.16889954    1.11000001    0.01000000
   18.17027664   94.47409821    1.11000001    0.01000000
   18.17305565   73.85410309    1.11000001    0.01000000
   18.17416573   95.55570221    1.11000001    0.01000000
   18.17722130   97.81009674    1.11000001    0.01000000
   18.18194389   97.81009674    1.11000001    0.01000000
   18.18610954  102.36000061    1.11000001    0.01000000
   18.18916512   98.58409882    1.11000001    0.01000000
   18.19249916  104.04900360    1.11000001    0.01000000
   18.19583321   98.62580109    1.11000001    0.01000000
   18.19888878  106.89399719    1.11000001    0.01000000
   18.20222282  106.12899780    1.11000001    0.01000000
   18.20555687  100.54900360    1.11000001    0.01000000
   18.20861244   98.09590149    1.11000001    0.01000000
   18.21194458   99.82659912    1.11000001    0.01000000
   18.21527863  104.36199951    1.11000001    0.01000000
   18.21833420   89.59519958    1.11000001    0.01000000
   18.22166634   97.79519653    1.11000001    0.01000000
   18.22305679   93.21790314    1.11000001    0.01000000
   18.22527885   87.44599915    1.11000001    0.01000000
   18.22833443   93.99739838    1.11000001    0.01000000
   18.23305511   93.99739838    1.11000001    0.01000000
   18.23722267   97.32409668    1.11000001    0.01000000
   18.24055672  100.20400238    1.11000001    0.01000000
   18.24361229   95.21820068    1.11000001    0.01000000
   18.24694443   93.72740173    1.11000001    0.01000000
   18.25027847   96.56919861    1.11000001    0.01000000
   18.25333405  100.48100281    1.11000001    0.01000000
   18.25666618   98.15260315    1.11000001    0.01000000
   18.25972176   88.54730225    1.11000001    0.01000000
   18.26305580   86.63849640    1.11000001    0.01000000
   18.26638794   95.23629761    1.11000001    0.01000000
   18.26944351   92.46420288    1.11000001    0.01000000
   18.27277756   96.92269897    1.11000001    0.01000000
   18.27333260   96.23930359    1.11000001    0.01000000
   18.27666664   94.87069702    1.11000001    0.01000000
   18.27972221   96.70369720    1.11000001    0.01000000
   18.28416634   96.70369720    1.11000001    0.01000000
   18.28833199   94.13220215    1.11000001    0.01000000
   18.29166603  101.20500183    1.11000001    0.01000000
   18.29472160  105.88899994    1.11000001    0.01000000
   18.29805565   94.05719757    1.11000001    0.01000000
   18.30138779   90.01029968    1.11000001    0.01000000
   18.30444336   98.10160065    1.11000001    0.01000000
   18.30777740   96.30439758    1.11000001    0.01000000
   18.31110954   94.37640381    1.11000001    0.01000000
   18.31416512   95.19850159    1.11000001    0.01000000
   18.31750107   92.99739838    1.11000001    0.01000000
   18.32055664  101.88600159    1.11000001    0.01000000
   18.32333374   92.73120117    1.11000001    0.01000000
   18.32444572   92.36119843    1.11000001    0.01000000
   18.32750130   81.28790283    1.11000001    0.01000000
   18.33083344   78.62850189    1.11000001    0.01000000
   18.33555603   78.62850189    1.11000001    0.01000000
   18.33944511   83.29889679    1.11000001    0.01000000
   18.34277916   88.38449860    1.11000001    0.01000000
   18.34611130   96.59239960    1.11000001    0.01000000
   18.34916687   94.79630280    1.11000001    0.01000000
   18.35250092   86.17359924    1.11000001    0.01000000
   18.35583305   89.49220276    1.11000001    0.01000000
   18.35888863   78.06240082    1.11000001    0.01000000
   18.36222267   89.08229828    1.11000001    0.01000000
   18.36527824   96.27220154    1.11000001    0.01000000
   18.36861038   83.55829620    1.11000001    0.01000000
   18.37194443   91.14589691    1.11000001    0.01000000
   18.37333298   94.01399994    1.11000001    0.01000000
   18.37555504   95.31759644    1.11000001    0.01000000
   18.37861061   92.06800079    1.11000001    0.01000000
   18.38194466   95.48960114    1.11000001    0.01000000
   18.38666725   95.48960114    1.11000001    0.01000000
   18.39083290   92.04199982    1.11000001    0.01000000
   18.39388847   90.18779755    1.11000001    0.01000000
   18.39722252   86.72679901    1.11000001    0.01000000
   18.40055466   86.60220337    1.11000001    0.01000000
   18.40361023   88.60729980    1.11000001    0.01000000
   18.40694427   85.72799683    1.11000001    0.01000000
   18.40999985   89.84929657    1.11000001    0.01000000
   18.41333389   96.78079987    1.11000001    0.01000000
   18.41666603   96.00129700    1.11000001    0.01000000
   18.41972160   91.56459808    1.11000001    0.01000000
   18.42305565   86.81819916    1.11000001    0.01000000
   18.42361069   91.92160034    1.11000001    0.01000000
   18.42694473   97.76300049    1.11000001    0.01000000
   18.43000031   88.34870148    1.11000001    0.01000000
   18.43333244   91.64739990    1.11000001    0.01000000
   18.43777657   91.64739990    1.11000001    0.01000000
   18.44194412   82.45010376    1.11000001    0.01000000
   18.44527626   92.03780365    1.11000001    0.01000000
   18.44833183   89.23120117    1.11000001    0.01000000
   18.45166779   79.43540192    1.11000001    0.01000000
   18.45472336   95.72669983    1.11000001    0.01000000
   18.45805550   91.78440094    1.11000001    0.01000000
   18.46138954   90.87319946    1.11000001    0.01000000
   18.46444511   90.00060272    1.11000001    0.01000000
   18.46777916   90.46170044    1.11000001    0.01000000
   18.47111130   92.02970123    1.11000001    0.01000000
   18.47361183   76.24079895    1.11000001    0.01000000
   18.47472191   97.98139954    1.11000001    0.01000000
   18.47777748   94.59059906    1.11000001    0.01000000
   18.48111153   94.60359955    1.11000001    0.01000000
   18.48416710   90.91549683    1.11000001    0.01000000
   18.48888969   90.91549683    1.11000001    0.01000000
   18.49305534   89.81040192    1.11000001    0.01000000
   18.49638939   88.43250275    1.11000001    0.01000000
   18.49944496   89.84700012    1.11000001    0.01000000
   18.50277710   93.51409912    1.11000001    0.01000000
   18.50611115   93.15450287    1.11000001    0.01000000
   18.50916672   93.70339966    1.11000001    0.01000000
   18.51250076   87.12870026    1.11000001    0.01000000
   18.51583290  102.41300201    1.11000001    0.01000000
   18.51888847   98.80639648    1.11000001    0.01000000
   18.52222252   88.21350098    1.11000001    0.01000000
   18.52361107   89.78880310    1.11000001    0.01000000
   18.52583313   96.45010376    1.11000001    0.01000000
   18.52888870   93.99269867    1.11000001    0.01000000
   18.53222275  102.81600189    1.11000001    0.01000000
   18.53527641   98.29640198    1.11000001    0.01000000
   18.54027748   98.29640198    1.11000001    0.01000000
   18.54416656   89.06340027    1.11000001    0.01000000
   18.54749870   90.14579773    1.11000001    0.01000000
   18.55083275   90.86740112    1.11000001    0.01000000
   18.55388832   94.46600342    1.11000001    0.01000000
   18.55722237   91.92829895    1.11000001    0.01000000
   18.56055450   90.36710358    1.11000001    0.01000000
   18.56361008   91.12889862    1.11000001    0.01000000
   18.56694603   90.80020142    1.11000001    0.01000000
   18.57000160   91.10739899    1.11000001    0.01000000
   18.57333374   92.48130035    1.11000001    0.01000000
   18.57389069   92.33589935    1.11000001    0.01000000
   18.57722282   91.09459686    1.11000001    0.01000000
   18.58027840  100.75199890    1.11000001    0.01000000
   18.58361244   94.11129761    1.11000001    0.01000000
   18.58694458   91.88529968    1.11000001    0.01000000
   18.59138870   91.88529968    1.11000001    0.01000000
   18.59555626   95.06520081    1.11000001    0.01000000
   18.59861183   95.63710022    1.11000001    0.01000000
   18.60194397   94.03869629    1.11000001    0.01000000
   18.60527802   98.79470062    1.11000001    0.01000000
   18.60833359   97.18599701    1.11000001    0.01000000
   18.61166763   96.22769928    1.11000001    0.01000000
   18.61472321   98.25309753    1.11000001    0.01000000
   18.61805534   93.38230133    1.11000001    0.01000000
   18.62138939   98.06310272    1.11000001    0.01000000
   18.62388992   98.86560059    1.11000001    0.01000000
   18.62500000   93.39179993    1.11000001    0.01000000
   18.62805557   94.34230042    1.11000001    0.01000000
   18.63138962   98.38439941    1.11000001    0.01000000
   18.63472176   94.80059814    1.11000001    0.01000000
   18.63777733   96.30269623    1.11000001    0.01000000
   18.64249992   96.30269623    1.11000001    0.01000000
   18.64666748   89.96160126    1.11000001    0.01000000
   18.64999962   90.60500336    1.11000001    0.01000000
   18.65305519   96.02999878    1.11000001    0.01000000
   18.65638924  101.95600128    1.11000001    0.01000000
   18.65944481   90.81770325    1.11000001    0.01000000
   18.66277695   86.98490143    1.11000001    0.01000000
   18.66611099   96.65560150    1.11000001    0.01000000
   18.66916656   86.63819885    1.11000001    0.01000000
   18.67249870   92.34030151    1.11000001    0.01000000
   18.67388916  101.52899933    1.11000001    0.01000000
   18.67611122   95.40720367    1.11000001    0.01000000
   18.67944336   89.28389740    1.11000001    0.01000000
   18.68249893   93.46489716    1.11000001    0.01000000
   18.68583298   96.51170349    1.11000001    0.01000000
   18.68888855   96.51550293    1.11000001    0.01000000
   18.69361115   96.51550293    1.11000001    0.01000000
   18.69777679   94.86969757    1.11000001    0.01000000
   18.70111275   98.05269623    1.11000001    0.01000000
   18.70416832   93.48709869    1.11000001    0.01000000
   18.70750046  102.71299744    1.11000001    0.01000000
   18.71083450   92.66860199    1.11000001    0.01000000
   18.71389008   95.19840240    1.11000001    0.01000000
   18.71722221   90.18869781    1.11000001    0.01000000
   18.72055626  102.03700256    1.11000001    0.01000000
   18.72361183   97.73149872    1.11000001    0.01000000
   18.72416687   88.06390381    1.11000001    0.01000000
   18.72750092   94.19100189    1.11000001    0.01000000
   18.73083305   91.86509705    1.11000001    0.01000000
   18.73388863   93.67030334    1.11000001    0.01000000
   18.73722267   96.32450104    1.11000001    0.01000000
   18.74027824   89.11900330    1.11000001    0.01000000
   18.74500084   89.11900330    1.11000001    0.01000000
   18.74888992  100.52899933    1.11000001    0.01000000
   18.75222206   98.72260284    1.11000001    0.01000000
   18.75555611   91.51339722    1.11000001    0.01000000
   18.75861168   99.00589752    1.11000001    0.01000000
   18.76194382   98.39990234    1.11000001    0.01000000
   18.76527786   93.31079865    1.11000001    0.01000000
   18.76833344   98.93109894    1.11000001    0.01000000
   18.77166557   94.30380249    1.11000001    0.01000000
   18.77416611   90.93979645    1.11000001    0.01000000
   18.77527809   95.92929840    1.11000001    0.01000000
   18.77861023   78.96450043    1.11000001    0.01000000
   18.78166580   95.76650238    1.11000001    0.01000000
   18.78499985   96.54100037    1.11000001    0.01000000
   18.78805542  104.19300079    1.11000001    0.01000000
   18.79138756  101.59400177    1.11000001    0.01000000
   18.79611015  101.59400177    1.11000001    0.01000000
   18.80027771  100.05300140    1.11000001    0.01000000
   18.80333328  105.95600128    1.11000001    0.01000000
   18.80666542   97.99230194    1.11000001    0.01000000
   18.80999947   96.89720154    1.11000001    0.01000000
   18.81305504   91.09539795    1.11000001    0.01000000
   18.81638718   92.68389893    1.11000001    0.01000000
   18.81944466   91.39050293    1.11000001    0.01000000
   18.82277870   91.62329865    1.11000001    0.01000000
   18.82444572   89.19229889    1.11000001    0.01000000
   18.82638931   87.28199768    1.11000001    0.01000000
   18.82972336   94.14450073    1.11000001    0.01000000
   18.83277893   87.91210175    1.11000001    0.01000000
   18.83611107   90.53530121    1.11000001    0.01000000
   18.83916664   91.34169769    1.11000001    0.01000000
   18.84250069   99.58190155    1.11000001    0.01000000
   18.84722328   99.58190155    1.11000001    0.01000000
   18.85138893   94.86280060    1.11000001    0.01000000
   18.85472298   91.61849976    1.11000001    0.01000000
   18.85777855  100.83699799    1.11000001    0.01000000
   18.86111069   94.94409943    1.11000001    0.01000000
   18.86416626   90.93379974    1.11000001    0.01000000
   18.86750031   89.63880157    1.11000001    0.01000000
   18.87083435   84.34790039    1.11000001    0.01000000
   18.87388992   92.21369934    1.11000001    0.01000000
   18.87444496   91.66819763    1.11000001    0.01000000
   18.87750053   94.73670197    1.11000001    0.01000000
   18.88083267   97.23940277    1.11000001    0.01000000
   18.88388824   97.48149872    1.11000001    0.01000000
   18.88722229   91.77639771    1.11000001    0.01000000
   18.89027786   91.50299835    1.11000001    0.01000000
   18.89361191   93.01249695    1.11000001    0.01000000
   18.89833260   93.01249695    1.11000001    0.01000000
   18.90250015   93.89479828    1.11000001    0.01000000
   18.90583229   92.28150177    1.11000001    0.01000000
   18.90916634   91.60150146    1.11000001    0.01000000
   18.91222191   87.78769684    1.11000001    0.01000000
   18.91555595   91.84729767    1.11000001    0.01000000
   18.91860962  103.34700012    1.11000001    0.01000000
   18.92194366   90.99559784    1.11000001    0.01000000
   18.93888855   90.47080231    1.11000001    0.01000000
   18.94166565   92.38069916    1.11000001    0.01000000
   18.94499969   90.03890228    1.11000001    0.01000000
   18.94972038   90.03890228    1.11000001    0.01000000
   18.95388985   89.45639801    1.11000001    0.01000000
   18.95722389   93.13580322    1.11000001    0.01000000
   18.96055603   90.02179718    1.11000001    0.01000000
   18.96361160   84.09750366    1.11000001    0.01000000
   19.72722244   -1.00000000   -1.00000000   -1.00000000
