    HOUR (UT)   FLARE FACTOR    SKY TESTER    SUN TESTER
   11.33055592   -1.00000000   -1.00000000   -1.00000000
   11.40222168   85.31659698    4.90999985    2.73000002
   11.40555477   81.67060089    4.90999985    2.73000002
   11.40888882   83.65720367    4.90999985    2.73000002
   11.41194439   85.01020050    4.90999985    2.73000002
   11.41527748   82.68699646    4.90999985    2.73000002
   11.41861153   80.51499939    4.90999985    2.73000002
   11.42166710   82.66960144    4.90999985    2.75000000
   11.42500019   81.66339874    4.90999985    2.73000002
   11.43083382   81.66339874    4.90999985    2.73000002
   11.43500042   82.46920013    4.90999985    2.73000002
   11.43833351   81.60569763    4.90999985    2.73000002
   11.44138908   72.56990051    4.90999985    2.73000002
   11.44472218   80.52020264    4.90999985    2.73000002
   11.44805527   85.25659943    4.90999985    2.73000002
   11.45111084   89.86450195    4.90999985    2.73000002
   11.45222187   84.44129944    4.90999985    2.75000000
   11.45472240   78.56639862    4.90999985    2.75000000
   11.45805550   83.46739960    4.90999985    2.75000000
   11.46111107   84.89730072    4.90999985    2.75000000
   11.46444416   79.48860168    4.90999985    2.75000000
   11.46749973   79.78769684    4.90999985    2.75000000
   11.47083282   83.94799805    4.90999985    2.75000000
   11.47416592   80.08080292    4.90999985    2.75000000
   11.47722149   85.02279663    4.90999985    2.75000000
   11.48194408   85.02279663    4.90999985    2.75000000
   11.48611164   82.22019958    4.90999985    2.75000000
   11.48944473   83.28639984    4.90999985    2.75000000
   11.49277782   75.28839874    4.90999985    2.75000000
   11.49583340   82.61710358    4.90999985    2.75000000
   11.49916649   83.34809875    4.90999985    2.75000000
   11.50222206   84.14189911    4.90999985    2.75000000
   11.50277805   75.38839722    4.90999985    2.75000000
   11.50611115   80.95619965    4.90999985    2.75000000
   11.50916672   79.72650146    4.90999985    2.75000000
   11.51249981   83.94180298    4.90999985    2.75000000
   11.51555538   81.16590118    4.90999985    2.75000000
   11.51888847   78.98069763    4.90999985    2.75000000
   11.52222157   85.82289886    4.90999985    2.75000000
   11.52527714   88.38590240    4.90999985    2.76999998
   11.52861118   85.18879700    4.90999985    2.75000000
   11.53333378   85.18879700    4.90999985    2.76999998
   11.53750038   92.50890350    4.90999985    2.76999998
   11.54055595   83.01779938    4.90999985    2.76999998
   11.54388905   83.12439728    4.90999985    2.76999998
   11.54722309   78.86609650    4.90999985    2.76999998
   11.55027771   90.45680237    4.90999985    2.75000000
   11.55222225   81.03980255    4.90999985    2.75000000
   11.55388927   86.16840363    4.90999985    2.75000000
   11.55722237   81.78620148    4.90999985    2.76999998
   11.56027794   69.86519623    4.90999985    2.75000000
   11.56361103   70.83640289    4.90999985    2.76999998
   11.56694412   85.32089996    4.90999985    2.76999998
   11.57027817   87.97059631    4.90999985    2.76999998
   11.57361126   87.21140289    4.90999985    2.76999998
   11.57694435   80.01619720    4.90999985    2.76999998
   11.57999992   84.09670258    4.90999985    2.78999996
   11.58444405   84.09670258    4.90999985    2.76999998
   11.58861065   78.44450378    4.90999985    2.76999998
   11.59166622   88.13590240    4.90999985    2.78999996
   11.59499931   99.10669708    4.90999985    2.78999996
   11.59833336   84.69770050    4.90999985    2.78999996
   11.60138893   85.59989929    4.90999985    2.78999996
   11.60222244   85.26129913    4.90999985    2.76999998
   11.60500050   87.53520203    4.90999985    2.78999996
   11.60833359   75.85810089    4.90999985    2.76999998
   11.61166668   87.61380005    4.90999985    2.78999996
   11.61472225   82.07589722    4.90999985    2.76999998
   11.61805534   77.27040100    4.90999985    2.76999998
   11.62111092   80.68039703    4.90999985    2.76999998
   11.62444496   84.40419769    4.90999985    2.76999998
   11.62777805   87.24749756    4.90999985    2.76999998
   11.63083363   84.98829651    4.90999985    2.76999998
   11.63555527   84.98829651    4.90999985    2.78999996
   11.63972187   79.81179810    4.90999985    2.76999998
   11.64305496   80.33589935    4.90999985    2.76999998
   11.64611053   87.38339996    4.90999985    2.78999996
   11.64944458   81.36250305    4.90999985    2.78999996
   11.65222168   80.92530060    4.90999985    2.78999996
   11.65305519   79.55400085    4.90999985    2.78999996
   11.65638828   86.49839783    4.90999985    2.78999996
   11.65944386   82.01580048    4.90999985    2.78999996
   11.66277695   83.93260193    4.90999985    2.78999996
   11.66611099   82.12349701    4.90999985    2.78999996
   11.66916656   83.49179840    4.90999985    2.76999998
   11.67250061   81.33010101    4.90999985    2.78999996
   11.67555618   85.41490173    4.90999985    2.78999996
   11.67888927   86.35890198    4.90999985    2.76999998
   11.68222237   82.01609802    4.90999985    2.78999996
   11.68666649   82.01609802    4.90999985    2.76999998
   11.69083309   89.77459717    4.90999985    2.78999996
   11.69416714   79.45800018    4.90999985    2.78999996
   11.69722271   77.94529724    4.90999985    2.80999994
   11.70055580   78.80329895    4.90999985    2.78999996
   11.70222187   79.85980225    4.90999985    2.78999996
   11.70416641   82.75990295    4.90999985    2.78999996
   11.70749950   81.40579987    4.90999985    2.78999996
   11.71055508   82.83719635    4.90999985    2.80999994
   11.71388912   83.33180237    4.90999985    2.78999996
   11.71694374   83.69429779    4.90999985    2.78999996
   11.72027779   79.75869751    4.90999985    2.80999994
   11.72361088   80.04350281    4.90999985    2.78999996
   11.72666645   83.99659729    4.90999985    2.78999996
   11.72999954   79.60369873    4.90999985    2.78999996
   11.73333359   87.44170380    4.90999985    2.76999998
   11.73805618   87.44170380    4.90999985    2.76999998
   11.74222279   90.48889923    4.90999985    2.78999996
   11.74527836   76.59680176    4.90999985    2.78999996
   11.74861145   77.22609711    4.90999985    2.78999996
   11.75166702   84.73919678    4.90999985    2.78999996
   11.75249958   82.31700134    4.90999985    2.78999996
   11.75527763   83.14129639    4.90999985    2.80999994
   11.75861073   86.56349945    4.90999985    2.80999994
   11.76166630   81.28810120    4.90999985    2.78999996
   11.76500034   82.11389923    4.90999985    2.80999994
   11.76833344   85.98200226    4.90999985    2.80999994
   11.77138901   86.07839966    4.90999985    2.80999994
   11.77472210   84.47899628    4.90999985    2.80999994
   11.77805519   84.01450348    4.90999985    2.80999994
   11.78166676   82.32769775    4.90999985    2.80999994
   11.78472233   80.39019775    4.90999985    2.78999996
   11.78916740   80.39019775    4.90999985    2.78999996
   11.79333401   81.49210358    4.90999985    2.82999992
   11.79638958   75.68969727    4.90999985    2.80999994
   11.79972267   83.63379669    4.90999985    2.82999992
   11.80249977   80.21320343    4.90999985    2.80999994
   11.80333328   78.83920288    4.90999985    2.82999992
   11.80666733   78.24639893    4.90999985    2.80999994
   11.80972195   82.27320099    4.90999985    2.80999994
   11.81305599   86.04730225    4.90999985    2.82999992
   11.81638908   78.54199982    4.90999985    2.82999992
   11.81944466   88.05339813    4.90999985    2.80999994
   11.82277775   83.30470276    4.90999985    2.78999996
   11.82611084   81.39640045    4.90999985    2.80999994
   11.82916641   85.33619690    4.90999985    2.80999994
   11.83249950   83.84580231    4.90999985    2.80999994
   11.83555508   83.24150085    4.90999985    2.80999994
   11.84027767   83.24150085    4.90999985    2.82999992
   11.84444427   79.05979919    4.90999985    2.80999994
   11.84777737   83.13580322    4.90999985    2.78999996
   11.85083389   82.21299744    4.90999985    2.82999992
   11.85249996   80.32640076    4.90999985    2.80999994
   11.85444450   87.14710236    4.90999985    2.80999994
   11.85777855   83.55650330    4.90999985    2.82999992
   11.86111164   83.21330261    4.90999985    2.80999994
   11.86416721   84.40499878    4.90999985    2.80999994
   11.86750031   80.05460358    4.90999985    2.82999992
   11.87055588   83.86969757    4.90999985    2.78999996
   11.87388897   81.81230164    4.90999985    2.82999992
   11.87722206   92.08110046    4.90999985    2.82999992
   11.88027763   78.99449921    4.90999985    2.82999992
   11.88361073   85.48840332    4.90999985    2.80999994
   11.88694477   81.47399902    4.90999985    2.82999992
   11.89138889   81.47399902    4.90999985    2.82999992
   11.89555550   85.94370270    4.90999985    2.82999992
   11.89888859   87.03130341    4.90999985    2.82999992
   11.90222168   83.17410278    4.90999985    2.80999994
   11.90277767   80.27940369    4.90999985    2.80999994
   11.90555477   83.02780151    4.90999985    2.82999992
   11.90888882   71.91590118    4.90999985    2.84999990
   11.91222191   76.36049652    4.90999985    2.82999992
   11.91527748   84.81349945    4.90999985    2.84999990
   11.91861153   85.38379669    4.90999985    2.82999992
   11.92166710   83.09329987    4.90999985    2.84999990
   11.92500019   84.48030090    4.90999985    2.82999992
   11.92833328   89.15170288    4.90999985    2.80999994
   11.93138885   86.02580261    4.90999985    2.84999990
   11.93472195   87.60459900    4.90999985    2.84999990
   11.93805599   87.42140198    4.90999985    2.82999992
   11.94277763   87.42140198    4.90999985    2.82999992
   11.94694424   88.90489960    4.90999985    2.84999990
   11.94999981   80.61930084    4.90999985    2.84999990
   11.95277786   78.09700012    4.90999985    2.82999992
   11.95361137   84.53589630    4.90999985    2.84999990
   11.95694447   80.45570374    4.90999985    2.84999990
   11.96027756   86.36969757    4.90999985    2.84999990
   11.96333313   81.41770172    4.90999985    2.82999992
   11.96666622   80.05049896    4.90999985    2.84999990
   11.96972179   80.45570374    4.90999985    2.82999992
   11.97305489   83.69380188    4.90999985    2.84999990
   11.97638798   85.98329926    4.90999985    2.82999992
   11.97944355   92.94889832    4.90999985    2.84999990
   11.98277760   86.97019958    4.90999985    2.84999990
   11.98611164   76.53900146    4.90999985    2.84999990
   11.98916721   76.84709930    4.90999985    2.84999990
   11.99388885   76.84709930    4.90999985    2.84999990
   11.99805546   78.51349640    4.90999985    2.84999990
   12.00166702   80.27059937    4.90999985    2.84999990
   12.00277805   79.34539795    4.90999985    2.84999990
   12.00527763   82.36599731    4.90999985    2.84999990
   12.00861073   81.38240051    4.90999985    2.84999990
   12.01194477   79.65239716    4.90999985    2.84999990
   12.01500034   82.59200287    4.90999985    2.86999989
   12.01833344   80.47630310    4.90999985    2.84999990
   12.02138901   81.55180359    4.90999985    2.86999989
   12.02527714   91.30290222    4.90999985    2.84999990
   12.02944374   80.05930328    4.90999985    2.84999990
   12.03361130   87.18419647    4.90999985    2.84999990
   12.03694534   83.97820282    4.90999985    2.84999990
   12.04166698   78.85350037    4.90999985    2.84999990
   12.04916668   78.85350037    4.90999985    2.84999990
   12.05361176   83.01110077    4.90999985    2.84999990
   12.05805588   80.24549866    4.90999985    2.84999990
   12.06194496   76.57649994    4.90999985    2.84999990
   12.06638908   79.97440338    4.90999985    2.86999989
   12.07027817   85.35189819    4.90999985    2.86999989
   12.07361126   77.86560059    4.90999985    2.86999989
   12.07750034   85.03780365    4.90999985    2.86999989
   12.08111095   81.92990112    4.90999985    2.86999989
   12.08444405   78.88300323    4.90999985    2.86999989
   12.08777714   72.86440277    4.90999985    2.86999989
   12.09111118   83.12740326    4.90999985    2.86999989
   12.09777737   83.12740326    4.90999985    2.86999989
   12.10194492   84.35700226    4.90999985    2.89000010
   12.10277843   87.91490173    4.90999985    2.89000010
   12.10555553   84.87909698    4.90999985    2.86999989
   12.10861111   86.89250183    4.90999985    2.86999989
   12.11194515   81.80760193    4.90999985    2.86999989
   12.11527824   79.15679932    4.90999985    2.86999989
   12.11861134   79.71980286    4.90999985    2.89000010
   12.12194443   82.14849854    4.90999985    2.86999989
   12.12527752   79.62729645    4.90999985    2.89000010
   12.12861156   81.09750366    4.90999985    2.86999989
   12.13194466   77.85369873    4.90999985    2.89000010
   12.13527775   82.10179901    4.90999985    2.86999989
   12.13861084   76.03469849    4.90999985    2.89000010
   12.14166641   77.31700134    4.90999985    2.89000010
   12.14499950   75.76339722    4.90999985    2.86999989
   12.14916611   75.76339722    4.90999985    2.89000010
   12.15333271   78.75469971    4.90999985    2.89000010
   12.15694427   79.48439789    4.90999985    2.89000010
   12.16111088   72.74600220    4.90999985    2.89000010
   12.16499996   76.54840088    4.90999985    2.86999989
   12.16888905   75.95379639    4.90999985    2.89000010
   12.17222214   75.30000305    4.90999985    2.89000010
   12.17555618   77.86139679    4.90999985    2.86999989
   12.17888927   78.44129944    4.90999985    2.89000010
   12.18222237   79.32170105    4.90999985    2.89000010
   12.18583298   79.78140259    4.90999985    2.89000010
   12.18916702   79.25779724    4.90999985    2.89000010
   12.19250011   75.11660004    4.90999985    2.89000010
   12.19583321   78.63469696    4.90999985    2.89000010
   12.20111084   78.63469696    4.90999985    2.89000010
   12.20527744   79.84880066    4.90999985    2.89000010
   12.20861053   77.79769897    4.90999985    2.89000010
   12.21194458   76.68949890    4.90999985    2.91000009
   12.21527767   76.41100311    4.90999985    2.89000010
   12.21861076   79.15119934    4.90999985    2.89000010
   12.22194386   82.04350281    4.90999985    2.89000010
   12.22527695   78.39140320    4.90999985    2.91000009
   12.22861099   82.78559875    4.90999985    2.89000010
   12.23222160   81.43080139    4.90999985    2.91000009
   12.23555565   80.17539978    4.90999985    2.89000010
   12.23888874   79.93900299    4.90999985    2.89000010
   12.24222279   82.92680359    4.90999985    2.89000010
   12.24527836   78.51390076    4.90999985    2.89000010
   12.25222206   78.51390076    4.90999985    2.89000010
   12.25666714   82.87680054    4.90999985    2.89000010
   12.26000023   77.48339844    4.90999985    2.89000010
   12.26333332   82.58360291    4.90999985    2.91000009
   12.26666641   81.65409851    4.90999985    2.91000009
   12.26999950   81.62180328    4.90999985    2.91000009
   12.27333355   85.39990234    4.90999985    2.91000009
   12.27638817   74.87500000    4.90999985    2.91000009
   12.27972221   74.99220276    4.90999985    2.89000010
   12.28305531   81.43540192    4.90999985    2.89000010
   12.28638935   76.95099640    4.90999985    2.89000010
   12.28944492   81.60130310    4.90999985    2.91000009
   12.29277802   85.78949738    4.90999985    2.91000009
   12.29611111   83.43029785    4.90999985    2.91000009
   12.30000019   80.87719727    4.90999985    2.89000010
   12.30416679   80.87719727    4.90999985    2.84999990
   12.30833340   92.73100281    4.90999985    2.91000009
   12.31166649   83.73519897    4.90999985    2.89000010
   12.31472206   91.90720367    4.90999985    2.91000009
   12.31805515   81.72029877    4.90999985    2.91000009
   12.32138920   81.60209656    4.90999985    2.91000009
   12.32444477   83.55310059    4.90999985    2.93000007
   12.32777786   81.28820038    4.90999985    2.91000009
   12.33083344   76.51349640    4.90999985    2.91000009
   12.33416653   76.54309845    4.90999985    2.93000007
   12.33749962   82.31950378    4.90999985    2.91000009
   12.34083271   89.35389709    4.90999985    2.91000009
   12.34388828   79.59750366    4.90999985    2.91000009
   12.34722233   78.91549683    4.90999985    2.91000009
   12.35055637   79.89630127    4.90999985    2.91000009
   12.35555553   79.89630127    4.90999985    2.89000010
   12.36027813   88.04370117    4.90999985    2.91000009
   12.36361122   84.44370270    4.90999985    2.93000007
   12.36666679   84.63760376    4.90999985    2.91000009
   12.36999989   81.05069733    4.90999985    2.91000009
   12.37361145   82.63800049    4.90999985    2.91000009
   12.37666702   94.31510162    4.90999985    2.91000009
   12.38000011   81.21530151    4.90999985    2.91000009
   12.38333321   82.87729645    4.90999985    2.91000009
   12.38638878   84.50810242    4.90999985    2.91000009
   12.38972187   82.93759918    4.90999985    2.91000009
   12.39305496   84.47350311    4.90999985    2.93000007
   12.39638901   85.13120270    4.90999985    2.91000009
   12.39972210   81.40599823    4.90999985    2.93000007
   12.42083359   63.59180069    4.90999985    2.93000007
   12.42138958   67.19499969    4.90999985    2.91000009
   12.42472267   79.12359619    4.90999985    2.91000009
   12.42805576   76.73789978    4.90999985    2.93000007
   12.43138885   81.80300140    4.90999985    2.93000007
   12.43472195   75.02909851    4.90999985    2.91000009
   12.43805599   76.38999939    4.90999985    2.93000007
   12.44138908   79.17489624    4.90999985    2.93000007
   12.44472218   80.71070099    4.90999985    2.93000007
   12.44777775   87.72460175    4.90999985    2.93000007
   12.45111084   85.03610229    4.90999985    2.93000007
   12.45777798   85.03610229    4.90999985    2.91000009
   12.46194458   80.56469727    4.90999985    2.93000007
   12.46527767   79.88629913    4.90999985    2.93000007
   12.46861076   82.76210022    4.90999985    2.93000007
   12.47111034   75.95899963    4.90999985    2.91000009
   12.47277737   81.63330078    4.90999985    2.93000007
   12.47583294   77.65529633    4.90999985    2.93000007
   12.47916603   85.98930359    4.90999985    2.93000007
   12.48249912   85.43090057    4.90999985    2.93000007
   12.48583317   77.07550049    4.90999985    2.93000007
   12.48916721   81.92050171    4.90999985    2.93000007
   12.49250031   87.82790375    4.90999985    2.93000007
   12.49611092   83.69750214    4.90999985    2.93000007
   12.49944496   78.12460327    4.90999985    2.93000007
   12.50277805   82.52610016    4.90999985    2.93000007
   12.50888920   82.52610016    4.90999985    2.93000007
   12.51305580   73.08000183    4.90999985    2.93000007
   12.51638889   76.97360229    4.90999985    2.93000007
   12.51972198   70.91259766    4.90999985    2.94000006
   12.52083302   78.72319794    4.90999985    2.93000007
   12.52333355   75.07649994    4.90999985    2.93000007
   12.52666664   78.20330048    4.90999985    2.93000007
   12.52972221   72.44969940    4.90999985    2.93000007
   12.53305531   73.66079712    4.90999985    2.93000007
   12.53638935   77.60790253    4.90999985    2.93000007
   12.54000092   73.40280151    4.90999985    2.93000007
   12.54416752   75.89839935    4.90999985    2.93000007
   12.54777813   73.71009827    4.90999985    2.94000006
   12.55111122   78.36640167    4.90999985    2.94000006
   12.55416679   77.54669952    4.90999985    2.93000007
   12.56611156   77.54669952    4.90999985    2.93000007
   12.57138920   76.96800232    4.90999985    2.94000006
   12.57694435   73.51000214    4.90999985    2.94000006
   12.58027744   76.98110199    4.90999985    2.94000006
   12.58361053   76.90709686    4.90999985    2.94000006
   12.58694458   75.89720154    4.90999985    2.93000007
   12.59027767   72.62799835    4.90999985    2.93000007
   12.59361076   74.61940002    4.90999985    2.93000007
   12.59694386   76.48370361    4.90999985    2.93000007
   12.60027790   75.15460205    4.90999985    2.94000006
   12.60333347   78.55010223    4.90999985    2.93000007
   12.60694504   75.25859833    4.90999985    2.94000006
   12.61250019   75.25859833    4.90999985    2.94000006
   12.61666679   72.98410034    4.90999985    2.94000006
   12.61999989   75.38069916    4.90999985    2.94000006
   12.62111092   74.61409760    4.90999985    2.94000006
   12.62388897   73.71320343    4.90999985    2.94000006
   12.62722206   73.71099854    4.90999985    2.93000007
   12.63055611   76.28949738    4.90999985    2.94000006
   12.63361073   77.17469788    4.90999985    2.94000006
   12.63694477   73.99549866    4.90999985    2.94000006
   12.64027786   85.47380066    4.90999985    2.93000007
   12.64361095   71.93900299    4.90999985    2.94000006
   12.64694405   78.06639862    4.90999985    2.94000006
   12.64999962   75.81340027    4.90999985    2.94000006
   12.65333271   74.46170044    4.90999985    2.94000006
   12.65666676   75.02220154    4.90999985    2.94000006
   12.65999985   76.91120148    4.90999985    2.94000006
   12.66416645   76.91120148    4.90999985    2.94000006
   12.66833401   73.23880005    4.90999985    2.94000006
   12.67111111   74.27369690    4.90999985    2.94000006
   12.67222214   73.70020294    4.90999985    2.94000006
   12.67527771   77.03189850    4.90999985    2.94000006
   12.67888927   76.38999939    4.90999985    2.94000006
   12.68222237   75.80030060    4.90999985    2.94000006
   12.68694496   74.80480194    4.90999985    2.94000006
   12.69027805   76.08439636    4.90999985    2.94000006
   12.69388866   72.01920319    4.90999985    2.94000006
   12.69750023   76.07830048    4.90999985    2.94000006
   12.70083332   76.09729767    4.90999985    2.94000006
   12.70416641   76.67539978    4.90999985    2.94000006
   12.70777798   75.03780365    4.90999985    2.94000006
   12.71138859   79.43820190    4.90999985    2.96000004
   12.71583271   79.43820190    4.90999985    2.94000006
   12.72027779   73.16950226    4.90999985    2.94000006
   12.72138882   74.41519928    4.90999985    2.94000006
   12.72527695   74.75430298    4.90999985    2.94000006
   12.72861099   74.11160278    4.90999985    2.94000006
   12.73194408   72.66860199    4.90999985    2.94000006
   12.73527813   72.79489899    4.90999985    2.96000004
   12.73861122   70.88469696    4.90999985    2.96000004
   12.74194431   72.43659973    4.90999985    2.94000006
   12.74499989   75.98850250    4.90999985    2.96000004
   12.74833393   73.08159637    4.90999985    2.94000006
   12.75166702   73.98320007    4.90999985    2.96000004
   12.75555515   71.90699768    4.90999985    2.94000006
   12.75888920   73.80809784    4.90999985    2.94000006
   12.76222229   75.46060181    4.90999985    2.96000004
   12.76861095   75.46060181    4.90999985    2.94000006
   12.77277756   73.88179779    4.90999985    2.94000006
   12.77638817   77.17230225    4.90999985    2.94000006
   12.77944374   70.52850342    4.90999985    2.94000006
   12.78305531   76.67350006    4.90999985    2.96000004
   12.78611183   72.41709900    4.90999985    2.94000006
   12.78944492   72.77649689    4.90999985    2.96000004
   12.79305553   72.02500153    4.90999985    2.96000004
   12.79611111   75.24859619    4.90999985    2.94000006
   12.79972267   75.30030060    4.90999985    2.94000006
   12.80277824   75.61840057    4.90999985    2.96000004
   12.80611134   78.75240326    4.90999985    2.96000004
   12.80944443   78.50730133    4.90999985    2.96000004
   12.81277752   73.30329895    4.90999985    2.96000004
   12.81805515   73.30329895    4.90999985    2.96000004
   12.82222176   73.89890289    4.90999985    2.96000004
   12.82555580   74.36689758    4.90999985    2.96000004
   12.82888889   74.66680145    4.90999985    2.96000004
   12.83194447   72.48000336    4.90999985    2.94000006
   12.83527756   76.14019775    4.90999985    2.96000004
   12.83861065   72.71469879    4.90999985    2.96000004
   12.84194374   72.65630341    4.90999985    2.96000004
   12.84527779   76.24839783    4.90999985    2.96000004
   12.84861088   74.71749878    4.90999985    2.96000004
   12.85194492   75.33029938    4.90999985    2.96000004
   12.85527802   73.23179626    4.90999985    2.96000004
   12.85861111   72.48130035    4.90999985    2.96000004
   12.86194515   75.64379883    4.90999985    2.98000002
   12.86527824   73.66690063    4.90999985    2.98000002
   12.87055588   73.66690063    4.90999985    2.96000004
   12.87472248   76.50759888    4.90999985    2.96000004
   12.87861156   74.51679993    4.90999985    2.98000002
   12.88222218   77.49949646    4.90999985    2.96000004
   12.88583279   74.50279999    4.90999985    2.96000004
   12.88972187   75.61519623    4.90999985    2.96000004
   12.89444447   79.63310242    4.90999985    2.98000002
   12.89805508   79.17780304    4.90999985    2.98000002
   12.90194416   76.95989990    4.90999985    2.96000004
   12.90555477   75.80750275    4.90999985    2.96000004
   12.90916634   69.70829773    4.90999985    2.96000004
   12.91277695   74.80709839    4.90999985    2.96000004
   12.91638851   74.53079987    4.90999985    2.98000002
   12.92111111   74.53079987    4.90999985    2.96000004
   12.92583370   75.86009979    4.90999985    2.98000002
   12.92972279   75.19000244    4.90999985    2.98000002
   12.93333340   75.34839630    4.90999985    2.98000002
   12.93722248   77.39589691    4.90999985    2.98000002
   12.94083309   76.38430023    4.90999985    2.96000004
   12.94472218   73.27040100    4.90999985    2.96000004
   12.94805527   75.66960144    4.90999985    2.96000004
   12.95166683   70.55930328    4.90999985    2.98000002
   12.95555496   76.49700165    4.90999985    2.96000004
   12.95944405   74.44270325    4.90999985    2.96000004
   12.96305561   73.52239990    4.90999985    2.98000002
   12.96638870   78.65239716    4.90999985    2.98000002
   12.97277737   78.65239716    4.90999985    2.96000004
   12.97777748   77.38800049    4.90999985    2.96000004
   12.98138809   78.33139801    4.90999985    2.98000002
   12.98500061   73.04709625    4.90999985    2.98000002
   12.98888874   74.81729889    4.90999985    2.98000002
   12.99250031   78.85690308    4.90999985    2.98000002
   12.99638939   76.56950378    4.90999985    2.98000002
   13.00027752   74.64119720    4.90999985    2.98000002
   13.00361156   76.31890106    4.90999985    2.96000004
   13.00694466   74.26799774    4.90999985    2.98000002
   13.01027775   73.26550293    4.90999985    2.98000002
   13.01388931   72.92620087    4.90999985    2.96000004
   13.01694393   75.92449951    4.90999985    2.96000004
   13.02333355   75.92449951    4.90999985    2.98000002
   13.02833271   72.18820190    4.90999985    2.96000004
   13.03194427   75.28320313    4.90999985    3.00000000
   13.03555584   78.65000153    4.90999985    2.98000002
   13.03888893   72.84310150    4.90999985    2.98000002
   13.04250050   75.35050201    4.90999985    2.98000002
   13.04611111   75.14959717    4.90999985    2.98000002
   13.05027771   76.15809631    4.90999985    2.98000002
   13.05416679   78.33730316    4.90999985    2.98000002
   13.05805588   76.39029694    4.90999985    2.98000002
   13.06194496   79.97460175    4.90999985    2.98000002
   13.06555557  155.23300171    4.90999985    2.98000002
   13.06916618   74.86669922    4.90999985    2.98000002
   13.07499981   74.86669922    4.90999985    2.98000002
   13.07999992   75.25289917    4.90999985    3.00000000
   13.08361053   79.86370087    4.90999985    2.98000002
   13.08694458   72.37039948    4.90999985    2.98000002
   13.09055519   78.85399628    4.90999985    2.98000002
   13.09472179   79.95459747    4.90999985    2.98000002
   13.09861088   76.77980042    4.90999985    2.98000002
   13.10249996   82.27140045    4.90999985    2.98000002
   13.10638905   77.62270355    4.90999985    2.98000002
   13.11000061   75.65219879    4.90999985    2.98000002
   13.11361122   79.90519714    4.90999985    2.98000002
   13.11722279   79.80339813    4.90999985    3.00000000
   13.12111092   78.08570099    4.90999985    2.98000002
   13.12805557   78.08570099    4.90999985    2.98000002
   13.13333321   76.68229675    4.90999985    2.98000002
   13.13749981   73.35179901    4.90999985    2.98000002
   13.14138889   71.94280243    4.90999985    3.00000000
   13.14527798   71.21510315    4.90999985    3.00000000
   13.14944458   76.30190277    4.90999985    2.98000002
   13.15277767   74.79969788    4.90999985    2.98000002
   13.15722179   76.94219971    4.90999985    2.98000002
   13.16166592   75.25530243    4.90999985    3.00000000
   13.16527748   71.40209961    4.90999985    2.98000002
   13.17083359   76.34919739    4.90999985    3.00000000
   13.18083382   76.34919739    4.90999985    2.98000002
   13.18833351   70.64009857    4.90999985    3.00000000
   13.19416714   73.76069641    4.90999985    2.98000002
   13.19805527   75.45610046    4.90999985    3.00000000
   13.20166683   73.47170258    4.90999985    2.98000002
   13.20499992   74.01719666    4.90999985    3.00000000
   13.20833302   73.73950195    4.90999985    2.98000002
   13.21194458   84.97910309    4.90999985    3.00000000
   13.21555519   73.72850037    4.90999985    3.00000000
   13.21916580   75.44950104    4.90999985    3.00000000
   13.22249985   73.11640167    4.90999985    3.00000000
   13.22583294   73.19190216    4.90999985    3.00000000
   13.23083305   73.19190216    4.90999985    2.98000002
   13.23527813   77.43759918    4.90999985    2.98000002
   13.23861122   70.86699677    4.90999985    3.00000000
   13.24222279   75.70130157    4.90999985    2.98000002
   13.24555588   74.44280243    4.90999985    3.00000000
   13.24888897   74.62280273    4.90999985    3.00000000
   13.25222206   73.57160187    4.90999985    3.00000000
   13.25611115   74.20890045    4.90999985    3.00000000
   13.25944424   73.26139832    4.90999985    3.00000000
   13.26305580   72.92009735    4.90999985    3.00000000
   13.26666641   75.75839996    4.90999985    3.00000000
   13.27027798   74.51789856    4.90999985    2.98000002
   13.27361107   74.28269958    4.90999985    3.00000000
   13.27722168   70.48889923    4.90999985    3.00000000
   13.28138828   70.48889923    4.90999985    3.00000000
   13.28555584   75.75949860    4.90999985    3.00000000
   13.28861141   70.76719666    4.90999985    3.00000000
   13.29194450   74.16719818    4.90999985    3.00000000
   13.29527855   73.54959869    4.90999985    3.00000000
   13.29833412   75.63359833    4.90999985    3.01999998
   13.30166721   72.04859924    4.90999985    3.00000000
   13.30472279   74.33529663    4.90999985    3.00000000
   13.30805588   73.04789734    4.90999985    3.00000000
   13.31138897   72.15139771    4.90999985    3.00000000
   13.31444454   77.45670319    4.90999985    3.00000000
   13.31777763   74.71089935    4.90999985    3.00000000
   13.32111073   75.36599731    4.90999985    3.00000000
   13.32416630   79.14070129    4.90999985    3.01999998
   13.32750034   73.94550323    4.90999985    3.00000000
   13.33249950   73.94550323    4.90999985    3.00000000
   13.33666611   73.62870026    4.90999985    3.00000000
   13.33972168   72.77120209    4.90999985    3.00000000
   13.34305477   69.47550201    4.90999985    3.00000000
   13.34638882   73.91819763    4.90999985    3.00000000
   13.34944439   72.61900330    4.90999985    3.01999998
   13.35277843   75.91690063    4.90999985    3.00000000
   13.35611153   72.56240082    4.90999985    3.00000000
   13.35916710   74.32360077    4.90999985    3.01999998
   13.36250019   71.16230011    4.90999985    3.00000000
   13.36555576   72.94589996    4.90999985    3.00000000
   13.36888885   73.94819641    4.90999985    3.01999998
   13.37222195   74.72940063    4.90999985    3.00000000
   13.37527752   75.26439667    4.90999985    3.00000000
   13.37861156   76.67330170    4.90999985    3.00000000
   13.38361073   76.67330170    4.90999985    3.00000000
   13.38777733   75.35350037    4.90999985    3.00000000
   13.39111137   71.06400299    4.90999985    3.00000000
   13.39416695   76.47879791    4.90999985    3.01999998
   13.39750004   80.10500336    4.90999985    3.01999998
   13.40083313   74.35520172    4.90999985    3.01999998
   13.40388870   71.72669983    4.90999985    3.01999998
   13.40722179   76.41220093    4.90999985    3.00000000
   13.41055489   74.45130157    4.90999985    3.00000000
   13.41361046   73.61569977    4.90999985    3.01999998
   13.41694450   74.55740356    4.90999985    3.00000000
   13.42000008   72.29180145    4.90999985    3.00000000
   13.42333412   74.71299744    4.90999985    3.01999998
   13.44499969   74.71299744    4.90999985    3.00000000
   13.44916630   74.31310272    4.90999985    3.00000000
   13.45249939   76.47200012    4.90999985    3.00000000
   13.45555496   71.68520355    4.90999985    3.01999998
   13.45888901   73.55690002    4.90999985    3.01999998
   13.46222210   71.91510010    4.90999985    3.01999998
   13.46527767   75.28970337    4.90999985    3.00000000
   13.46861076   76.53990173    4.90999985    3.01999998
   13.47166634   73.75650024    4.90999985    3.00000000
   13.47499943   71.62500000    4.90999985    3.01999998
   13.47833252   73.05719757    4.90999985    3.00000000
   13.48138809   71.68489838    4.90999985    3.01999998
   13.48472214   72.63569641    4.90999985    3.00000000
   13.48805618   72.94329834    4.90999985    3.00000000
   13.49111176   74.81970215    4.90999985    3.00000000
   13.49250031   74.27290344    4.90999985    3.01999998
   13.49666691   74.27290344    4.90999985    3.01999998
   13.50083351   73.02760315    4.90999985    3.00000000
   13.50416660   70.33999634    4.90999985    3.00000000
   13.50722218   73.98699951    4.90999985    3.00000000
   13.51055527   72.79440308    4.90999985    2.98000002
   13.51361084   74.67220306    4.90999985    3.00000000
   13.51694393   75.84500122    4.90999985    3.00000000
   13.52027798   72.45559692    4.90999985    3.00000000
   13.52333355   73.81909943    4.90999985    3.00000000
   13.52666664   76.07559967    4.90999985    3.01999998
   13.52999973   77.82669830    4.90999985    3.00000000
   13.53305531   73.55249786    4.90999985    3.00000000
   13.53638935   72.72889709    4.90999985    3.00000000
   13.53944492   72.87190247    4.90999985    3.00000000
   13.54250050   73.22560120    4.90999985    3.00000000
   13.54333401   72.81410217    4.90999985    3.00000000
   13.54777813   72.81410217    4.90999985    3.00000000
   13.55194473   72.46219635    4.90999985    3.01999998
   13.55527782   73.55889893    4.90999985    3.00000000
   13.55833340   73.70539856    4.90999985    3.00000000
   13.56166649   73.73580170    4.90999985    3.01999998
   13.56500053   75.14540100    4.90999985    3.00000000
   13.56805515   75.27819824    4.90999985    3.01999998
   13.57138920   76.01640320    4.90999985    3.01999998
   13.57472229   73.10630035    4.90999985    3.00000000
   13.57777786   71.79280090    4.90999985    3.01999998
   13.58111095   73.59059906    4.90999985    3.00000000
   13.58444405   71.41419983    4.90999985    3.00000000
   13.58749962   73.75229645    4.90999985    3.00000000
   13.59083271   75.53690338    4.90999985    3.01999998
   13.59249973   76.10269928    4.90999985    3.00000000
   13.59444427   71.85330200    4.90999985    3.01999998
   13.59916592   71.85330200    4.90999985    3.01999998
   13.60305595   74.53170013    4.90999985    3.00000000
   13.60638905   72.63079834    4.90999985    3.00000000
   13.60972214   72.29959869    4.90999985    3.01999998
   13.61277771   74.84010315    4.90999985    3.01999998
   13.61611176   72.76799774    4.90999985    3.00000000
   13.61944485   75.48940277    4.90999985    3.01999998
   13.62250042   74.53649902    4.90999985    3.00000000
   13.62583351   71.51789856    4.90999985    3.01999998
   13.62888908   74.82420349    4.90999985    3.01999998
   13.63222218   74.58879852    4.90999985    3.00000000
   13.63555527   71.72709656    4.90999985    3.01999998
   13.63861084   72.12129974    4.90999985    3.01999998
   13.64194393   74.80300140    4.90999985    3.01999998
   13.64249992   71.25849915    4.90999985    3.01999998
   13.64555550   73.42630005    4.90999985    3.01999998
   13.65027714   73.42630005    4.90999985    3.01999998
   13.65444374   74.05180359    4.90999985    3.00000000
   13.65749931   71.55180359    4.90999985    3.00000000
   13.66083336   72.94010162    4.90999985    3.00000000
   13.66416645   72.40029907    4.90999985    3.01999998
   13.66722298   73.46839905    4.90999985    3.01999998
   13.67055607   71.03990173    4.90999985    3.01999998
   13.67361164   69.96890259    4.90999985    3.01999998
   13.67694473   77.90989685    4.90999985    3.01999998
   13.68027782   71.86560059    4.90999985    3.00000000
   13.68333340   76.68589783    4.90999985    3.01999998
   13.68666649   74.65630341    4.90999985    3.01999998
   13.69000053   72.30229950    4.90999985    3.01999998
   13.69250011   70.20149994    4.90999985    3.01999998
   13.69361115   72.13770294    4.90999985    3.01999998
   13.69666672   71.25820160    4.90999985    3.00000000
   13.70138836   71.25820160    4.90999985    3.01999998
   13.70555496   71.35910034    4.90999985    3.01999998
   13.70888901   73.70290375    4.90999985    3.01999998
   13.71194458   76.71170044    4.90999985    3.01999998
   13.71527767   73.99440002    4.90999985    3.01999998
   13.71833324   73.26899719    4.90999985    3.00000000
   13.72166634   74.96559906    4.90999985    3.00000000
   13.72499943   74.51499939    4.90999985    3.01999998
   13.72805500   73.04669952    4.90999985    3.01999998
   13.73138809   75.88950348    4.90999985    3.01999998
   13.73472214   73.65219879    4.90999985    3.01999998
   13.73777771   75.64060211    4.90999985    3.01999998
   13.74111176   74.34239960    4.90999985    3.01999998
   13.74250031   73.79799652    4.90999985    3.01999998
   13.74472237   72.85279846    4.90999985    3.01999998
   13.74805546   71.84159851    4.90999985    3.01999998
   13.75249958   71.84159851    4.90999985    3.01999998
   13.75666714   73.11620331    4.90999985    3.01999998
   13.76000023   71.61170197    4.90999985    3.01999998
   13.76305580   75.56829834    4.90999985    3.01999998
   13.76638889   70.93730164    4.90999985    3.01999998
   13.76972198   72.91179657    4.90999985    3.01999998
   13.77277756   73.31120300    4.90999985    3.01999998
   13.77611065   72.91300201    4.90999985    3.01999998
   13.77916622   82.47859955    4.90999985    3.01999998
   13.78249931   76.74980164    4.90999985    3.01999998
   13.78583336   74.44349670    4.90999985    3.01999998
   13.78888893   74.13400269    4.90999985    3.01999998
   13.79222298   74.34950256    4.90999985    3.01999998
   13.79277802   72.62950134    4.90999985    3.01999998
   13.79611111   72.47789764    4.90999985    3.01999998
   13.79916668   70.97769928    4.90999985    3.01999998
   13.80361176   70.97769928    4.90999985    3.00000000
   13.80777836   74.95919800    4.90999985    3.01999998
   13.81111145   70.78399658    4.90999985    3.01999998
   13.81444454   71.77729797    4.90999985    3.01999998
   13.81750011   74.91670227    4.90999985    3.01999998
   13.82083321   71.82309723    4.90999985    3.01999998
   13.82388878   74.86550140    4.90999985    3.00000000
   13.82722187   71.44770050    4.90999985    3.01999998
   13.83055592   74.05950165    4.90999985    3.01999998
   13.83361053   72.38020325    4.90999985    3.01999998
   13.83694458   74.01750183    4.90999985    3.01999998
   13.84027767   75.95520020    4.90999985    3.01999998
   13.84277725   75.15779877    4.90999985    3.01999998
   13.84388828   75.85859680    4.90999985    3.01999998
   13.84694386   73.73280334    4.90999985    3.01999998
   13.85027790   75.33869934    4.90999985    3.01999998
   13.85500050   75.33869934    4.90999985    3.01999998
   13.85916710   73.10690308    4.90999985    3.01999998
   13.86222267   71.91790009    4.90999985    3.01999998
   13.86555576   69.11049652    4.90999985    3.01999998
   13.86861134   69.88069916    4.90999985    3.01999998
   13.87194443   71.27570343    4.90999985    3.03999996
   13.87527752   71.10150146    4.90999985    3.01999998
   13.87833309   75.92310333    4.90999985    3.01999998
   13.88166714   72.44950104    4.90999985    3.01999998
   13.88500023   73.34609985    4.90999985    3.01999998
   13.88805580   71.05380249    4.90999985    3.01999998
   13.89138889   74.55560303    4.90999985    3.01999998
   13.89277744   70.34200287    4.90999985    3.01999998
   13.89499950   75.31179810    4.90999985    3.01999998
   13.89805508   72.17579651    4.90999985    3.01999998
   13.90138817   74.78130341    4.90999985    3.01999998
   13.90611076   74.78130341    4.90999985    3.01999998
   13.91027737   72.01429749    4.90999985    3.01999998
   13.91333294   71.18090057    4.90999985    3.01999998
   13.91666698   74.06189728    4.90999985    3.01999998
   13.92000008   77.95379639    4.90999985    3.03999996
   13.92305565  117.56199646    4.90999985    2.61999989
   13.92638874   76.26370239    4.90999985    2.01999998
   13.92972279   72.85030365    4.90999985    3.03999996
   13.93277836   71.77480316    4.90999985    3.01999998
   13.93611145   71.40129852    4.90999985    3.03999996
   13.93916702   70.85669708    4.90999985    3.03999996
   13.94250011   72.36550140    4.90999985    3.05999994
   13.94305515   72.96189880    4.90999985    3.05999994
   13.94638920   77.01889801    4.90999985    3.09999990
   13.94944477   70.80120087    4.90999985    3.00000000
   13.95277786   70.71649933    4.90999985    3.05999994
   13.95722198   70.71649933    4.90999985    3.05999994
   13.96138859   73.27490234    4.90999985    3.03999996
   13.96472168   75.88310242    4.90999985    3.03999996
   13.96777725   71.56130219    4.90999985    3.01999998
   13.97111034   72.20310211    4.90999985    3.01999998
   13.97444439   72.30200195    4.90999985    3.01999998
   13.97749996   73.88339996    4.90999985    3.01999998
   13.98083305   72.17960358    4.90999985    3.01999998
   13.98388958   74.19499969    4.90999985    3.03999996
   13.98722267   75.71060181    4.90999985    3.03999996
   13.99055576   74.32779694    4.90999985    3.01999998
   13.99305534   71.53279877    4.90999985    3.01999998
   13.99416733   74.33180237    4.90999985    3.01999998
   13.99722290   69.77259827    4.90999985    3.03999996
   14.00055599   73.72989655    4.90999985    3.01999998
   14.00388908   72.03839874    4.90999985    3.01999998
   14.00833321   72.03839874    4.90999985    3.01999998
   14.01249981   74.10379791    4.90999985    3.01999998
   14.01583290   76.94889832    4.90999985    3.01999998
   14.01916599   76.06040192    4.90999985    3.01999998
   14.02222157   74.53990173    4.90999985    3.01999998
   14.02555561   74.35939789    4.90999985    3.01999998
   14.02861118   72.10540009    4.90999985    3.01999998
   14.03194427   72.30829620    4.90999985    3.01999998
   14.03527832   71.01789856    4.90999985    3.01999998
   14.03833389   70.99949646    4.90999985    3.01999998
   14.04166698   72.98930359    4.90999985    3.01999998
   14.04305553   72.39959717    4.90999985    3.03999996
   14.04527855   73.95520020    4.90999985    3.01999998
   14.04833412   71.89209747    4.90999985    3.01999998
   14.05166721   72.75990295    4.90999985    3.01999998
   14.05500031   72.77680206    4.90999985    3.01999998
   14.05972195   72.77680206    4.90999985    3.03999996
   14.06388950   71.14260101    4.90999985    3.01999998
   14.06694412   76.31929779    4.90999985    3.01999998
   14.07027817   73.86360168    4.90999985    3.01999998
   14.07333374   72.78170013    4.90999985    3.01999998
   14.07666683   72.02999878    4.90999985    3.03999996
   14.07999992   74.48470306    4.90999985    3.03999996
   14.08305550   75.24310303    4.90999985    3.03999996
   14.08638859   71.60099792    4.90999985    3.05999994
   14.08972168   71.85109711    4.90999985    3.01999998
   14.09277725   72.76509857    4.90999985    3.03999996
   14.09333324   70.82289886    4.90999985    3.03999996
   14.09666634   74.70590210    4.90999985    3.03999996
   14.10000038   73.32409668    4.90999985    3.03999996
   14.10305595   72.00219727    4.90999985    3.03999996
   14.10638905   69.39019775    4.90999985    3.05999994
   14.11083412   69.39019775    4.90999985    3.05999994
   14.11500072  123.86100006    4.90999985    2.64000010
   14.11805534   99.03910065    4.90999985    1.73000002
   14.12138939   -1.00000000    4.90999985    0.56999999
   14.12472248   81.99549866    4.90999985    1.44000006
   14.12777805  107.73400116    4.90999985    3.01999998
   14.13111115   73.18319702    4.90999985    1.91999996
   14.13444424   -1.00000000    4.90999985    2.44000006
   14.13749981   72.61889648    4.90999985    1.71000004
   14.14083290  136.12500000    4.90999985    3.23000002
   14.14444447   -1.00000000    4.90999985    0.63000000
   14.14750004   -1.00000000    4.90999985    1.60000002
   14.15083313   -1.00000000   -1.00000000   -1.00000000
   14.15416622   71.04879761    4.90999985    1.36000001
   14.15722179  106.11900330    4.90999985    2.82999992
   14.16194439  106.11900330    4.90999985    3.05999994
   14.16611099   74.06340027    4.90999985    3.05999994
   14.16944504   73.04019928    4.90999985    3.05999994
   14.17250061   70.12319946    4.90999985    3.11999989
   14.17583370   80.93609619    4.90999985    3.18000007
   14.17916679   -1.00000000    4.90999985    2.71000004
   14.18222237   68.26979828    4.90999985    0.52999997
   14.18555546   77.54260254    4.90999985    3.07999992
   14.18861103   78.85410309    4.90999985    3.03999996
   14.19194412   76.11239624    4.90999985    3.03999996
   14.19333363   75.34609985    4.90999985    3.03999996
   14.19555569   72.86959839    4.90999985    3.03999996
   14.19888878   71.45860291    4.90999985    3.03999996
   14.20194435   74.16670227    4.90999985    3.03999996
   14.20527744   72.86119843    4.90999985    3.01999998
   14.20861053   72.08519745    4.90999985    3.01999998
   14.21305561   72.08519745    4.90999985    3.03999996
   14.21722221   75.43360138    4.90999985    3.03999996
   14.22055531   71.88310242    4.90999985    3.05999994
   14.22388840   85.66709900    4.90999985    3.07999992
   14.22694397   81.24079895    4.90999985    1.13000000
   14.23027706   74.23500061    4.90999985    2.93000007
   14.23333359   76.52159882    4.90999985    3.03999996
   14.23666668   70.42620087    4.90999985    3.03999996
   14.24000072   72.35649872    4.90999985    3.03999996
   14.24305534   76.47979736    4.90999985    3.03999996
   14.24361134   73.07150269    4.90999985    3.01999998
   14.24694443   75.63600159    4.90999985    3.01999998
   14.25027752   75.08560181    4.90999985    3.03999996
   14.25333309   72.22989655    4.90999985    3.03999996
   14.25666714   72.71080017    4.90999985    3.03999996
   14.25972176   73.82369995    4.90999985    3.03999996
   14.26444435   73.82369995    4.90999985    3.03999996
   14.26861095   74.52610016    4.90999985    3.03999996
   14.27166653   75.05590057    4.90999985    3.03999996
   14.27499962   72.83930206    4.90999985    3.03999996
   14.27805519   78.23049927    4.90999985    3.03999996
   14.28138828   80.86679840    4.90999985    3.03999996
   14.28472233   77.99310303    4.90999985    3.03999996
   14.28777790   83.05789948    4.90999985    3.03999996
   14.29111195   76.93450165    4.90999985    3.03999996
   14.29361153   84.35359955    4.90999985    3.03999996
   14.29472256   78.95030212    4.90999985    3.03999996
   14.29805565   76.77159882    4.90999985    3.03999996
   14.30111122   80.90299988    4.90999985    3.03999996
   14.30444431   81.12960052    4.90999985    3.05999994
   14.30777836   79.04759979    4.90999985    3.05999994
   14.31083393   79.39070129    4.90999985    3.03999996
   14.31555557   79.39070129    4.90999985    3.03999996
   14.31972218   80.12609863    4.90999985    3.03999996
   14.32277775   92.62249756    4.90999985    3.03999996
   14.32611084   78.56770325    4.90999985    2.53999996
   14.32944393   90.07450104    4.90999985    1.91999996
   14.33249950  103.72899628    4.90999985    1.98000002
   14.33583260   70.20230103    4.90999985    2.48000002
   14.33916664   73.52159882    4.90999985    3.05999994
   14.34222221   89.81430054    4.90999985    3.03999996
   14.34361076   78.03949738    4.90999985    3.03999996
   14.34583282   71.19290161    4.90999985    3.05999994
   14.34916592   77.77989960    4.90999985    3.11999989
   14.35222244   34.85189819    4.90999985    3.14000010
   14.35555553   67.99179840    4.90999985    1.38000000
   14.35888958   84.45989990    4.90999985    3.16000009
   14.36194515   81.09940338    4.90999985    2.91000009
   14.36666679   81.09940338    4.90999985    3.00000000
   14.37083340  255.73199463    4.90999985    2.94000006
   14.37416649   -1.00000000    4.90999985    1.26999998
   14.37722206   -1.00000000    4.90999985    0.86000001
   14.38055611   -1.00000000    4.90999985    0.69000000
   14.38388920   74.02249908    4.90999985    0.79000002
   14.38694477   82.42900085    4.90999985    2.93000007
   14.39027786   84.55039978    4.90999985    3.11999989
   14.39333344  146.47999573    4.90999985    2.51999998
   14.39722252   90.62650299    4.90999985    0.92000002
   14.40027714   87.38639832    4.90999985    2.67000008
   14.40361118   -1.00000000    4.90999985    1.98000002
   14.40694427  100.55799866    4.90999985    1.86000001
   14.40999985   -1.00000000    4.90999985    1.63000000
   14.41333294   96.61309814    4.90999985    0.88000000
   14.42194462   -1.00000000    4.90999985    0.28000000
   14.42527771   -1.00000000    4.90999985    0.30000001
   14.42833328   -1.00000000    4.90999985    0.51999998
   14.43166733   90.74539948    4.90999985    0.70999998
   14.43472195   -1.00000000    4.90999985    3.03999996
   14.43805599   -1.00000000    4.90999985    0.41999999
   14.44138908   -1.00000000    4.90999985    0.13000000
   14.46083355   -1.00000000    4.90999985    0.55000001
   14.46416664   -1.00000000    4.90999985    0.07000000
   14.47333336   -1.00000000    4.90999985    0.11000000
   14.47638798   -1.00000000    4.90999985    0.11000000
   14.47972202   -1.00000000    4.90999985    0.13000000
   14.48305511   -1.00000000    4.90999985    0.23000000
   14.48611164   -1.00000000    4.90999985    0.47999999
   14.48944473   -1.00000000    4.90999985    0.20999999
   14.49250031   -1.00000000    4.90999985    0.11000000
   14.49583340   -1.00000000    4.90999985    0.07000000
   14.49916649   -1.00000000    4.90999985    0.05000000
   14.50222206   -1.00000000    4.90999985    0.05000000
   14.50555515   -1.00000000    4.90999985    0.07000000
   14.50916672   -1.00000000    4.90999985    0.13000000
   14.51249981   -1.00000000    4.90999985    0.41999999
   14.51555538   -1.00000000    4.90999985    0.25000000
   14.52444458   -1.00000000    4.90999985    0.61000001
   14.52777767   -1.00000000    4.90999985    0.25000000
   14.53083324   -1.00000000    4.90999985    0.64999998
   14.90388870   -1.00000000   -1.00000000   -1.00000000
   15.15249920   -1.00000000   -1.00000000   -1.00000000
   15.28638935   -1.00000000   -1.00000000   -1.00000000
   15.46916580   63.03590012    4.90999985    3.05999994
   15.47222137   74.18499756    4.90999985    3.05999994
   15.47555542   75.03040314    4.90999985    3.07999992
   15.47888851   -1.00000000    4.90999985    3.07999992
   15.48194408   76.11000061    4.90999985    3.01999998
   15.48527813   74.00530243    4.90999985    3.07999992
   15.48861122   78.08760071    4.90999985    3.07999992
   15.49166679   74.50019836    4.90999985    3.07999992
   15.49777794   74.50019836    4.90999985    3.20000005
   15.50194454   -1.00000000    4.90999985    0.38000000
   15.50500011   -1.00000000   -1.00000000   -1.00000000
   15.50833321   79.70010376    4.90999985    2.64000010
   15.51166630   74.69400024    4.90999985    3.07999992
   15.51472187   73.04540253    4.90999985    3.05999994
   15.51805496   71.56230164    4.90999985    2.93000007
   15.51916599   74.39900208    4.90999985    3.05999994
   15.52138901   75.35569763    4.90999985    3.05999994
   15.52472210   78.43489838    4.90999985    3.07999992
   15.52805519   75.39969635    4.90999985    3.07999992
   15.53111076   -1.00000000    4.90999985    3.16000009
   15.53444481   71.76869965    4.90999985    2.00000000
   15.53750038   76.61450195    4.90999985    3.14000010
   15.54083347  112.45300293    4.90999985    3.07999992
   15.54416752   74.34339905    4.90999985    2.76999998
   15.54888916   74.34339905    4.90999985    3.07999992
   15.55305576   75.08170319    4.90999985    3.05999994
   15.55611134   74.28070068    4.90999985    3.05999994
   15.55944443   74.02860260    4.90999985    3.05999994
   15.56277752   72.91870117    4.90999985    3.05999994
   15.56583309   73.33290100    4.90999985    3.07999992
   15.56916618   71.54509735    4.90999985    3.05999994
   15.56944466   74.10910034    4.90999985    3.05999994
   15.57277775   73.81379700    4.90999985    3.05999994
   15.57611084   74.06169891    4.90999985    3.05999994
   15.57916641   72.48090363    4.90999985    3.07999992
   15.58249950   73.25669861    4.90999985    3.05999994
   15.58555508   72.66809845    4.90999985    3.07999992
   15.58888817   76.30570221    4.90999985    3.05999994
   15.59222221   70.33799744    4.90999985    3.07999992
   15.59527779   73.37719727    4.90999985    3.07999992
   15.60000038   73.37719727    4.90999985    3.05999994
   15.60416698   72.76820374    4.90999985    3.05999994
   15.60750008   71.43240356    4.90999985    3.05999994
   15.61055565   71.37270355    4.90999985    3.07999992
   15.61388969   72.45559692    4.90999985    3.07999992
   15.61694431   71.42829895    4.90999985    3.05999994
   15.61916637   72.77279663    4.90999985    3.05999994
   15.62055588   72.84680176    4.90999985    3.07999992
   15.62388897   73.25080109    4.90999985    3.07999992
   15.62722206   75.86009979    4.90999985    3.05999994
   15.63027763   72.94159698    4.90999985    3.07999992
   15.63361073   74.32879639    4.90999985    3.05999994
   15.63666630   73.30310059    4.90999985    3.05999994
   15.64000034   74.58670044    4.90999985    3.07999992
   15.64333344   70.86820221    4.90999985    3.07999992
   15.64666653   74.17610168    4.90999985    3.05999994
   15.65111065   74.17610168    4.90999985    3.05999994
   15.65527725   73.22810364    4.90999985    3.07999992
   15.65861034   70.88140106    4.90999985    3.14000010
   15.66166592   80.91510010    4.90999985    1.60000002
   15.66499996   72.14009857    4.90999985    3.11999989
   15.66833401   71.16680145    4.90999985    3.07999992
   15.66916656   72.08799744    4.90999985    3.07999992
   15.67166710   74.08390045    4.90999985    2.57999992
   15.67500019   70.36489868    4.90999985    3.05999994
   15.67833328   72.78649902    4.90999985    3.05999994
   15.68138885   70.60230255    4.90999985    3.07999992
   15.68472195   74.32060242    4.90999985    3.09999990
   15.68805599   74.58260345    4.90999985    3.14000010
   15.69111156   70.25379944    4.90999985    2.78999996
   15.69444466   74.94190216    4.90999985    3.18000007
   15.69750023   73.28589630    4.90999985    3.16000009
   15.70249939   73.28589630    4.90999985    2.44000006
   15.70638847   73.19259644    4.90999985    3.20000005
   15.70972157   71.38839722    4.90999985    3.14000010
   15.71305561   73.32769775    4.90999985    3.16000009
   15.71611118   -1.00000000    4.90999985    1.86000001
   15.71916580   73.30039978    4.90999985    1.73000002
   15.71999931   70.92299652    4.90999985    3.11999989
   15.72305489   71.64810181    4.90999985    3.09999990
   15.72638798   72.41809845    4.90999985    3.11999989
   15.72944355   -1.00000000    4.90999985    2.64000010
   15.73277760   -1.00000000    4.90999985    0.19000000
   15.73611164   -1.00000000    4.90999985    0.20999999
   15.73916721   -1.00000000    4.90999985    0.75000000
   15.74250031   -1.00000000    4.90999985    0.47999999
   15.74555588   -1.00000000    4.90999985    3.18000007
   15.74888897   -1.00000000    4.90999985    3.14000010
   15.75749969   -1.00000000    4.90999985    2.39000010
   15.76083374   -1.00000000    4.90999985    0.75000000
   15.76416683   -1.00000000    4.90999985    3.07999992
   15.76722240   -1.00000000    4.90999985    3.05999994
   15.77083302   -1.00000000    4.90999985    3.05999994
   15.77416611   -1.00000000    4.90999985    3.05999994
   15.77722168   -1.00000000    4.90999985    3.05999994
   15.78055573   -1.00000000    4.90999985    3.03999996
   15.78388977   -1.00000000    4.90999985    3.05999994
   15.78694534   -1.00000000    4.90999985    3.05999994
   15.79027843   -1.00000000    4.90999985    3.05999994
   15.79361153   -1.00000000    4.90999985    3.05999994
   15.79666710   -1.00000000    4.90999985    3.07999992
   15.80000019   -1.00000000    4.90999985    3.05999994
   15.80888939   -1.00000000    4.90999985    3.05999994
   15.81194496   -1.00000000    4.90999985    3.05999994
   15.81527805   -1.00000000    4.90999985    3.07999992
   15.81861115   -1.00000000    4.90999985    2.66000009
   15.82194424   -1.00000000    4.90999985    2.93000007
   15.82527733   -1.00000000    4.90999985    3.07999992
   15.82833290   -1.00000000    4.90999985    3.09999990
   15.83166695   -1.00000000    4.90999985    3.16000009
   15.83500004   -1.00000000    4.90999985    2.40000010
   15.83805561   -1.00000000    4.90999985    3.26999998
   15.84138870   -1.00000000    4.90999985    3.21000004
   15.84444427   -1.00000000    4.90999985    1.34000003
   15.84777737   -1.00000000    4.90999985    0.47999999
   15.85111141   -1.00000000    4.90999985    0.46000001
   15.86000061   -1.00000000    4.90999985    2.05999994
   15.86333370   -1.00000000    4.90999985    2.71000004
   15.86638927   -1.00000000    4.90999985    3.11999989
   15.86999989   -1.00000000    4.90999985    3.07999992
   15.87333393   -1.00000000    4.90999985    3.07999992
   15.87638855   -1.00000000    4.90999985    3.05999994
   15.87972260   -1.00000000    4.90999985    3.07999992
   15.88305569   -1.00000000    4.90999985    2.91000009
   15.88611126   -1.00000000    4.90999985    3.16000009
   15.88944435   -1.00000000    4.90999985    1.83000004
   15.89249992   -1.00000000    4.90999985    3.01999998
   15.89583302   -1.00000000    4.90999985    1.89999998
   15.89916611   -1.00000000    4.90999985    2.67000008
   15.90222168   -1.00000000    4.90999985    2.30999994
   15.91111088   -1.00000000    4.90999985    3.16000009
   15.91444397   -1.00000000    4.90999985    3.09999990
   15.91750050   -1.00000000    4.90999985    2.61999989
   15.92111111   -1.00000000    4.90999985    3.09999990
   15.92444515   -1.00000000    4.90999985    3.14000010
   15.92750072   -1.00000000    4.90999985    3.20000005
   15.93083382   -1.00000000    4.90999985    3.16000009
   15.93416691   -1.00000000    4.90999985    3.20000005
   15.93722248   -1.00000000    4.90999985    0.94000000
   15.94055557   -1.00000000    4.90999985    2.91000009
   15.94361115   -1.00000000    4.90999985    2.84999990
   15.94694424   -1.00000000    4.90999985    2.61999989
   15.95027733   -1.00000000    4.90999985    2.84999990
   15.95333290   -1.00000000    4.90999985    2.96000004
   15.96222210   -1.00000000    4.90999985    3.09999990
   15.96555519   -1.00000000    4.90999985    3.18000007
   15.96888828   -1.00000000    4.90999985    2.86999989
   15.97222137   -1.00000000    4.90999985    3.18000007
   15.97555542   -1.00000000    4.90999985    3.09999990
   15.97888851   -1.00000000    4.90999985    1.46000004
   15.98194408   -1.00000000    1.58000004    0.03000000
   15.98527813   -1.00000000    1.58000004    0.03000000
   15.98833370   -1.00000000    3.91000009    0.01000000
   15.99166679   -1.00000000    4.90999985    0.07000000
   15.99499989   -1.00000000    4.90999985    1.66999996
   15.99805546   -1.00000000    4.90999985    3.18000007
   16.00138855   -1.00000000    4.90999985    3.09999990
   16.00444412   -1.00000000    4.90999985    3.07999992
   16.01361084   -1.00000000    4.90999985    3.07999992
   16.01666641   -1.00000000    4.90999985    3.07999992
   16.02027702   -1.00000000    4.90999985    3.05999994
   16.02361107   -1.00000000    4.90999985    3.05999994
   16.02694511   -1.00000000    4.90999985    3.07999992
   16.03000069   -1.00000000    4.90999985    3.07999992
   16.03333282   -1.00000000    4.90999985    3.07999992
   16.03638840   -1.00000000    4.90999985    3.05999994
   16.03972244   -1.00000000    4.90999985    3.07999992
   16.04305458   -1.00000000    4.90999985    3.07999992
   16.04611015   -1.00000000    4.90999985    3.05999994
   16.04944420   -1.00000000    4.90999985    3.05999994
   16.05277634   -1.00000000    4.90999985    3.07999992
   16.05583191   -1.00000000    4.90999985    3.05999994
   16.06472206   -1.00000000    4.90999985    3.05999994
   16.06805611   -1.00000000    4.90999985    3.07999992
   16.07139015   -1.00000000    4.90999985    3.05999994
   16.07472229   -1.00000000    4.90999985    3.05999994
   16.07805634   -1.00000000    4.90999985    3.07999992
   16.08111191   -1.00000000    4.90999985    3.07999992
   16.08444595   -1.00000000    4.90999985    3.07999992
   16.08750153   -1.00000000    4.90999985    3.05999994
   16.09083366   -1.00000000    4.90999985    3.05999994
   16.09416771   -1.00000000    4.90999985    3.07999992
   16.09722328   -1.00000000    4.90999985    3.05999994
   16.10055542   -1.00000000    4.90999985    3.05999994
   16.10388947   -1.00000000    4.90999985    3.05999994
   16.10694504   -1.00000000    4.90999985    3.05999994
   16.11583328   -1.00000000    4.90999985    3.05999994
   16.11916733   -1.00000000    4.90999985    3.07999992
   16.12249947   -1.00000000    4.90999985    3.05999994
   16.12583351   -1.00000000    4.90999985    3.05999994
   16.12888908   -1.00000000    4.90999985    3.05999994
   16.13222313   -1.00000000    4.90999985    3.05999994
   16.13527679   -1.00000000    4.90999985    3.05999994
   16.13861084   -1.00000000    4.90999985    3.05999994
   16.14194489   -1.00000000    4.90999985    3.07999992
   16.14500046   -1.00000000    4.90999985    3.05999994
   16.14833260   -1.00000000    4.90999985    3.05999994
   16.15166664   -1.00000000    4.90999985    3.05999994
   16.15472221   -1.00000000    4.90999985    3.05999994
   16.15805435   -1.00000000    4.90999985    3.07999992
   16.16694450   -1.00000000    4.90999985    3.07999992
   16.17055511   -1.00000000    4.90999985    3.09999990
   16.17388916   -1.00000000    4.90999985    2.98000002
   16.17694473   -1.00000000    4.90999985    3.09999990
   16.18027687   -1.00000000    4.90999985    1.75000000
   16.18333244   -1.00000000    4.90999985    3.09999990
   16.18666649   -1.00000000    4.90999985    2.82999992
   16.18999863   -1.00000000    4.90999985    3.07999992
   16.19305420   -1.00000000    4.90999985    3.07999992
   16.19638824   -1.00000000    4.90999985    3.11999989
   16.19972038   -1.00000000    4.90999985    3.11999989
   16.20277786   -1.00000000    4.90999985    2.67000008
   16.20611191   -1.00000000    4.90999985    2.98000002
   16.20916748   -1.00000000    4.90999985    3.07999992
   16.21833420   -1.00000000    4.90999985    2.23000002
   16.22166634   -1.00000000    4.90999985    3.05999994
   16.22500038   -1.00000000    4.90999985    3.05999994
   16.22805595   -1.00000000    4.90999985    2.76999998
   16.23139000   -1.00000000    4.90999985    3.14000010
   16.23472214   -1.00000000    4.90999985    2.96000004
   16.23777771   -1.00000000    4.90999985    2.98000002
   16.24111176   -1.00000000    4.90999985    2.93000007
   16.24416733   -1.00000000    4.90999985    0.89999998
   16.24749947   -1.00000000    4.90999985    0.19000000
   16.25083351   -1.00000000    4.90999985    1.14999998
   16.25388908   -1.00000000    4.90999985    3.01999998
   16.25722313   -1.00000000    4.90999985    3.11999989
   16.26055527   -1.00000000    4.90999985    3.07999992
   16.26944351   -1.00000000    4.90999985    2.59999990
   16.27305603   -1.00000000    4.90999985    3.14000010
   16.27638817   -1.00000000    4.90999985    3.07999992
   16.27944374   -1.00000000    4.90999985    3.07999992
   16.28277779   -1.00000000    4.90999985    2.73000002
   16.28610992   -1.00000000    4.90999985    2.07999992
   16.28916550   -1.00000000    3.18000007    0.05000000
   16.29249954   -1.00000000    3.18000007    0.05000000
   16.29583359   -1.00000000    0.61000001    0.01000000
   16.29888916   -1.00000000    4.90999985    0.05000000
   16.30222130   -1.00000000    4.90999985    0.11000000
   16.30527687   -1.00000000    4.90999985    2.84999990
   16.30861092   -1.00000000    4.90999985    2.84999990
   16.31194305   -1.00000000    4.90999985    3.14000010
   16.32055664   -1.00000000    4.90999985    2.67000008
   16.32389069   -1.00000000    4.90999985    1.01999998
   16.32694626   -1.00000000    4.90999985    3.20000005
   16.33027840   -1.00000000    4.90999985    1.44000006
   16.33361244   -1.00000000    4.90999985    0.88000000
   16.33666801   -1.00000000    4.90999985    1.73000002
   16.34000015   -1.00000000    4.90999985    0.28000000
   16.34305573   -1.00000000    4.90999985    0.31999999
   16.34638977   -1.00000000    4.90999985    0.36000001
   16.34972191   -1.00000000    4.90999985    0.44000000
   16.35277748   -1.00000000    4.90999985    0.19000000
   16.35611153   -1.00000000    4.90999985    1.55999994
   16.35944557   -1.00000000    4.90999985    0.46000001
   16.36250114   -1.00000000    4.90999985    0.11000000
   16.37166595   -1.00000000    4.90999985    0.20999999
   16.37500000   -1.00000000    4.90999985    0.11000000
   16.37833405   -1.00000000    4.90999985    0.13000000
   16.38138962   -1.00000000    4.90999985    0.05000000
   16.38472176   -1.00000000    3.75000000    0.01000000
   16.38777733   -1.00000000    3.75000000    0.01000000
   16.39111137   -1.00000000    3.75000000    0.01000000
   16.39444351   -1.00000000    3.75000000    0.01000000
   16.39749908   -1.00000000    3.75000000    0.01000000
   16.40083313   -1.00000000    3.75000000    0.01000000
   16.40416718   -1.00000000    3.75000000    0.01000000
   16.40722275   -1.00000000    3.75000000    0.01000000
   16.41055489   -1.00000000    1.44000006    0.01000000
   16.41361046   -1.00000000    2.53999996    0.01000000
   16.42305565   -1.00000000    4.90999985    0.03000000
   16.42611122   -1.00000000    4.90999985    0.05000000
   16.42944336   -1.00000000    4.90999985    0.17000000
   16.43249893   -1.00000000    4.90999985    0.31999999
   16.43583298   -1.00000000    4.90999985    0.23000000
   16.43916512   -1.00000000    4.90999985    0.19000000
   16.44222069   -1.00000000    4.90999985    0.07000000
   16.44555473   -1.00000000    4.90999985    0.11000000
   16.44888878   -1.00000000    4.90999985    0.13000000
   16.45194435   -1.00000000    4.90999985    0.09000000
   16.45527840   -1.00000000    4.90999985    0.11000000
   16.45833397   -1.00000000    4.90999985    0.15000001
   16.46166801   -1.00000000    4.90999985    0.34000000
   16.46500015   -1.00000000    4.90999985    0.41999999
   16.48666763   -1.00000000    4.90999985    0.30000001
   16.48972321   -1.00000000    4.90999985    0.81999999
   16.49305534   -1.00000000    4.90999985    1.33000004
   16.49611092   -1.00000000    4.90999985    1.16999996
   16.49944496   -1.00000000    4.90999985    2.75000000
   16.50277710   -1.00000000    4.90999985    2.21000004
   16.50583267   -1.00000000    4.90999985    2.69000006
   16.50916672   -1.00000000    4.90999985    3.07999992
   16.51250076   -1.00000000    4.90999985    3.07999992
   16.51555634   -1.00000000    4.90999985    3.18000007
   16.52555466   -1.00000000    4.90999985    0.67000002
   16.52861023   -1.00000000    4.90999985    0.64999998
   16.53194427   -1.00000000    4.90999985    0.25999999
   16.53499985   -1.00000000    4.90999985    0.13000000
   16.53861046   -1.00000000    3.82999992    0.03000000
   16.54166603   -1.00000000    3.82999992    0.03000000
   16.54500008   -1.00000000    3.82999992    0.03000000
   16.54833221   -1.00000000    0.98000002    0.01000000
   16.55138779   -1.00000000    4.90999985    0.03000000
   16.55472183   -1.00000000    4.90999985    0.09000000
   16.55805397   -1.00000000    4.90999985    0.17000000
   16.56110954   -1.00000000    4.90999985    0.52999997
   16.56444359   -1.00000000    4.90999985    1.30999994
   16.56750107   -1.00000000    4.90999985    2.11999989
   16.57666779   -1.00000000    4.90999985    2.50000000
   16.57972336   -1.00000000    4.90999985    0.31999999
   16.58305550   -1.00000000    4.90999985    2.42000008
   16.58666801   -1.00000000    4.90999985    0.46000001
   16.58972359   -1.00000000    4.90999985    0.15000001
   16.59305573   -1.00000000    4.90999985    1.00000000
   16.59638977   -1.00000000    4.90999985    0.79000002
   16.59944534   -1.00000000    4.90999985    2.19000006
   16.60277748   -1.00000000    4.90999985    2.36999989
   16.60611153   -1.00000000    4.90999985    0.63000000
   16.60916710   -1.00000000    4.90999985    2.82999992
   16.61250114   -1.00000000    4.90999985    2.94000006
   16.61555672   -1.00000000    4.90999985    2.96000004
   16.61888885   -1.00000000    4.90999985    3.14000010
   16.62777710   -1.00000000    4.90999985    2.39000010
   16.63111115   -1.00000000    4.90999985    0.41999999
   16.63416672   -1.00000000    4.90999985    0.34000000
   16.63777733   -1.00000000    4.90999985    0.52999997
   16.64111137   -1.00000000    4.90999985    0.25999999
   16.64416695   -1.00000000    4.90999985    0.31999999
   16.64749908   -1.00000000    4.90999985    2.09999990
   16.65055466   -1.00000000    4.90999985    0.40000001
   16.65388870   -1.00000000    4.90999985    0.25999999
   16.65722275   -1.00000000    4.90999985    0.55000001
   16.66027832   -1.00000000    4.90999985    1.21000004
   16.66361046   -1.00000000    4.90999985    0.95999998
   16.66694450   -1.00000000    4.90999985    0.76999998
   16.67000008   -1.00000000    4.90999985    0.41999999
   16.67888832   -1.00000000    4.90999985    2.09999990
   16.68222237   -1.00000000    4.90999985    2.15000010
   16.68527603   -1.00000000    4.90999985    1.69000006
   16.68888855   -1.00000000    4.90999985    2.67000008
   16.69222069   -1.00000000    4.90999985    3.26999998
   16.69527626   -1.00000000    4.90999985    1.78999996
   16.69861031   -1.00000000    4.90999985    1.21000004
   16.70194435   -1.00000000    4.90999985    0.89999998
   16.70499992   -1.00000000    4.90999985    0.50000000
   16.70833397   -1.00000000    4.90999985    0.28000000
   16.71138954   -1.00000000    4.90999985    0.15000001
   16.71472359   -1.00000000    4.90999985    0.30000001
   16.71805573   -1.00000000    4.90999985    0.25999999
   16.72111130   -1.00000000    4.90999985    0.25000000
   16.73000145   -1.00000000    4.90999985    0.25999999
   16.73333359   -1.00000000    4.90999985    0.46000001
   16.73694420   -1.00000000    4.90999985    0.89999998
   16.74027824   -1.00000000    4.90999985    1.41999996
   16.74333382   -1.00000000    4.90999985    2.26999998
   16.74666786   -1.00000000    4.90999985    1.23000002
   16.75000000   -1.00000000    4.90999985    1.11000001
   16.75305557   -1.00000000    4.90999985    0.94000000
   16.75638962   -1.00000000    4.90999985    2.46000004
   16.75944519   -1.00000000    4.90999985    3.11999989
   16.76277733   -1.00000000    4.90999985    3.07999992
   16.76611137   -1.00000000    4.90999985    3.09999990
   16.76916695   -1.00000000    4.90999985    3.09999990
   16.77249908   -1.00000000    4.90999985    3.07999992
   16.78138924   -1.00000000    4.90999985    1.50000000
   16.78444481   -1.00000000    4.90999985    1.21000004
   16.78805542   -1.00000000    4.90999985    0.73000002
   16.79138756   -1.00000000    4.90999985    0.69000000
   16.79444313   -1.00000000    4.90999985    0.23000000
   16.79777718   -1.00000000    1.33000004    0.01000000
   16.80111122   -1.00000000    1.33000004    0.01000000
   16.80416679   -1.00000000    1.33000004    0.01000000
   16.80749893   -1.00000000    1.33000004    0.01000000
   16.81083298   -1.00000000    1.33000004    0.01000000
   16.81388855   -1.00000000    1.33000004    0.01000000
   16.81722260   -1.00000000    1.33000004    0.01000000
   16.82027817   -1.00000000    1.33000004    0.01000000
   16.82361221   -1.00000000    1.33000004    0.01000000
   16.83250046   -1.00000000    4.90999985    0.05000000
   16.83583450   -1.00000000    2.86999989    0.05000000
   16.83944511   -1.00000000    3.64000010    0.05000000
   16.84277916   -1.00000000    4.90999985    0.15000001
   16.84583473   -1.00000000    4.90999985    0.88000000
   16.84916687   -1.00000000    4.90999985    2.17000008
   16.85222244   -1.00000000    4.90999985    1.86000001
   16.85555649   -1.00000000    4.90999985    0.73000002
   16.85888863   -1.00000000    4.90999985    3.09999990
   16.86194420   -1.00000000    4.90999985    3.07999992
   16.86527824   -1.00000000    4.90999985    3.14000010
   16.86861038   -1.00000000    4.90999985    2.89000010
   16.87166595   -1.00000000    4.90999985    1.61000001
   16.87500000   -1.00000000    4.90999985    0.34000000
   16.88361168   -1.00000000    1.07000005    0.01000000
   16.88722229   -1.00000000    1.07000005    0.01000000
   16.89055634   -1.00000000    1.28999996    0.01000000
   16.89361191   -1.00000000    4.90999985    0.03000000
   16.89694405   -1.00000000    4.90999985    0.03000000
   16.89999962   -1.00000000    4.90999985    0.13000000
   16.90333366   -1.00000000    4.90999985    1.88000000
   16.90666580   -1.00000000    4.90999985    2.42000008
   16.90972137   -1.00000000    4.90999985    1.38000000
   16.91305542   -1.00000000    4.90999985    2.48000002
   16.91638756   -1.00000000    4.90999985    1.98000002
   16.91944313   -1.00000000    4.90999985    3.25000000
   16.92277718   -1.00000000    4.90999985    2.57999992
   16.92583275   -1.00000000    4.90999985    1.39999998
   16.93499947   -1.00000000    4.90999985    0.47999999
   16.93833160   -1.00000000    4.90999985    0.25000000
   16.94166565   -1.00000000    4.90999985    0.13000000
   17.59972191   64.62339783    2.34999990    0.01000000
   17.60055542   70.23970032    2.34999990    0.01000000
   17.60388947   75.98210144    2.34999990    0.01000000
   17.60694504   72.47609711    2.34999990    0.01000000
   17.61027908   72.73390198    2.34999990    0.01000000
   17.61361122   72.80529785    2.34999990    0.01000000
   17.61666679   74.95659637    2.34999990    0.01000000
   17.62000084   71.62660217    2.34999990    0.01000000
   17.62333298   74.60240173    2.34999990    0.01000000
   17.62638855   73.35130310    2.34999990    0.01000000
   17.62972260   72.28639984    2.34999990    0.01000000
   17.63305473   82.84149933    2.34999990    0.01000000
   17.63722229   82.84149933    2.34999990    0.01000000
   17.64138794   74.64260101    2.34999990    0.01000000
   17.64444351   70.58290100    2.34999990    0.01000000
   17.64777756   77.61679840    2.34999990    0.01000000
   17.65083313   77.98999786    2.34999990    0.01000000
   17.65416718   76.14669800    2.34999990    0.01000000
   17.65749931   79.00460052    2.34999990    0.01000000
   17.66055489   77.31710052    2.34999990    0.01000000
   17.66388893   72.70420074    2.34999990    0.01000000
   17.66722107   74.70739746    2.34999990    0.01000000
   17.67027664   72.71520233    2.34999990    0.01000000
   17.67361069   71.14959717    2.34999990    0.01000000
   17.67666626   72.27809906    2.34999990    0.01000000
   17.68000031   70.20980072    2.34999990    0.01000000
   17.68305397   91.48320007    2.34999990    0.01000000
   17.68361092   -1.00000000    2.34999990    0.01000000
   17.68833160   -1.00000000    2.34999990    0.01000000
   17.69249916   -1.00000000    2.34999990    0.01000000
   17.69555473   -1.00000000    2.34999990    0.01000000
   17.69888878   -1.00000000    2.34999990    0.01000000
   17.70222282   -1.00000000    2.34999990    0.01000000
   17.70527840   -1.00000000    2.34999990    0.01000000
   17.70861244   -1.00000000    2.34999990    0.01000000
   17.71194458   -1.00000000    2.34999990    0.01000000
   17.71500015   -1.00000000    2.34999990    0.01000000
   17.71833420   -1.00000000    2.34999990    0.01000000
   17.72138977   -1.00000000    2.34999990    0.01000000
   17.72472191   -1.00000000    2.34999990    0.01000000
   17.72805595   -1.00000000    2.34999990    0.01000000
   17.73111153   -1.00000000    2.34999990    0.01000000
   17.73472214   -1.00000000    2.34999990    0.01000000
   17.74361229   98.40350342    2.34999990    0.01000000
   17.74666786   73.32119751    2.34999990    0.01000000
   17.75000000   74.13310242    2.34999990    0.01000000
   17.75333405   79.36550140    2.34999990    0.01000000
   17.75638962   82.86869812    2.34999990    0.01000000
   17.75972176   76.91390228    2.34999990    0.01000000
   17.76305580   76.89250183    2.34999990    0.01000000
   17.76611137   75.74939728    2.34999990    0.01000000
   17.76944351   76.58820343    2.34999990    0.01000000
   17.77249908   74.98979950    2.34999990    0.01000000
   17.77583313   79.06580353    2.34999990    0.01000000
   17.77916718   74.56179810    2.34999990    0.01000000
   17.78222275   72.44259644    2.34999990    0.01000000
   17.78305435   77.12390137    2.34999990    0.01000000
   17.78610992   73.83480072    2.34999990    0.01000000
   17.79055595   73.83480072    2.34999990    0.01000000
   17.79472160   77.07659912    2.34999990    0.01000000
   17.79805565   74.78479767    2.34999990    0.01000000
   17.80138779   74.50800323    2.34999990    0.01000000
   17.80444336   71.00689697    2.34999990    0.01000000
   17.80777740   73.66750336    2.34999990    0.01000000
   17.81083298  127.66500092    2.34999990    0.01000000
   17.81416512   -1.00000000    2.34999990    0.01000000
   17.81750107  140.89399719    2.34999990    0.01000000
   17.82055664  169.10299683    2.34999990    0.01000000
   17.82389069   86.77300262    2.34999990    0.01000000
   17.82722282   -1.00000000    2.34999990    0.01000000
   17.83027840  140.78199768    2.34999990    0.01000000
   17.83305550   77.82369995    2.34999990    0.01000000
   17.83388901  170.36799622    2.34999990    0.01000000
   17.83722305   78.27089691    2.34999990    0.01000000
   17.84194565   78.27089691    2.34999990    0.01000000
   17.84611130   89.58429718    2.34999990    0.01000000
   17.84916687   79.36979675    2.34999990    0.01000000
   17.85250092   75.88749695    2.34999990    0.01000000
   17.85555649   76.15390015    2.34999990    0.01000000
   17.85888863   75.62629700    2.34999990    0.01000000
   17.86222267   74.67649841    2.34999990    0.01000000
   17.86527824   72.90789795    2.34999990    0.01000000
   17.86861038   71.74810028    2.34999990    0.01000000
   17.87194443   -1.00000000    2.34999990    0.01000000
   17.87500000   -1.00000000    2.34999990    0.01000000
   17.87833405   -1.00000000    2.34999990    0.01000000
   17.88138962   -1.00000000    2.34999990    0.01000000
   17.88500023   -1.00000000    2.34999990    0.01000000
   17.88833237   -1.00000000    2.34999990    0.01000000
   17.89722252   -1.00000000    2.34999990    0.01000000
   17.90027809   -1.00000000    2.34999990    0.01000000
   17.90361023   -1.00000000    2.34999990    0.01000000
   17.90666580   -1.00000000    2.34999990    0.01000000
   17.90999985   -1.00000000    2.34999990    0.01000000
   17.91333389   -1.00000000    2.34999990    0.01000000
   17.91638756   -1.00000000    2.34999990    0.01000000
   17.91972160   -1.00000000    2.34999990    0.01000000
   17.92305565   -1.00000000    2.34999990    0.01000000
   17.92611122   -1.00000000    2.34999990    0.01000000
   17.92944336   -1.00000000    2.34999990    0.01000000
   17.93249893   -1.00000000    2.34999990    0.01000000
   17.93610954   -1.00000000    2.34999990    0.01000000
   17.93916512   -1.00000000    2.34999990    0.01000000
   17.94833183   -1.00000000    2.34999990    0.01000000
   17.95138931   -1.00000000    2.34999990    0.01000000
   17.95472336   -1.00000000    2.34999990    0.01000000
   17.95805550   -1.00000000    2.34999990    0.01000000
   17.96111107   -1.00000000    2.34999990    0.01000000
   17.96444511   -1.00000000    2.34999990    0.01000000
   17.96777916   -1.00000000    2.34999990    0.01000000
   17.97083473   -1.00000000    2.34999990    0.01000000
   17.97416687   -1.00000000    2.34999990    0.01000000
   17.97722244   -1.00000000    2.34999990    0.01000000
   17.98055649   -1.00000000    2.34999990    0.01000000
   17.98416710   -1.00000000    2.34999990    0.01000000
   17.98722267   -1.00000000    2.34999990    0.01000000
   17.99055672   -1.00000000    2.34999990    0.01000000
   17.99944496   -1.00000000    2.34999990    0.01000000
   18.00277710   -1.00000000    2.34999990    0.01000000
   18.00583267   -1.00000000    2.34999990    0.01000000
   18.00916672   -1.00000000    2.34999990    0.01000000
   18.01222229   -1.00000000    2.34999990    0.01000000
   18.01555634   -1.00000000    2.34999990    0.01000000
   18.01888847   -1.00000000    2.34999990    0.01000000
   18.02194405   -1.00000000    2.34999990    0.01000000
   18.02527809   -1.00000000    2.34999990    0.01000000
   18.02861023   -1.00000000    2.34999990    0.01000000
   18.03166580   -1.00000000    2.34999990    0.01000000
   18.03527641   -1.00000000    2.34999990    0.01000000
   18.03833199  113.67700195    2.34999990    0.01000000
   18.04166603   65.76860046    2.34999990    0.01000000
   18.04666710   65.76860046    2.34999990    0.01000000
   18.05083275   73.40619659    2.34999990    0.01000000
   18.05388832   78.56040192    2.34999990    0.01000000
   18.05722237   77.60169983    2.34999990    0.01000000
   18.06027794   88.12550354    2.34999990    0.01000000
   18.06361008   73.67089844    2.34999990    0.01000000
   18.06694603   76.83480072    2.34999990    0.01000000
   18.07027817   81.72450256    2.34999990    0.01000000
   18.07333374   75.54139709    2.34999990    0.01000000
   18.07666779   75.17099762    2.34999990    0.01000000
   18.07972336   75.23200226    2.34999990    0.01000000
   18.08305550   77.10130310    2.34999990    0.01000000
   18.08361244   73.62640381    2.34999990    0.01000000
   18.08694458   71.52610016    2.34999990    0.01000000
   18.09000015   72.96360016    2.34999990    0.01000000
   18.09333420   70.94760132    2.34999990    0.01000000
   18.09777832   70.94760132    2.34999990    0.01000000
   18.10194397   71.83489990    2.34999990    0.01000000
   18.10499954   71.52639771    2.34999990    0.01000000
   18.10833359   71.46089935    2.34999990    0.01000000
   18.11166763   70.59490204    2.34999990    0.01000000
   18.11472321   70.79720306    2.34999990    0.01000000
   18.11805534   71.92109680    2.34999990    0.01000000
   18.12138939   71.12049866    2.34999990    0.01000000
   18.12444496   70.27860260    2.34999990    0.01000000
   18.12777710   71.73780060    2.34999990    0.01000000
   18.13083267   69.43430328    2.34999990    0.01000000
   18.13361168   70.95729828    2.34999990    0.01000000
   18.13472176   74.43170166    2.34999990    0.01000000
   18.13777733   70.67350006    2.34999990    0.01000000
   18.14111137   74.23210144    2.34999990    0.01000000
   18.14444351   72.62280273    2.34999990    0.01000000
   18.14888954   72.62280273    2.34999990    0.01000000
   18.15305519   73.42359924    2.34999990    0.01000000
   18.15638924   74.57959747    2.34999990    0.01000000
   18.15944481   74.32289886    2.34999990    0.01000000
   18.16277695   72.19609833    2.34999990    0.01000000
   18.16611099   70.19770050    2.34999990    0.01000000
   18.16916656   73.89379883    2.34999990    0.01000000
   18.17249870   72.27570343    2.34999990    0.01000000
   18.17555428   71.93630219    2.34999990    0.01000000
   18.17888832   72.13890076    2.34999990    0.01000000
   18.18222237   72.03790283    2.34999990    0.01000000
   18.18361092   74.77940369    2.34999990    0.01000000
   18.18583298   71.93589783    2.34999990    0.01000000
   18.18888855   71.62000275    2.34999990    0.01000000
   18.19222069   75.05879974    2.34999990    0.01000000
   18.19555473   71.30629730    2.34999990    0.01000000
   18.20000076   71.30629730    2.34999990    0.01000000
   18.20416832   72.58660126    2.34999990    0.01000000
   18.20750046   74.36070251    2.34999990    0.01000000
   18.21083450   71.09790039    2.34999990    0.01000000
   18.21389008   73.48380280    2.34999990    0.01000000
   18.21722221   75.41390228    2.34999990    0.01000000
   18.22027779   78.00540161    2.34999990    0.01000000
   18.22361183   72.00209808    2.34999990    0.01000000
   18.22694588   73.35189819    2.34999990    0.01000000
   18.23000145   71.14279938    2.34999990    0.01000000
   18.23333359   74.40630341    2.34999990    0.01000000
   18.23388863   74.38739777    2.34999990    0.01000000
   18.23722267   69.88069916    2.34999990    0.01000000
   18.24027824   74.80470276    2.34999990    0.01000000
   18.24361229   70.63790131    2.34999990    0.01000000
   18.24666786   70.72740173    2.34999990    0.01000000
   18.25138855   70.72740173    2.34999990    0.01000000
   18.25555611   72.77249908    2.34999990    0.01000000
   18.25861168   74.62100220    2.34999990    0.01000000
   18.26194382   73.82859802    2.34999990    0.01000000
   18.26499939   71.95909882    2.34999990    0.01000000
   18.26833344   74.02449799    2.34999990    0.01000000
   18.27166557   72.68329620    2.34999990    0.01000000
   18.27472115   71.54219818    2.34999990    0.01000000
   18.27805519   69.66400146    2.34999990    0.01000000
   18.28138924   72.66750336    2.34999990    0.01000000
   18.28388786   72.33599854    2.34999990    0.01000000
   18.28499985   72.83350372    2.34999990    0.01000000
   18.28805542   72.14340210    2.34999990    0.01000000
   18.29138756   74.91629791    2.34999990    0.01000000
   18.29472160   76.63639832    2.34999990    0.01000000
   18.29777718   72.53559875    2.34999990    0.01000000
   18.30249977   72.53559875    2.34999990    0.01000000
   18.30666542   73.11039734    2.34999990    0.01000000
   18.30972099   71.38310242    2.34999990    0.01000000
   18.31305504   79.25520325    2.34999990    0.01000000
   18.31638718   72.06880188    2.34999990    0.01000000
   18.31944466   73.02510071    2.34999990    0.01000000
   18.32277870   72.23979950    2.34999990    0.01000000
   18.32611275   74.49669647    2.34999990    0.01000000
   18.32916832   75.48580170    2.34999990    0.01000000
   18.33250046   73.84339905    2.34999990    0.01000000
   18.33388901   77.23750305    2.34999990    0.01000000
   18.33611107   73.50520325    2.34999990    0.01000000
   18.33916664   76.79589844    2.34999990    0.01000000
   18.34250069   72.36509705    2.34999990    0.01000000
   18.34583473   71.93540192    2.34999990    0.01000000
   18.34889030   73.71099854    2.34999990    0.01000000
   18.35361099   73.71099854    2.34999990    0.01000000
   18.35777855   73.73690033    2.34999990    0.01000000
   18.36111069   70.58080292    2.34999990    0.01000000
   18.36416626   74.56690216    2.34999990    0.01000000
   18.36750031   75.40720367    2.34999990    0.01000000
   18.37083435   74.54029846    2.34999990    0.01000000
   18.37388992   71.60389709    2.34999990    0.01000000
   18.37722206   74.91929626    2.34999990    0.01000000
   18.38027763   72.20610046    2.34999990    0.01000000
   18.38361168   73.69259644    2.34999990    0.01000000
   18.38416672   73.81900024    2.34999990    0.01000000
   18.38750076   73.94380188    2.34999990    0.01000000
   18.39055634   71.83979797    2.34999990    0.01000000
   18.39388847   74.13770294    2.34999990    0.01000000
   18.39722252   76.42949677    2.34999990    0.01000000
   18.40027809   82.96469879    2.34999990    0.01000000
   18.40472221   82.96469879    2.34999990    0.01000000
   18.40888786   77.68560028    2.34999990    0.01000000
   18.41222191   78.57900238    2.34999990    0.01000000
   18.41527748   73.54039764    2.34999990    0.01000000
   18.41860962   76.59880066    2.34999990    0.01000000
   18.42194366   78.45950317    2.34999990    0.01000000
   18.42499924   74.29679871    2.34999990    0.01000000
   18.42833328   72.28749847    2.34999990    0.01000000
   18.43166542   76.41580200    2.34999990    0.01000000
   18.43416595   75.19840240    2.34999990    0.01000000
   18.43527603   77.85440063    2.34999990    0.01000000
   18.43833160   74.50499725    2.34999990    0.01000000
   18.44166565   76.15129852    2.34999990    0.01000000
   18.44499969   73.50160217    2.34999990    0.01000000
   18.44805527   78.49230194    2.34999990    0.01000000
   18.45138931   72.91889954    2.34999990    0.01000000
   18.45611191   72.91889954    2.34999990    0.01000000
   18.46000099   72.69450378    2.34999990    0.01000000
   18.46333504   71.05120087    2.34999990    0.01000000
   18.46666718   74.03990173    2.34999990    0.01000000
   18.46972275   75.19339752    2.34999990    0.01000000
   18.47305679   72.25749969    2.34999990    0.01000000
   18.47638893   74.07540131    2.34999990    0.01000000
   18.47944450   69.66500092    2.34999990    0.01000000
   18.48277855   72.95970154    2.34999990    0.01000000
   18.48416710   71.15959930    2.34999990    0.01000000
   18.48638916   78.26049805    2.34999990    0.01000000
   18.48944473   70.57849884    2.34999990    0.01000000
   18.49277878   96.61969757    2.34999990    0.01000000
   18.49611092   72.19110107    2.34999990    0.01000000
   18.49916649   77.74739838    2.34999990    0.01000000
   18.50250053   75.10410309    2.34999990    0.01000000
   18.50722313   75.10410309    2.34999990    0.01000000
   18.51138878   74.68309784    2.34999990    0.01000000
   18.51444435   73.18779755    2.34999990    0.01000000
   18.51777840   72.52159882    2.34999990    0.01000000
   18.52111053   74.44360352    2.34999990    0.01000000
   18.52416611   73.31150055    2.34999990    0.01000000
   18.52750015   72.78040314    2.34999990    0.01000000
   18.53055573   71.65299988    2.34999990    0.01000000
   18.53388786   73.09539795    2.34999990    0.01000000
   18.53444481   72.44989777    2.34999990    0.01000000
   18.53777695   75.15200043    2.34999990    0.01000000
   18.54083252   76.94020081    2.34999990    0.01000000
   18.54416656   71.70670319    2.34999990    0.01000000
   18.54749870   73.74269867    2.34999990    0.01000000
   18.55055428   73.37879944    2.34999990    0.01000000
   18.55388832   72.53369904    2.34999990    0.01000000
   18.55833244   72.53369904    2.34999990    0.01000000
   18.56250000   73.98269653    2.34999990    0.01000000
   18.56583214   72.55989838    2.34999990    0.01000000
   18.56888962   70.10340118    2.34999990    0.01000000
   18.57222366   75.05449677    2.34999990    0.01000000
   18.57527924   71.89369965    2.34999990    0.01000000
   18.57861137   69.79129791    2.34999990    0.01000000
   18.58194542   69.67700195    2.34999990    0.01000000
   18.58444595   73.77989960    2.34999990    0.01000000
   18.58555603   72.67980194    2.34999990    0.01000000
   18.58861160   72.87580109    2.34999990    0.01000000
   18.59194565   72.70829773    2.34999990    0.01000000
   18.59527779   72.85980225    2.34999990    0.01000000
   18.59833336   74.89089966    2.34999990    0.01000000
   18.62000084   74.89089966    2.34999990    0.01000000
   18.62416649   71.70559692    2.34999990    0.01000000
   18.62722206   72.83170319    2.34999990    0.01000000
   18.63055611   71.82270050    2.34999990    0.01000000
   18.63388824   73.92369843    2.34999990    0.01000000
   18.63472176   71.32920074    2.34999990    0.01000000
   18.63722229   73.31250000    2.34999990    0.01000000
   18.64055634   71.27690125    2.34999990    0.01000000
   18.64388847   73.43640137    2.34999990    0.01000000
   18.64694405   75.17299652    2.34999990    0.01000000
   18.65027809   74.02770233    2.34999990    0.01000000
   18.65333366   73.27559662    2.34999990    0.01000000
   18.65666580   76.65200043    2.34999990    0.01000000
   18.65999985   73.47640228    2.34999990    0.01000000
   18.66305542   74.96630096    2.34999990    0.01000000
   18.66638756   77.43679810    2.34999990    0.01000000
   18.67111015   77.43679810    2.34999990    0.01000000
   18.67527771   77.12989807    2.34999990    0.01000000
   18.67833328   71.99839783    2.34999990    0.01000000
   18.68166542   73.26909637    2.34999990    0.01000000
   18.68472099   73.10749817    2.34999990    0.01000000
   18.68527603   78.36789703    2.34999990    0.01000000
   18.68861008   74.69619751    2.34999990    0.01000000
   18.69194412   75.35800171    2.34999990    0.01000000
   18.69499969   74.18060303    2.34999990    0.01000000
   18.69833183   72.83570099    2.34999990    0.01000000
   18.70166779   69.73780060    2.34999990    0.01000000
   18.70472336   72.59459686    2.34999990    0.01000000
   18.70805550   71.08309937    2.34999990    0.01000000
   18.71111107   73.17590332    2.34999990    0.01000000
   18.71444511   70.94229889    2.34999990    0.01000000
   18.71777916   74.98609924    2.34999990    0.01000000
   18.72222328   74.98609924    2.34999990    0.01000000
   18.72638893   74.05059814    2.34999990    0.01000000
   18.72944450   71.66010284    2.34999990    0.01000000
   18.73277855   72.57730103    2.34999990    0.01000000
   18.73472214   74.22830200    2.34999990    0.01000000
   18.73638916   69.63629913    2.34999990    0.01000000
   18.73972321   70.78700256    2.34999990    0.01000000
   18.74305534   71.92590332    2.34999990    0.01000000
   18.74611092   75.14240265    2.34999990    0.01000000
   18.74944496   70.47750092    2.34999990    0.01000000
   18.75277710   75.85189819    2.34999990    0.01000000
   18.75583267   72.28859711    2.34999990    0.01000000
   18.75916672   73.03720093    2.34999990    0.01000000
   18.76222229   73.38980103    2.34999990    0.01000000
   18.76555634   80.13439941    2.34999990    0.01000000
   18.76888847   76.20960236    2.34999990    0.01000000
   18.77333260   76.20960236    2.34999990    0.01000000
   18.77750015   71.37249756    2.34999990    0.01000000
   18.78083229   -1.00000000    2.34999990    0.01000000
   18.78388786  162.22900391    2.34999990    0.01000000
   18.78472137  136.02299500    2.34999990    0.01000000
   18.78750038   74.00129700    2.34999990    0.01000000
   18.79083252   -1.00000000    2.34999990    0.01000000
   18.79416656   -1.00000000    2.34999990    0.01000000
   18.79722214   -1.00000000    2.34999990    0.01000000
   18.80055428   -1.00000000    2.34999990    0.01000000
   18.80388832   -1.00000000    2.34999990    0.01000000
   18.80694389   -1.00000000    2.34999990    0.01000000
   18.81027794   -1.00000000    2.34999990    0.01000000
   18.81333351   86.65760040    2.34999990    0.01000000
   18.81666756   89.73339844    2.34999990    0.01000000
   18.82000160   -1.00000000    2.34999990    0.01000000
   18.82444572   -1.00000000    2.34999990    0.01000000
   18.82861137   74.39540100    2.34999990    0.01000000
   18.83194542   73.56960297    2.34999990    0.01000000
   18.83472252   77.75090027    2.34999990    0.01000000
   18.83555603   77.47730255    2.34999990    0.01000000
   18.83889008   76.78739929    2.34999990    0.01000000
   18.84194565   72.60399628    2.34999990    0.01000000
   18.84527779   74.52140045    2.34999990    0.01000000
   18.84833336   72.76689911    2.34999990    0.01000000
   18.85166740   71.53230286    2.34999990    0.01000000
   18.85499954   73.35479736    2.34999990    0.01000000
   18.85805511   73.51229858    2.34999990    0.01000000
   18.86138916   76.07369995    2.34999990    0.01000000
   18.86472321   73.94069672    2.34999990    0.01000000
   18.86777878   75.50650024    2.34999990    0.01000000
   18.87111092   74.59559631    2.34999990    0.01000000
   18.87583351   74.59559631    2.34999990    0.01000000
   18.88000107   74.75589752    2.34999990    0.01000000
   18.88305473   74.02210236    2.34999990    0.01000000
   18.88472176   75.40280151    2.34999990    0.01000000
   18.88666725   79.97959900    2.34999990    0.01000000
   18.88999939   75.10060120    2.34999990    0.01000000
   18.89305496   76.78140259    2.34999990    0.01000000
   18.89638901   74.95490265    2.34999990    0.01000000
   18.89972115   74.33730316    2.34999990    0.01000000
   18.90277672   73.13970184    2.34999990    0.01000000
   18.90611076   73.00050354    2.34999990    0.01000000
   18.90916634   73.89880371    2.34999990    0.01000000
   18.91250038   75.78420258    2.34999990    0.01000000
   18.91583252   74.85980225    2.34999990    0.01000000
   18.91888809   72.21600342    2.34999990    0.01000000
   18.92222214   74.31099701    2.34999990    0.01000000
   18.92694473   74.31099701    2.34999990    0.01000000
   18.93111038   72.18890381    2.34999990    0.01000000
   18.93416595   74.60569763    2.34999990    0.01000000
   18.93472099   75.98529816    2.34999990    0.01000000
   18.93777657   69.95790100    2.34999990    0.01000000
   18.94111061   75.59729767    2.34999990    0.01000000
   18.94416618   74.45390320    2.34999990    0.01000000
   18.94749832   75.24680328    2.34999990    0.01000000
   18.95083427   74.32720184    2.34999990    0.01000000
   18.95388985   72.53029633    2.34999990    0.01000000
   18.95722389   77.19509888    2.34999990    0.01000000
   18.96027946   75.65670013    2.34999990    0.01000000
   18.96361160   76.45040131    2.34999990    0.01000000
   18.96694565   72.14550018    2.34999990    0.01000000
   18.97000122   74.43309784    2.34999990    0.01000000
   18.97333336   79.09889984    2.34999990    0.01000000
   18.97805595   79.09889984    2.34999990    0.01000000
   18.98222351   73.50669861    2.34999990    0.01000000
   18.98472214   74.16390228    2.34999990    0.01000000
   18.98583412   74.16809845    2.34999990    0.01000000
   18.98916626   71.98919678    2.34999990    0.01000000
   18.99222183   71.69920349    2.34999990    0.01000000
   18.99555588   74.56169891    2.34999990    0.01000000
   18.99888992   71.19319916    2.34999990    0.01000000
   19.00194359   71.86150360    2.34999990    0.01000000
   19.00527763   75.41850281    2.34999990    0.01000000
   19.00833321   73.73880005    2.34999990    0.01000000
   19.01166725   75.72489929    2.34999990    0.01000000
   19.01499939   72.72440338    2.34999990    0.01000000
   19.01805496   71.55460358    2.34999990    0.01000000
   19.02138901   71.70320129    2.34999990    0.01000000
   19.02472115   -1.00000000    2.34999990    0.01000000
   19.02916718   -1.00000000    2.34999990    0.01000000
   19.03333282   73.76450348    2.34999990    0.01000000
   19.03472137   73.96669769    2.34999990    0.01000000
   19.03694344   73.51450348    2.34999990    0.01000000
   19.04027748   72.30169678    2.34999990    0.01000000
   19.04333305   75.74639893    2.34999990    0.01000000
   19.04666710   72.81310272    2.34999990    0.01000000
   19.04999924   72.06009674    2.34999990    0.01000000
   19.05305481   72.81140137    2.34999990    0.01000000
   19.05638885   72.56250000    2.34999990    0.01000000
   19.05944443   74.05930328    2.34999990    0.01000000
   19.06277657   76.68609619    2.34999990    0.01000000
   19.06611061   73.54859924    2.34999990    0.01000000
   19.06916809   75.53790283    2.34999990    0.01000000
   19.07250023   74.22679901    2.34999990    0.01000000
   19.07583427   77.72740173    2.34999990    0.01000000
   19.08055687   77.72740173    2.34999990    0.01000000
   19.08444595   73.71199799    2.34999990    0.01000000
   19.08500099   77.06400299    2.34999990    0.01000000
   19.08833313   74.44770050    2.34999990    0.01000000
   19.09166718   77.81449890    2.34999990    0.01000000
   19.09472275   76.51010132    2.34999990    0.01000000
   19.09805679   76.63249969    2.34999990    0.01000000
   19.10138893   74.34539795    2.34999990    0.01000000
   19.10444450   71.30500031    2.34999990    0.01000000
   19.10777855   74.40599823    2.34999990    0.01000000
   19.11111069   72.86289978    2.34999990    0.01000000
   19.11416626   76.52390289    2.34999990    0.01000000
   19.11750031   71.80159760    2.34999990    0.01000000
   19.12083435   75.57440186    2.34999990    0.01000000
   19.12388992   78.33390045    2.34999990    0.01000000
   19.12722206   81.32050323    2.34999990    0.01000000
   19.13166618   81.32050323    2.34999990    0.01000000
   19.13583374   74.53530121    2.34999990    0.01000000
   19.13888931   80.50050354    2.34999990    0.01000000
   19.14222145   76.23010254    2.34999990    0.01000000
   19.14555550   75.76450348    2.34999990    0.01000000
   19.14861107   74.48629761    2.34999990    0.01000000
   19.15194321   72.77809906    2.34999990    0.01000000
   19.15499878   71.90370178    2.34999990    0.01000000
   19.15833282   75.71540070    2.34999990    0.01000000
   19.16166687   72.43579865    2.34999990    0.01000000
   19.16472244   73.12349701    2.34999990    0.01000000
   19.16805458   74.98930359    2.34999990    0.01000000
   19.17138863   75.09510040    2.34999990    0.01000000
   19.17444420   73.92070007    2.34999990    0.01000000
   19.17777634   74.48500061    2.34999990    0.01000000
   19.18277740   74.48500061    2.34999990    0.01000000
   19.18694305   77.27480316    2.34999990    0.01000000
   19.19027710   73.53469849    2.34999990    0.01000000
   19.19333267   76.09889984    2.34999990    0.01000000
   19.19666672   71.05429840    2.34999990    0.01000000
   19.19972038   75.72679901    2.34999990    0.01000000
   19.20305634   74.05349731    2.34999990    0.01000000
   19.20639038   73.27059937    2.34999990    0.01000000
   19.20944595   72.56279755    2.34999990    0.01000000
   19.21277809   73.03900146    2.34999990    0.01000000
   19.21611214   72.80889893    2.34999990    0.01000000
   19.21916771   77.28479767    2.34999990    0.01000000
   19.22249985   73.08110046    2.34999990    0.01000000
   19.22555542   80.92859650    2.34999990    0.01000000
   19.22888947   76.82710266    2.34999990    0.01000000
   19.23388863   76.82710266    2.34999990    0.01000000
   19.23805618   78.53759766    2.34999990    0.01000000
   19.24138832   78.23429871    2.34999990    0.01000000
   19.24444389   71.74530029    2.34999990    0.01000000
   19.24777794   76.73979950    2.34999990    0.01000000
   19.25111198   74.69390106    2.34999990    0.01000000
   19.25416756   72.60479736    2.34999990    0.01000000
   19.25749969   72.06279755    2.34999990    0.01000000
   19.26083374   73.85220337    2.34999990    0.01000000
   19.26388931   73.39739990    2.34999990    0.01000000
   19.26722145   75.39160156    2.34999990    0.01000000
   19.27027702   76.32009888    2.34999990    0.01000000
   19.27361107   73.10859680    2.34999990    0.01000000
   19.27694511   71.11519623    2.34999990    0.01000000
   19.28000069   72.96759796    2.34999990    0.01000000
   19.28527641   72.96759796    2.34999990    0.01000000
   19.28916550   73.90950012    2.34999990    0.01000000
   19.29249954   77.43000031    2.34999990    0.01000000
   19.29583359   71.76129913    2.34999990    0.01000000
   19.29888916   71.95379639    2.34999990    0.01000000
   19.30222130   71.75090027    2.34999990    0.01000000
   19.30527687   75.55670166    2.34999990    0.01000000
   19.30861092   71.48030090    2.34999990    0.01000000
   19.31194305   76.06749725    2.34999990    0.01000000
   19.31499863   75.76989746    2.34999990    0.01000000
   19.31833458   70.87409973    2.34999990    0.01000000
   19.32166672   75.37770081    2.34999990    0.01000000
   19.32472229   73.37220001    2.34999990    0.01000000
   19.32805634   74.98349762    2.34999990    0.01000000
   19.33111191   69.76470184    2.34999990    0.01000000
   19.33638954   69.76470184    2.34999990    0.01000000
   19.34055710   73.03589630    2.34999990    0.01000000
   19.34361267   71.08020020    2.34999990    0.01000000
   19.34694481   74.63420105    2.34999990    0.01000000
   19.35000038   76.34480286    2.34999990    0.01000000
   19.35333443   76.17379761    2.34999990    0.01000000
   19.35666656   73.86830139    2.34999990    0.01000000
   19.36000061   75.67109680    2.34999990    0.01000000
   19.36305618   74.99240112    2.34999990    0.01000000
   19.36638832   70.60970306    2.34999990    0.01000000
   19.36944389   74.32389832    2.34999990    0.01000000
   19.37277794   74.65519714    2.34999990    0.01000000
   19.37611198   74.66190338    2.34999990    0.01000000
   19.37916756   80.34259796    2.34999990    0.01000000
   19.38249969   76.64890289    2.34999990    0.01000000
   19.38750076   76.64890289    2.34999990    0.01000000
   19.39166641   78.58300018    2.34999990    0.01000000
   19.39500046   73.30650330    2.34999990    0.01000000
   19.39805603   78.45410156    2.34999990    0.01000000
   19.40138817   81.37560272    2.34999990    0.01000000
   19.40444374   76.12660217    2.34999990    0.01000000
   19.40777779   75.16269684    2.34999990    0.01000000
   19.41110992   77.96540070    2.34999990    0.01000000
   19.41416550   74.80370331    2.34999990    0.01000000
   19.41749954   72.47689819    2.34999990    0.01000000
   19.42083359   75.84010315    2.34999990    0.01000000
   19.42388916   74.29579926    2.34999990    0.01000000
   19.42722130   73.95950317    2.34999990    0.01000000
   19.43027687   74.35269928    2.34999990    0.01000000
   19.43361092   70.84619904    2.34999990    0.01000000
   19.43861008   70.84619904    2.34999990    0.01000000
   19.44277763   75.78620148    2.34999990    0.01000000
   19.44610977   73.01170349    2.34999990    0.01000000
   19.44916534   80.69059753    2.34999990    0.01000000
   19.45250130   73.77739716    2.34999990    0.01000000
   19.45583344   79.37470245    2.34999990    0.01000000
   19.45888901   81.72769928    2.34999990    0.01000000
   19.46222305   75.50319672    2.34999990    0.01000000
   19.46527863   81.71559906    2.34999990    0.01000000
   19.46861076   76.33029938    2.34999990    0.01000000
   19.47194481   81.06179810    2.34999990    0.01000000
   19.47500038   71.03389740    2.34999990    0.01000000
   19.47833443   82.31980133    2.34999990    0.01000000
   19.48166656   76.14299774    2.34999990    0.01000000
   19.48472214   76.84739685    2.34999990    0.01000000
   19.48972321   76.84739685    2.34999990    0.01000000
   19.49388885   74.49790192    2.34999990    0.01000000
   19.49722290   79.92910004    2.34999990    0.01000000
   19.50055504   80.34970093    2.34999990    0.01000000
   19.50361061   72.63030243    2.34999990    0.01000000
   19.50694466   73.81279755    2.34999990    0.01000000
   19.51027870   80.53450012    2.34999990    0.01000000
   19.51333427   77.17910004    2.34999990    0.01000000
   19.51666641   75.18360138    2.34999990    0.01000000
   19.51972198   72.75859833    2.34999990    0.01000000
   19.52305603   72.00849915    2.34999990    0.01000000
   19.52638817   75.22859955    2.34999990    0.01000000
   19.52944374   75.65619659    2.34999990    0.01000000
   19.53277779   76.27639771    2.34999990    0.01000000
   19.53610992   80.51069641    2.34999990    0.01000000
   19.54111099   80.51069641    2.34999990    0.01000000
   19.54527664   72.54740143    2.34999990    0.01000000
   19.54833221   74.52639771    2.34999990    0.01000000
   19.55166626   73.02269745    2.34999990    0.01000000
   19.55499840   72.35449982    2.34999990    0.01000000
   19.55805397   72.90399933    2.34999990    0.01000000
   19.56138802   72.47489929    2.34999990    0.01000000
   19.56444359   70.63700104    2.34999990    0.01000000
   19.56777954   74.04139709    2.34999990    0.01000000
   19.57111168   72.46659851    2.34999990    0.01000000
   19.57416725   72.51840210    2.34999990    0.01000000
   19.57750130   75.83940125    2.34999990    0.01000000
   19.58083344   71.62239838    2.34999990    0.01000000
   19.58388901   74.59960175    2.34999990    0.01000000
   19.58722305   73.67829895    2.34999990    0.01000000
   19.59222221   73.67829895    2.34999990    0.01000000
   19.59638977   72.61430359    2.34999990    0.01000000
   19.59972191   74.12619781    2.34999990    0.01000000
   19.60277748   71.59369659    2.34999990    0.01000000
   19.60611153   76.44120026    2.34999990    0.01000000
   19.60916710   77.51300049    2.34999990    0.01000000
   19.61250114   75.49579620    2.34999990    0.01000000
   19.61583328   75.03510284    2.34999990    0.01000000
   19.63527679   74.46199799    2.34999990    0.01000000
   19.63861084   73.78119659    2.34999990    0.01000000
   19.64333344   73.78119659    2.34999990    0.01000000
   19.64749908   75.27310181    2.34999990    0.01000000
   19.65083313   75.36129761    2.34999990    0.01000000
   19.65388870   73.57869720    2.34999990    0.01000000
   19.65722275   72.15640259    2.34999990    0.01000000
   19.66055489   74.58010101    2.34999990    0.01000000
   19.66361046   73.46800232    2.34999990    0.01000000
   19.66694450   71.77999878    2.34999990    0.01000000
   19.67000008   72.66790009    2.34999990    0.01000000
   19.67333221   77.66290283    2.34999990    0.01000000
   19.67666626   71.76129913    2.34999990    0.01000000
   19.67972183   74.42890167    2.34999990    0.01000000
   19.68305397   75.53839874    2.34999990    0.01000000
   19.68638802   74.64240265    2.34999990    0.01000000
   19.68944359   71.10679626    2.34999990    0.01000000
   19.69444275   71.10679626    2.34999990    0.01000000
   19.69861031   72.94819641    2.34999990    0.01000000
   19.70194435   73.90339661    2.34999990    0.01000000
   19.70527840   71.51339722    2.34999990    0.01000000
   19.70833397   72.10630035    2.34999990    0.01000000
   19.71166801   73.40129852    2.34999990    0.01000000
   19.71472359   72.81919861    2.34999990    0.01000000
   19.71805573   71.95819855    2.34999990    0.01000000
   19.72138977   71.37950134    2.34999990    0.01000000
   19.72444534   72.59770203    2.34999990    0.01000000
   19.72777748   73.05609894    2.34999990    0.01000000
   19.73111153   72.69039917    2.34999990    0.01000000
   19.73416710   76.14869690    2.34999990    0.01000000
   19.73750114   75.23780060    2.34999990    0.01000000
   19.74055672   76.02510071    2.34999990    0.01000000
   19.74583435   76.02510071    2.34999990    0.01000000
   19.75000000   70.54360199    2.34999990    0.01000000
   19.75305557   75.48190308    2.34999990    0.01000000
   19.75638962   72.98300171    2.34999990    0.01000000
   19.75972176   72.58080292    2.34999990    0.01000000
   19.76277733   75.40599823    2.34999990    0.01000000
   19.76611137   73.46330261    2.34999990    0.01000000
   19.76916695   75.29969788    2.34999990    0.01000000
   19.77249908   74.84729767    2.34999990    0.01000000
   19.77583313   73.88939667    2.34999990    0.01000000
   19.77888870   73.84889984    2.34999990    0.01000000
   19.78222275   73.34069824    2.34999990    0.01000000
   19.78555489   71.31839752    2.34999990    0.01000000
   19.78861046   76.98179626    2.34999990    0.01000000
   19.79194450   74.64019775    2.34999990    0.01000000
   19.79694366   74.64019775    2.34999990    0.01000000
   19.80111122   72.91909790    2.34999990    0.01000000
   19.80416679   70.99720001    2.34999990    0.01000000
   19.80749893   75.72879791    2.34999990    0.01000000
   19.81083298   73.05460358    2.34999990    0.01000000
   19.81388855   76.67759705    2.34999990    0.01000000
   19.81722260   75.29940033    2.34999990    0.01000000
   19.82055664   75.44850159    2.34999990    0.01000000
   19.82361221   74.02200317    2.34999990    0.01000000
   19.82694626   77.86270142    2.34999990    0.01000000
   19.83000183   77.68589783    2.34999990    0.01000000
   19.83333397   75.14520264    2.34999990    0.01000000
   19.83666801   71.42749786    2.34999990    0.01000000
   19.83972359   74.24079895    2.34999990    0.01000000
   19.84305573   73.48989868    2.34999990    0.01000000
   19.84805679   73.48989868    2.34999990    0.01000000
   19.85222244   73.12280273    2.34999990    0.01000000
   19.85555649   72.16329956    2.34999990    0.01000000
   19.85861206   76.71489716    2.34999990    0.01000000
   19.86194420   75.68360138    2.34999990    0.01000000
   19.86527824   72.85720062    2.34999990    0.01000000
   19.86833382   72.16850281    2.34999990    0.01000000
   19.87166595   70.53269958    2.34999990    0.01000000
   19.87472153   73.09239960    2.34999990    0.01000000
   19.87805557   72.30300140    2.34999990    0.01000000
   19.88138962   77.44360352    2.34999990    0.01000000
   19.88444519   72.83100128    2.34999990    0.01000000
   19.88777733   74.79219818    2.34999990    0.01000000
   19.89111137   72.65319824    2.34999990    0.01000000
   19.89416695   73.76159668    2.34999990    0.01000000
   19.89916611   73.76159668    2.34999990    0.01000000
   19.90333366   71.34279633    2.34999990    0.01000000
   19.90666580   74.15100098    2.34999990    0.01000000
   19.90999985   73.45310211    2.34999990    0.01000000
   19.91305542   71.28710175    2.34999990    0.01000000
   19.91638756   74.60759735    2.34999990    0.01000000
   19.91944313   74.43479919    2.34999990    0.01000000
   19.92277718   76.66100311    2.34999990    0.01000000
   19.92611122   71.34639740    2.34999990    0.01000000
   19.92916679   72.20570374    2.34999990    0.01000000
   19.93249893   73.20480347    2.34999990    0.01000000
   19.93583298   74.51679993    2.34999990    0.01000000
   19.93888855   73.69270325    2.34999990    0.01000000
   19.94222069   74.83439636    2.34999990    0.01000000
   19.94527626   72.27100372    2.34999990    0.01000000
   19.95055580   72.27100372    2.34999990    0.01000000
   19.95472336   75.35949707    2.34999990    0.01000000
   19.95777893   74.40229797    2.34999990    0.01000000
   19.96111107   71.81739807    2.34999990    0.01000000
   19.96416664   74.85790253    2.34999990    0.01000000
   19.96750069   73.77829742    2.34999990    0.01000000
   19.97083473   75.42630005    2.34999990    0.01000000
   19.97389030   74.61070251    2.34999990    0.01000000
   19.97722244   72.95189667    2.34999990    0.01000000
   19.98055649   72.33969879    2.34999990    0.01000000
   19.98361206   72.22260284    2.34999990    0.01000000
   19.98694420   73.95670319    2.34999990    0.01000000
   19.98999977   71.23880005    2.34999990    0.01000000
   19.99333382   73.93920135    2.34999990    0.01000000
   19.99666786   74.36820221    2.34999990    0.01000000
   20.00166702   74.36820221    2.34999990    0.01000000
   20.00583267   75.26090240    2.34999990    0.01000000
   20.00888824   73.50440216    2.34999990    0.01000000
   20.01222229   73.87779999    2.34999990    0.01000000
   20.01555634   74.34919739    2.34999990    0.01000000
   20.01861000   73.02279663    2.34999990    0.01000000
   20.02194405   75.65640259    2.34999990    0.01000000
   20.02527809   73.92479706    2.34999990    0.01000000
   20.02833366   74.50499725    2.34999990    0.01000000
   20.03166580   73.80979919    2.34999990    0.01000000
   20.03472137   77.33370209    2.34999990    0.01000000
   20.03805542   75.68379974    2.34999990    0.01000000
   20.04138756   72.16310120    2.34999990    0.01000000
   20.04444313   73.46279907    2.34999990    0.01000000
   20.04777718   74.29859924    2.34999990    0.01000000
   20.05277634   74.29859924    2.34999990    0.01000000
   20.05694389   74.67019653    2.34999990    0.01000000
   20.06027794   82.18650055    2.34999990    0.01000000
   20.06333351   76.45850372    2.34999990    0.01000000
   20.06666756   77.82160187    2.34999990    0.01000000
   20.07000160   76.06330109    2.34999990    0.01000000
   20.07305717   73.82409668    2.34999990    0.01000000
   20.07638931   72.28179932    2.34999990    0.01000000
   20.07944489   77.50509644    2.34999990    0.01000000
   20.08277893   73.08360291    2.34999990    0.01000000
   20.08611107   74.22149658    2.34999990    0.01000000
   20.08916664   74.01139832    2.34999990    0.01000000
   20.09250069   73.29589844    2.34999990    0.01000000
   20.09583473   72.91339874    2.34999990    0.01000000
   20.09889030   75.11869812    2.34999990    0.01000000
   20.10388947   75.11869812    2.34999990    0.01000000
   20.10805511   73.47059631    2.34999990    0.01000000
   20.11138916   72.15470123    2.34999990    0.01000000
   20.11472321   74.60240173    2.34999990    0.01000000
   20.11777878   74.31649780    2.34999990    0.01000000
   20.12111092   73.77549744    2.34999990    0.01000000
   20.12444496   75.17790222    2.34999990    0.01000000
   20.12750053   73.42900085    2.34999990    0.01000000
   20.13083267   74.75620270    2.34999990    0.01000000
   20.13388824   72.66490173    2.34999990    0.01000000
   20.13722229   73.55940247    2.34999990    0.01000000
   20.14055634   74.26920319    2.34999990    0.01000000
   20.14361191   75.02130127    2.34999990    0.01000000
   20.14694405   73.23000336    2.34999990    0.01000000
   20.15027809   73.30799866    2.34999990    0.01000000
   20.15527725   73.30799866    2.34999990    0.01000000
   20.15944481   73.79160309    2.34999990    0.01000000
   20.16250038   72.58039856    2.34999990    0.01000000
   20.16583252   74.30370331    2.34999990    0.01000000
   20.16888809   74.96820068    2.34999990    0.01000000
   20.17222214   75.34200287    2.34999990    0.01000000
   20.17555428   74.90529633    2.34999990    0.01000000
   20.17860985   72.85690308    2.34999990    0.01000000
   20.18194389   76.47290039    2.34999990    0.01000000
   20.18527603   74.50650024    2.34999990    0.01000000
   20.18833160   73.13559723    2.34999990    0.01000000
   20.19166565   74.73419952    2.34999990    0.01000000
   20.19472122   73.21620178    2.34999990    0.01000000
   20.19805527   70.97660065    2.34999990    0.01000000
   20.20138931   74.12030029    2.34999990    0.01000000
   20.20639038   74.12030029    2.34999990    0.01000000
   20.21055603   72.53549957    2.34999990    0.01000000
   20.21361160   71.84259796    2.34999990    0.01000000
   20.21694565   72.39610291    2.34999990    0.01000000
   20.22027779   74.13520050    2.34999990    0.01000000
   20.22333336   72.92289734    2.34999990    0.01000000
   20.22666740   73.45490265    2.34999990    0.01000000
   20.23000145   72.97280121    2.34999990    0.01000000
   20.23305511   74.25630188    2.34999990    0.01000000
   20.23638916   71.59169769    2.34999990    0.01000000
   20.23944473   71.72579956    2.34999990    0.01000000
   20.24277878   78.94779968    2.34999990    0.01000000
   20.24611092   72.79969788    2.34999990    0.01000000
   20.24916649   75.33029938    2.34999990    0.01000000
   20.25250053   76.83840179    2.34999990    0.01000000
   20.25749969   76.83840179    2.34999990    0.01000000
   20.26166725   75.45300293    2.34999990    0.01000000
   20.26499939   75.04640198    2.34999990    0.01000000
   20.26805496   72.87760162    2.34999990    0.01000000
   20.27138901   71.79419708    2.34999990    0.01000000
   20.27472115   72.96350098    2.34999990    0.01000000
   20.27777672   74.81729889    2.34999990    0.01000000
   20.28111076   73.14440155    2.34999990    0.01000000
   20.28416634   74.19889832    2.34999990    0.01000000
   20.28750038   75.24960327    2.34999990    0.01000000
   20.29083252   71.45189667    2.34999990    0.01000000
   20.29388809   72.71489716    2.34999990    0.01000000
   20.29722214   73.72660065    2.34999990    0.01000000
   20.30055428   81.72850037    2.34999990    0.01000000
   20.30360985   72.91280365    2.34999990    0.01000000
   20.30861092   72.91280365    2.34999990    0.01000000
   20.31277657   73.51119995    2.34999990    0.01000000
   20.31611061   73.68000031    2.34999990    0.01000000
   20.31944466   71.28739929    2.34999990    0.01000000
   20.32250023   71.52089691    2.34999990    0.01000000
   20.32583427   72.86489868    2.34999990    0.01000000
   20.32888985   72.39179993    2.34999990    0.01000000
   20.33222389   75.03070068    2.34999990    0.01000000
   20.33555603   75.07689667    2.34999990    0.01000000
   20.33861160   76.78620148    2.34999990    0.01000000
   20.34194565   72.03549957    2.34999990    0.01000000
   20.34527779   74.13870239    2.34999990    0.01000000
   20.34833336   72.16390228    2.34999990    0.01000000
   20.35166740   74.94080353    2.34999990    0.01000000
   20.35472298   75.04350281    2.34999990    0.01000000
   20.36000061   75.04350281    2.34999990    0.01000000
   20.36416626   72.89910126    2.34999990    0.01000000
   20.36722183   75.43489838    2.34999990    0.01000000
   20.37055588   72.23889923    2.34999990    0.01000000
   20.37361145   71.96250153    2.34999990    0.01000000
   20.37694550   72.58740234    2.34999990    0.01000000
   20.38027763   76.42970276    2.34999990    0.01000000
   20.38333321   72.68209839    2.34999990    0.01000000
   20.38666725   75.01779938    2.34999990    0.01000000
   20.38999939   77.04100037    2.34999990    0.01000000
   20.39305496   80.71009827    2.34999990    0.01000000
   20.39638901   73.77729797    2.34999990    0.01000000
   20.39972115   74.08319855    2.34999990    0.01000000
   20.40277672   72.44290161    2.34999990    0.01000000
   20.40611076   75.06189728    2.34999990    0.01000000
   20.41110992   75.06189728    2.34999990    0.01000000
   20.41527748   74.21240234    2.34999990    0.01000000
   20.41833305   77.77580261    2.34999990    0.01000000
   20.42166519   74.51830292    2.34999990    0.01000000
   20.42499924   77.67849731    2.34999990    0.01000000
   20.42805481   77.37590027    2.34999990    0.01000000
   20.43138885   78.86450195    2.34999990    0.01000000
   20.43472099   74.51609802    2.34999990    0.01000000
   20.43777657   74.69529724    2.34999990    0.01000000
   20.44111061   75.91259766    2.34999990    0.01000000
   20.44416618   79.12789917    2.34999990    0.01000000
   20.44749832   74.77860260    2.34999990    0.01000000
   20.45083427   76.58249664    2.34999990    0.01000000
   20.45388985   77.65370178    2.34999990    0.01000000
   20.45722389   74.01170349    2.34999990    0.01000000
   20.46222305   74.01170349    2.34999990    0.01000000
   20.46638870   74.84660339    2.34999990    0.01000000
   20.46972275   73.59549713    2.34999990    0.01000000
   20.47277832   80.44249725    2.34999990    0.01000000
   20.47611237   75.73739624    2.34999990    0.01000000
   20.47916794   73.52420044    2.34999990    0.01000000
   20.48250008   75.13259888    2.34999990    0.01000000
   20.48583412   73.52320099    2.34999990    0.01000000
   20.48888969   77.96029663    2.34999990    0.01000000
   20.49222183   75.32820129    2.34999990    0.01000000
   20.49555588   76.01000214    2.34999990    0.01000000
   20.49861145   74.32830048    2.34999990    0.01000000
   20.50194359   74.38310242    2.34999990    0.01000000
   20.50499916   74.19750214    2.34999990    0.01000000
   20.50833321   77.09390259    2.34999990    0.01000000
   20.51333427   77.09390259    2.34999990    0.01000000
   20.51749992   76.80940247    2.34999990    0.01000000
   20.52083397   74.18910217    2.34999990    0.01000000
   20.52416611   73.63580322    2.34999990    0.01000000
   20.52722168   78.82129669    2.34999990    0.01000000
   20.53055573   76.13539886    2.34999990    0.01000000
   20.53361130   75.15149689    2.34999990    0.01000000
   20.53694344   74.92289734    2.34999990    0.01000000
   20.54027748   71.83719635    2.34999990    0.01000000
   20.54333305   74.63819885    2.34999990    0.01000000
   20.54666710   77.07520294    2.34999990    0.01000000
   20.54999924   74.23190308    2.34999990    0.01000000
   20.55305481   75.02590179    2.34999990    0.01000000
   20.55638885   75.12159729    2.34999990    0.01000000
   20.55944443   74.83619690    2.34999990    0.01000000
   20.56472206   74.83619690    2.34999990    0.01000000
   20.56861115   74.09190369    2.34999990    0.01000000
   20.57194519   73.80799866    2.34999990    0.01000000
   20.57527924   73.24620056    2.34999990    0.01000000
   20.57833481   72.31210327    2.34999990    0.01000000
   20.58166695   73.18299866    2.34999990    0.01000000
   20.58500099   74.43569946    2.34999990    0.01000000
   20.58805656   75.27339935    2.34999990    0.01000000
   20.59138870   75.45169830    2.34999990    0.01000000
   20.59444427   73.46620178    2.34999990    0.01000000
   20.59777832   73.12319946    2.34999990    0.01000000
   20.60111237   78.46579742    2.34999990    0.01000000
   20.60416794   75.46810150    2.34999990    0.01000000
   20.60750008   73.40540314    2.34999990    0.01000000
   20.61083412   74.76979828    2.34999990    0.01000000
   20.61583328   74.76979828    2.34999990    0.01000000
   20.62000084   78.14459991    2.34999990    0.01000000
   20.62305641   80.99410248    2.34999990    0.01000000
   20.62638855   76.31629944    2.34999990    0.01000000
   20.62972260   76.76670074    2.34999990    0.01000000
   20.63277817   80.66950226    2.34999990    0.01000000
   20.65250015   76.67259979    2.34999990    0.01000000
   20.65583229   77.94760132    2.34999990    0.01000000
   20.65916634   76.23639679    2.34999990    0.01000000
   20.66222191   78.45749664    2.34999990    0.01000000
   20.66722107   78.45749664    2.34999990    0.01000000
   20.67138863   80.77799988    2.34999990    0.01000000
   20.67472076   82.59480286    2.34999990    0.01000000
   20.67777634   73.94560242    2.34999990    0.01000000
   20.68111038   73.19349670    2.34999990    0.01000000
   20.68416595   75.79080200    2.34999990    0.01000000
   20.68750000   75.78739929    2.34999990    0.01000000
   20.69083214   76.82630157    2.34999990    0.01000000
   20.69388771   74.38099670    2.34999990    0.01000000
   20.69722176   77.13469696    2.34999990    0.01000000
   20.70055580   73.91040039    2.34999990    0.01000000
   20.70361137   76.70539856    2.34999990    0.01000000
   20.70694542   76.02760315    2.34999990    0.01000000
   20.71000099   76.98560333    2.34999990    0.01000000
   20.71333504   83.08879852    2.34999990    0.01000000
   20.71833420   83.08879852    2.34999990    0.01000000
   20.72249985   77.29699707    2.34999990    0.01000000
   20.72583389   77.37439728    2.34999990    0.01000000
   20.72888947   75.57869720    2.34999990    0.01000000
   20.73222351   74.64450073    2.34999990    0.01000000
   20.73555565   78.79570007    2.34999990    0.01000000
   20.73861122   78.77179718    2.34999990    0.01000000
   20.74194527   78.08000183    2.34999990    0.01000000
   20.74527740   77.12989807    2.34999990    0.01000000
   20.74833298   76.22180176    2.34999990    0.01000000
   20.75166702   76.77050018    2.34999990    0.01000000
   20.75472260   75.15370178    2.34999990    0.01000000
   20.75805473   72.67630005    2.34999990    0.01000000
   20.76138878   70.31900024    2.34999990    0.01000000
   20.76444435   77.06939697    2.34999990    0.01000000
   20.76972198   77.06939697    2.34999990    0.01000000
   20.77361107   72.14530182    2.34999990    0.01000000
   20.77694511   74.02269745    2.34999990    0.01000000
   20.78027725   75.35160065    2.34999990    0.01000000
   20.78333282   79.30000305    2.34999990    0.01000000
   20.78666687   74.91010284    2.34999990    0.01000000
   20.78999901   77.79779816    2.34999990    0.01000000
   20.79305458   79.40499878    2.34999990    0.01000000
   20.79638863   75.67099762    2.34999990    0.01000000
   20.79944420   76.45890045    2.34999990    0.01000000
   20.80277634   73.76280212    2.34999990    0.01000000
   20.80611038   75.70850372    2.34999990    0.01000000
   20.80916595   73.73780060    2.34999990    0.01000000
   20.81250000   73.55480194    2.34999990    0.01000000
   20.81583214   72.80210114    2.34999990    0.01000000
   20.82083511   72.80210114    2.34999990    0.01000000
   20.82500076   75.90390015    2.34999990    0.01000000
   20.82805634   73.38320160    2.34999990    0.01000000
   20.83139038   79.54769897    2.34999990    0.01000000
   20.83472252   76.12319946    2.34999990    0.01000000
   20.83777809   77.17759705    2.34999990    0.01000000
   20.84111214   73.45950317    2.34999990    0.01000000
   20.84444427   82.44789886    2.34999990    0.01000000
   20.84749985   79.88009644    2.34999990    0.01000000
   20.85083389   78.05159760    2.34999990    0.01000000
   20.85416794   74.83979797    2.34999990    0.01000000
   20.85722351   73.79129791    2.34999990    0.01000000
   20.86055565   75.29620361    2.34999990    0.01000000
   20.86361122   75.68119812    2.34999990    0.01000000
   20.86694527   78.82199860    2.34999990    0.01000000
   20.87194443   78.82199860    2.34999990    0.01000000
   20.87611198   76.66259766    2.34999990    0.01000000
   20.87944412   80.71970367    2.34999990    0.01000000
   20.88249969   73.16200256    2.34999990    0.01000000
   20.88583374   80.19830322    2.34999990    0.01000000
   20.88888931   74.86409760    2.34999990    0.01000000
   20.89222145   79.71489716    2.34999990    0.01000000
   20.89555550   81.91649628    2.34999990    0.01000000
   20.89861107   72.64270020    2.34999990    0.01000000
   20.90194321   76.55829620    2.34999990    0.01000000
   20.90527725   82.55950165    2.34999990    0.01000000
   20.90833282   88.70819855    2.34999990    0.01000000
   20.91166687   77.07649994    2.34999990    0.01000000
   20.91472244   74.80960083    2.34999990    0.01000000
   20.91805458   81.15679932    2.34999990    0.01000000
   20.92305565   81.15679932    2.34999990    0.01000000
   20.92722130   77.67810059    2.34999990    0.01000000
   20.93055534   77.10030365    2.34999990    0.01000000
   20.93361092   76.91909790    2.34999990    0.01000000
   20.93694305   76.76959991    2.34999990    0.01000000
   20.94027710   78.20770264    2.34999990    0.01000000
   20.94361115   81.23519897    2.34999990    0.01000000
   20.94666672   81.06400299    2.34999990    0.01000000
   20.95000076   78.03350067    2.34999990    0.01000000
   20.95305634   75.05599976    2.34999990    0.01000000
   20.95639038   83.10510254    2.34999990    0.01000000
   20.95972252   81.48010254    2.34999990    0.01000000
   20.96277809   78.70790100    2.34999990    0.01000000
   20.96611214   78.79660034    2.34999990    0.01000000
   20.96944427   80.29959869    2.34999990    0.01000000
   20.97444534   80.29959869    2.34999990    0.01000000
   20.97833443   92.30950165    2.34999990    0.01000000
   20.98166656   72.89320374    2.34999990    0.01000000
   20.98500061   81.86460114    2.34999990    0.01000000
   20.98805618   84.31050110    2.34999990    0.01000000
   20.99138832   77.49629974    2.34999990    0.01000000
   20.99472237   78.00389862    2.34999990    0.01000000
   20.99777794   82.52770233    2.34999990    0.01000000
   21.00111198   83.35959625    2.34999990    0.01000000
   21.00416756   74.77020264    2.34999990    0.01000000
   21.00749969   75.13559723    2.34999990    0.01000000
   21.01083374   82.76309967    2.34999990    0.01000000
   21.01388931   79.79789734    2.34999990    0.01000000
   21.01722145   80.21839905    2.34999990    0.01000000
   21.02055550   78.39450073    2.34999990    0.01000000
   21.02555466   78.39450073    2.34999990    0.01000000
   21.02972221   82.67079926    2.34999990    0.01000000
   21.03277779   86.88639832    2.34999990    0.01000000
   21.03610992   84.36550140    2.34999990    0.01000000
   21.03944397   75.96600342    2.34999990    0.01000000
   21.04249954   80.34639740    2.34999990    0.01000000
   21.04583359   80.70909882    2.34999990    0.01000000
   21.04916573   78.76370239    2.34999990    0.01000000
   21.05222130   87.57790375    2.34999990    0.01000000
   21.05555534   81.72370148    2.34999990    0.01000000
   21.05888748   80.47039795    2.34999990    0.01000000
   21.06194305   78.57420349    2.34999990    0.01000000
   21.06527710   80.84159851    2.34999990    0.01000000
   21.06833458   82.32469940    2.34999990    0.01000000
   21.07166672   83.77639771    2.34999990    0.01000000
   21.07666779   83.77639771    2.34999990    0.01000000
   21.08083344   86.02100372    2.34999990    0.01000000
   21.08416748   82.84249878    2.34999990    0.01000000
   21.08722305   76.74800110    2.34999990    0.01000000
   21.09055710   83.46369934    2.34999990    0.01000000
   21.09361267   84.31459808    2.34999990    0.01000000
   21.09694481   83.70149994    2.34999990    0.01000000
   21.10027885   88.12889862    2.34999990    0.01000000
   21.10333443   80.46060181    2.34999990    0.01000000
   21.10666656   81.31250000    2.34999990    0.01000000
   21.11000061   84.96209717    2.34999990    0.01000000
   21.11305618   89.09529877    2.34999990    0.01000000
   21.11638832   83.97850037    2.34999990    0.01000000
   21.11944389   80.24510193    2.34999990    0.01000000
   21.12277794   88.44909668    2.34999990    0.01000000
   21.12777710   88.44909668    2.34999990    0.01000000
   21.13194466   84.64409637    2.34999990    0.01000000
   21.13527679   83.98049927    2.34999990    0.01000000
   21.13833237   79.79979706    2.34999990    0.01000000
   21.14166641   81.93550110    2.34999990    0.01000000
   21.14500046   83.18019867    2.34999990    0.01000000
   21.14833260   83.51039886    2.34999990    0.01000000
   21.15138817   79.36689758    2.34999990    0.01000000
   21.15472221   86.79129791    2.34999990    0.01000000
   21.15777779   79.25820160    2.34999990    0.01000000
   21.16110992   82.40660095    2.34999990    0.01000000
   21.16444397   84.07379913    2.34999990    0.01000000
   21.16749954   80.99250031    2.34999990    0.01000000
   21.17083359   79.85050201    2.34999990    0.01000000
   21.17416573   78.59220123    2.34999990    0.01000000
   21.17916679   78.59220123    2.34999990    0.01000000
   21.18305397   80.20980072    2.34999990    0.01000000
   21.18638802   77.76540375    2.34999990    0.01000000
   21.18972206   81.67680359    2.34999990    0.01000000
   21.19277763   87.08300018    2.34999990    0.01000000
   21.19610977   82.71299744    2.34999990    0.01000000
   21.19944382   84.48100281    2.34999990    0.01000000
   21.20250130   78.66089630    2.34999990    0.01000000
   21.20583344   77.01080322    2.34999990    0.01000000
   21.20888901   84.16490173    2.34999990    0.01000000
   21.21222305   80.75399780    2.34999990    0.01000000
   21.21555710   84.57009888    2.34999990    0.01000000
   21.21861076   80.67819977    2.34999990    0.01000000
   21.22194481   91.85119629    2.34999990    0.01000000
   21.22527885   88.21970367    2.34999990    0.01000000
   21.23027802   88.21970367    2.34999990    0.01000000
   21.23444557   84.01360321    2.34999990    0.01000000
   21.23750114   78.44400024    2.34999990    0.01000000
   21.24083328   82.32479858    2.34999990    0.01000000
   21.24416733   79.37380219    2.34999990    0.01000000
   21.24722290   78.47429657    2.34999990    0.01000000
   21.25055504   82.75189972    2.34999990    0.01000000
   21.25388908   81.35630035    2.34999990    0.01000000
   21.25694466   79.70089722    2.34999990    0.01000000
   21.26027870   79.88449860    2.34999990    0.01000000
   21.26361084   77.42359924    2.34999990    0.01000000
   21.26666641   84.05280304    2.34999990    0.01000000
   21.27000046   82.54850006    2.34999990    0.01000000
   21.27305603   84.13590240    2.34999990    0.01000000
   21.27638817   80.63140106    2.34999990    0.01000000
   21.28138924   80.63140106    2.34999990    0.01000000
   21.28555489   82.54280090    2.34999990    0.01000000
   21.28888893   82.11440277    2.34999990    0.01000000
   21.29194450   78.01460266    2.34999990    0.01000000
   21.29527664   74.14360046    2.34999990    0.01000000
   21.29833221   82.38249969    2.34999990    0.01000000
   21.30166626   78.28790283    2.34999990    0.01000000
   21.30499840   81.70459747    2.34999990    0.01000000
   21.30805397   80.04350281    2.34999990    0.01000000
   21.31138802   83.68910217    2.34999990    0.01000000
   21.31472206   82.12259674    2.34999990    0.01000000
   21.31777954   85.04699707    2.34999990    0.01000000
   21.32111168   80.88420105    2.34999990    0.01000000
   21.32416725   83.67859650    2.34999990    0.01000000
   21.32750130   81.61630249    2.34999990    0.01000000
   21.33250046   81.61630249    2.34999990    0.01000000
   21.33666801   82.37729645    2.34999990    0.01000000
   21.34000015   79.35449982    2.34999990    0.01000000
   21.34305573   79.15200043    2.34999990    0.01000000
   21.34638977   79.48870087    2.34999990    0.01000000
   21.34972191   85.60530090    2.34999990    0.01000000
   21.35305595   84.16979980    2.34999990    0.01000000
   21.35611153   80.69640350    2.34999990    0.01000000
   21.35944557   77.95510101    2.34999990    0.01000000
   21.36250114   85.45410156    2.34999990    0.01000000
   21.36583328   82.05840302    2.34999990    0.01000000
   21.36916733   86.63059998    2.34999990    0.01000000
   21.37222290   81.32839966    2.34999990    0.01000000
   21.37555504   91.14830017    2.34999990    0.01000000
   21.37888908   88.99210358    2.34999990    0.01000000
   21.38388824   88.99210358    2.34999990    0.01000000
   21.38777733   81.16410065    2.34999990    0.01000000
   21.39111137   76.60130310    2.34999990    0.01000000
   21.39444351   81.43789673    2.34999990    0.01000000
   21.39749908   81.95670319    2.34999990    0.01000000
   21.40083313   83.00099945    2.34999990    0.01000000
   21.40416718   91.77770233    2.34999990    0.01000000
   21.40722275   81.00540161    2.34999990    0.01000000
   21.41055489   80.64520264    2.34999990    0.01000000
   21.41361046   88.94450378    2.34999990    0.01000000
   21.41694450   77.18540192    2.34999990    0.01000000
   21.42027664   83.07810211    2.34999990    0.01000000
   21.42333221   79.88379669    2.34999990    0.01000000
   21.42666626   85.77030182    2.34999990    0.01000000
   21.43000031   83.44490051    2.34999990    0.01000000
   21.43499947   83.44490051    2.34999990    0.01000000
   21.43916512   89.31809998    2.34999990    0.01000000
   21.44222069   88.00839996    2.34999990    0.01000000
   21.44555473   88.85359955    2.34999990    0.01000000
   21.44888878   82.96579742    2.34999990    0.01000000
   21.45194435   90.27239990    2.34999990    0.01000000
   21.45527840   90.39900208    2.34999990    0.01000000
   21.45861244   84.26180267    2.34999990    0.01000000
   21.46166801   83.22869873    2.34999990    0.01000000
   21.46500015   84.02870178    2.34999990    0.01000000
   21.46833420   79.30549622    2.34999990    0.01000000
   21.47138977   81.96730042    2.34999990    0.01000000
   21.47472191   77.02320099    2.34999990    0.01000000
   21.47777748   79.89949799    2.34999990    0.01000000
   21.48111153   77.12449646    2.34999990    0.01000000
   21.48611069   77.12449646    2.34999990    0.01000000
   21.49027824   80.80960083    2.34999990    0.01000000
   21.49361229   81.20149994    2.34999990    0.01000000
   21.49666786   78.63960266    2.34999990    0.01000000
   21.50000000   84.70780182    2.34999990    0.01000000
   21.50305557   84.74320221    2.34999990    0.01000000
   21.50638962   82.52940369    2.34999990    0.01000000
   21.50972176   84.65660095    2.34999990    0.01000000
   21.51277733   87.95690155    2.34999990    0.01000000
   21.51611137   89.46179962    2.34999990    0.01000000
   21.51944351   92.71710205    2.34999990    0.01000000
   21.52249908   97.99289703    2.34999990    0.01000000
   21.52583313  102.08699799    2.34999990    0.01000000
   21.52888870  107.48799896    2.34999990    0.01000000
   21.53222275   98.39440155    2.34999990    0.01000000
   21.53722191   98.39440155    2.34999990    0.01000000
   21.54138756  111.93499756    2.34999990    0.01000000
   21.54472160  124.65899658    2.34999990    0.01000000
   21.54777718  124.98799896    2.34999990    0.01000000
   21.55111122  154.24499512    2.34999990    0.01000000
   21.55444336  162.42999268    2.34999990    0.01000000
   21.55777740  179.10299683    2.34999990    0.01000000
   21.56083298  298.68798828    2.34999990    0.01000000
   21.56416512  344.98199463    2.34999990    0.01000000
   21.56722260  204.03199768    2.34999990    0.01000000
   21.57055664   68.00039673    2.34999990    0.01000000
   21.57389069   -1.00000000   -1.00000000   -1.00000000
   21.57694626   -1.00000000    2.34999990    0.01000000
   21.58027840   -1.00000000    2.34999990    0.01000000
   21.58361244   -1.00000000    2.34999990    0.01000000
   21.58833313   -1.00000000    2.34999990    0.01000000
   21.59250069   -1.00000000    2.34999990    0.01000000
   21.59583473   -1.00000000    2.34999990    0.01000000
   21.59916687   -1.00000000    2.34999990    0.01000000
   21.60222244   -1.00000000    2.34999990    0.01000000
   21.60555649   -1.00000000    2.34999990    0.01000000
   21.60888863   -1.00000000    2.34999990    0.01000000
   21.61194420   -1.00000000    2.34999990    0.01000000
   21.61527824   -1.00000000    2.34999990    0.01000000
   21.61833382   -1.00000000    2.34999990    0.01000000
   21.62166595   -1.00000000    2.34999990    0.01000000
   21.62500000   -1.00000000    2.34999990    0.01000000
   21.62805557   -1.00000000    2.34999990    0.01000000
   21.63138962   -1.00000000    2.34999990    0.01000000
   21.63472176   -1.00000000    2.34999990    0.01000000
   21.64361191   99.03330231    2.34999990    0.01000000
   21.64694405   94.52279663    2.34999990    0.01000000
   21.65027809   90.99210358    2.34999990    0.01000000
   21.67000008   97.18609619    2.34999990    0.01000000
   21.67305565   85.53610229    2.34999990    0.01000000
   21.67638779   90.02899933    2.34999990    0.01000000
   21.67972183   90.60739899    2.34999990    0.01000000
   21.68277740   81.95390320    2.34999990    0.01000000
   21.68610954   86.29589844    2.34999990    0.01000000
   21.69083214   86.29589844    2.34999990    0.01000000
   21.69499969   82.34040070    2.34999990    0.01000000
   21.69833183   89.26039886    2.34999990    0.01000000
   21.70166779   84.95159912    2.34999990    0.01000000
   21.70472336   87.39360046    2.34999990    0.01000000
   21.70805550   84.61049652    2.34999990    0.01000000
   21.71111107   90.75450134    2.34999990    0.01000000
   21.71444511   80.64109802    2.34999990    0.01000000
   21.71777916   83.42680359    2.34999990    0.01000000
   21.72083473   80.27230072    2.34999990    0.01000000
   21.72416687   90.85679626    2.34999990    0.01000000
   21.72750092   87.96130371    2.34999990    0.01000000
   21.73055649   86.16790009    2.34999990    0.01000000
   21.73388863   83.93240356    2.34999990    0.01000000
   21.73694420   88.47329712    2.34999990    0.01000000
   21.74222183   88.47329712    2.34999990    0.01000000
   21.74638939   89.68969727    2.34999990    0.01000000
   21.74944496   95.41639709    2.34999990    0.01000000
   21.75277710   89.84549713    2.34999990    0.01000000
   21.75583267   88.37860107    2.34999990    0.01000000
   21.75916672   90.72139740    2.34999990    0.01000000
   21.76250076   90.99079895    2.34999990    0.01000000
   21.76555634   90.29429626    2.34999990    0.01000000
   21.76888847   91.50620270    2.34999990    0.01000000
   21.77222252   87.07180023    2.34999990    0.01000000
   21.77527809   88.28769684    2.34999990    0.01000000
   21.77861023   95.08540344    2.34999990    0.01000000
   21.78166580   87.26450348    2.34999990    0.01000000
   21.78499985   87.21649933    2.34999990    0.01000000
   21.78833199   78.09780121    2.34999990    0.01000000
   21.79333305   78.09780121    2.34999990    0.01000000
   21.79749870   82.97750092    2.34999990    0.01000000
   21.80055428   85.70559692    2.34999990    0.01000000
   21.80388832   86.60910034    2.34999990    0.01000000
   21.80722237   84.99810028    2.34999990    0.01000000
   21.81027794   86.87699890    2.34999990    0.01000000
   21.81361008   89.29969788    2.34999990    0.01000000
   21.81694603   87.56690216    2.34999990    0.01000000
   21.82000160   84.39739990    2.34999990    0.01000000
   21.82333374   80.84339905    2.34999990    0.01000000
   21.82638931   84.72630310    2.34999990    0.01000000
   21.82972336   84.80439758    2.34999990    0.01000000
   21.83305550   83.04019928    2.34999990    0.01000000
   21.83611107   84.40010071    2.34999990    0.01000000
   21.83944511   83.60350037    2.34999990    0.01000000
   21.84444427   83.60350037    2.34999990    0.01000000
   21.84861183   86.88059998    2.34999990    0.01000000
   21.85194397   82.08039856    2.34999990    0.01000000
   21.85499954   83.94139862    2.34999990    0.01000000
   21.85833359   77.42800140    2.34999990    0.01000000
   21.86166763   91.15799713    2.34999990    0.01000000
   21.86472321   90.49040222    2.34999990    0.01000000
   21.86805534   83.23370361    2.34999990    0.01000000
   21.87111092   84.79070282    2.34999990    0.01000000
   21.87444496   88.75689697    2.34999990    0.01000000
   21.87777710   82.62940216    2.34999990    0.01000000
   21.88083267   85.06580353    2.34999990    0.01000000
   21.88416672   88.91049957    2.34999990    0.01000000
   21.88750076   91.74310303    2.34999990    0.01000000
   21.89055634   86.76010132    2.34999990    0.01000000
   21.89555550   86.76010132    2.34999990    0.01000000
   21.89972115   83.06719971    2.34999990    0.01000000
   21.90305519   92.79949951    2.34999990    0.01000000
   21.90638924   86.12259674    2.34999990    0.01000000
   21.90944481   88.76270294    2.34999990    0.01000000
   21.91277695   93.89299774    2.34999990    0.01000000
   21.91583252   93.92530060    2.34999990    0.01000000
   21.91916656   92.58959961    2.34999990    0.01000000
   21.92249870   96.13690186    2.34999990    0.01000000
   21.92555428   93.27909851    2.34999990    0.01000000
   21.92888832   92.56020355    2.34999990    0.01000000
   21.93222237   90.72339630    2.34999990    0.01000000
   21.93527603   91.83769989    2.34999990    0.01000000
   21.93861008   94.88459778    2.34999990    0.01000000
   21.94166565  113.77700043    2.34999990    0.01000000
   21.94694328  113.77700043    2.34999990    0.01000000
   21.95111275  172.58200073    2.34999990    0.01000000
   21.95416832  189.13999939    2.34999990    0.01000000
   21.95750046  218.53199768    2.34999990    0.01000000
   21.96055603  260.74899292    2.34999990    0.01000000
   21.96389008  164.08200073    2.34999990    0.01000000
   21.96722221   93.37590027    2.34999990    0.01000000
   21.97027779   -1.00000000    2.34999990    0.01000000
   21.97361183   -1.00000000    2.34999990    0.01000000
   21.97694588   -1.00000000    2.34999990    0.01000000
   21.98000145   -1.00000000    2.34999990    0.01000000
   21.98333359   -1.00000000    2.34999990    0.01000000
   21.98638916   -1.00000000    2.34999990    0.01000000
   21.98972321   -1.00000000    2.34999990    0.01000000
   21.99305534   -1.00000000    2.34999990    0.01000000
   22.00194359   -1.00000000    2.34999990    0.01000000
   22.00527763   -1.00000000    2.34999990    0.01000000
   22.00861168   -1.00000000    2.34999990    0.01000000
   22.01166725   -1.00000000    2.34999990    0.01000000
   22.01499939   -1.00000000    2.34999990    0.01000000
   22.01833344   -1.00000000    2.34999990    0.01000000
   22.02138901   -1.00000000    2.34999990    0.01000000
