    HOUR (UT)   FLARE FACTOR    SKY TESTER    SUN TESTER
   11.55611134   -1.00000000   -1.00000000   -1.00000000
   11.60472298   77.97010040    4.48999977    2.64000010
   11.61027813   78.25890350    4.46999979    2.64000010
   11.61361122   80.61470032    4.48999977    2.61999989
   11.61666679   82.28829956    4.53000021    2.64000010
   11.61999989   77.58869934    4.53000021    2.64000010
   11.62305546   75.52790070    4.51000023    2.64000010
   11.62638855   79.21579742    4.48999977    2.61999989
   11.62944412   78.83589935    4.46999979    2.64000010
   11.63277817   72.97380066    4.44999981    2.64000010
   11.63583279   74.18859863    4.44999981    2.61999989
   11.63805580   75.36769867    4.46999979    2.64000010
   11.63944435   74.71399689    4.46999979    2.64000010
   11.64277744   76.27189636    4.44999981    2.64000010
   11.64583302   79.18990326    4.44999981    2.61999989
   11.64916611   78.02570343    4.40999985    2.64000010
   11.65222168   76.84410095    4.40999985    2.64000010
   11.65555477   74.19809723    4.36999989    2.64000010
   11.65861034   75.52770233    4.32999992    2.64000010
   11.66194439   73.73960114    4.28999996    2.64000010
   11.66499996   76.37349701    4.23999977    2.64000010
   11.66833401   80.34429932    4.21999979    2.64000010
   11.67138958   79.12149811    4.19999981    2.64000010
   11.67472267   76.45310211    4.17999983    2.66000009
   11.67777824   75.21900177    4.17999983    2.64000010
   11.68111134   77.04850006    4.15999985    2.64000010
   11.68416691   77.66449738    4.11999989    2.66000009
   11.68750000   80.92729950    4.09999990    2.64000010
   11.68805599   77.00440216    4.09999990    2.66000009
   11.69083309   80.17669678    4.05999994    2.66000009
   11.69416714   79.73049927    4.03999996    2.67000008
   11.69750023   80.07810211    4.03999996    2.66000009
   11.70083332   76.99819946    4.03999996    2.66000009
   11.70388889   78.84819794    4.03999996    2.67000008
   11.70722198   79.50150299    4.05999994    2.66000009
   11.71055508   77.54789734    4.07999992    2.66000009
   11.71361065   82.06849670    4.03999996    2.66000009
   11.71666622   80.61869812    4.01999998    2.67000008
   11.71999931   76.22550201    4.05999994    2.66000009
   11.72305489   80.20850372    4.07999992    2.64000010
   11.72638798   80.74520111    4.05999994    2.66000009
   11.72944355   75.49330139    4.05999994    2.66000009
   11.73277760   77.55370331    4.05999994    2.67000008
   11.73583317   76.65450287    4.09999990    2.66000009
   11.73805618   80.18550110    4.11999989    2.66000009
   11.73944473   77.25029755    4.11999989    2.66000009
   11.74277782   78.97470093    4.07999992    2.66000009
   11.74583340   80.35939789    4.03999996    2.66000009
   11.74916649   80.66529846    4.05999994    2.66000009
   11.75222206   83.57790375    4.03999996    2.66000009
   11.75555515   82.88030243    4.05999994    2.66000009
   11.75861073   80.32949829    4.03999996    2.67000008
   11.76194477   78.67120361    4.05999994    2.66000009
   11.76500034   82.96890259    4.09999990    2.66000009
   11.76833344   94.33940125    4.03999996    2.67000008
   11.77138901   86.92500305    4.01999998    2.67000008
   11.77472210   87.71420288    4.01999998    2.67000008
   11.77777767   86.25620270    4.03999996    2.67000008
   11.78111076   85.84980011    4.03999996    2.67000008
   11.78416729   87.62899780    4.00000000    2.67000008
   11.78750038   87.60900116    3.97000003    2.67000008
   11.78805637   90.16899872    3.97000003    2.67000008
   11.79083347   84.67160034    3.95000005    2.67000008
   11.79416752   93.89630127    3.93000007    2.67000008
   11.79722309   86.71219635    3.95000005    2.66000009
   11.80055618   89.34600067    3.95000005    2.67000008
   11.80361176   84.06999969    3.97000003    2.67000008
   11.80694485   87.18750000    3.97000003    2.67000008
   11.81000042   93.93329620    3.99000001    2.67000008
   11.81333351   92.83010101    3.97000003    2.69000006
   11.81638908   89.37470245    3.97000003    2.67000008
   11.81972218   81.74700165    3.97000003    2.67000008
   11.82277775   92.34600067    4.00000000    2.67000008
   11.82611084   87.31510162    4.07999992    2.67000008
   11.82916641   81.04419708    4.11999989    2.67000008
   11.83249950   87.87390137    4.11999989    2.67000008
   11.83555508   88.60870361    4.11999989    2.67000008
   11.83805561   91.53279877    4.11999989    2.67000008
   11.83916664   90.84980011    4.11999989    2.69000006
   11.84249973   84.77989960    4.11999989    2.67000008
   11.84555531   96.32160187    4.11999989    2.67000008
   11.84888840   93.08930206    4.13999987    2.67000008
   11.85194492   85.92220306    4.11999989    2.67000008
   11.85527802   91.97019958    4.11999989    2.67000008
   11.85833359   85.05120087    4.11999989    2.67000008
   11.86166668   87.06089783    4.07999992    2.67000008
   11.86472225   87.77860260    4.07999992    2.69000006
   11.86805534   95.10299683    4.07999992    2.67000008
   11.87111092   86.98979950    4.05999994    2.69000006
   11.87444496   83.97530365    4.09999990    2.67000008
   11.87750053   88.61170197    4.13999987    2.67000008
   11.88083363   93.28820038    4.15999985    2.67000008
   11.88388920   82.21250153    4.19999981    2.67000008
   11.88722229   86.44830322    4.19999981    2.69000006
   11.88805580  101.73500061    4.19999981    2.69000006
   11.89055538   92.20230103    4.21999979    2.69000006
   11.89388847   84.86190033    4.17999983    2.69000006
   11.89694405   91.74490356    4.19999981    2.69000006
   11.90027714   94.35720062    4.17999983    2.67000008
   11.90333271   95.18949890    4.15999985    2.69000006
   11.90666676   98.78520203    4.15999985    2.69000006
   11.90972137   93.30149841    4.17999983    2.69000006
   11.91305542   87.70420074    4.17999983    2.69000006
   11.91611099  101.01100159    4.21999979    2.69000006
   11.91944504   88.70529938    4.26000023    2.69000006
   11.92250061   94.65779877    4.26999998    2.69000006
   11.92583370   89.43489838    4.30999994    2.67000008
   11.92888927  102.65399933    4.28999996    2.69000006
   11.93222237  105.77200317    4.28999996    2.67000008
   11.93527794   91.00559998    4.26999998    2.69000006
   11.93805599   93.08719635    4.26999998    2.69000006
   11.93888855   98.74780273    4.23999977    2.67000008
   11.94222260   92.90209961    4.21999979    2.69000006
   11.94527817   95.52950287    4.21999979    2.69000006
   11.94861126   93.00610352    4.26999998    2.69000006
   11.95166683   94.39610291    4.28999996    2.67000008
   11.95499992   85.31939697    4.34999990    2.69000006
   11.95805550   80.07569885    4.38999987    2.69000006
   11.96138859   85.40699768    4.38999987    2.69000006
   11.96444416   88.84169769    4.38999987    2.69000006
   11.96777725   93.49089813    4.42999983    2.71000004
   11.97083282   84.81269836    4.44999981    2.69000006
   11.97416592   87.34420013    4.46999979    2.69000006
   11.97722149   86.68530273    4.42999983    2.69000006
   11.98055553   93.45390320    4.42999983    2.71000004
   11.98361111   93.50900269    4.44999981    2.69000006
   11.98694515   86.92870331    4.42999983    2.69000006
   11.98805618   95.62809753    4.42999983    2.71000004
   11.99055576   91.66690063    4.42999983    2.71000004
   11.99361134   93.79370117    4.36999989    2.69000006
   11.99694443   94.98200226    4.36999989    2.69000006
   12.00000000   91.99340057    4.38999987    2.71000004
   12.00333309   92.99710083    4.32999992    2.71000004
   12.00638866   83.38929749    4.30999994    2.69000006
   12.00972176   94.47899628    4.28999996    2.69000006
   12.01277733   87.61979675    4.30999994    2.71000004
   12.01611137   88.49430084    4.28999996    2.69000006
   12.01916599   83.75849915    4.28999996    2.71000004
   12.02250004   89.50250244    4.32999992    2.69000006
   12.02638817   91.65470123    4.40999985    2.69000006
   12.03055573   83.38379669    4.42999983    2.69000006
   12.03388977   83.85060120    4.38999987    2.69000006
   12.03694534   78.62740326    4.38999987    2.69000006
   12.04055595   77.43060303    4.44999981    2.69000006
   12.04361153   96.08509827    4.48999977    2.69000006
   12.04777813   88.95790100    4.53000021    2.69000006
   12.05083370   89.42829895    4.53000021    2.71000004
   12.05527782   83.01059723    4.48999977    2.69000006
   12.05916691   96.57109833    4.44999981    2.71000004
   12.06277752   94.07250214    4.42999983    2.71000004
   12.06638908   85.95850372    4.38999987    2.69000006
   12.06999969   91.63970184    4.40999985    2.71000004
   12.07305527   90.41560364    4.40999985    2.69000006
   12.07750034   83.24060059    4.40999985    2.71000004
   12.08083344   99.10769653    4.40999985    2.71000004
   12.08388901   91.92289734    4.42999983    2.71000004
   12.08722210   97.85140228    4.46999979    2.71000004
   12.08805561   81.72239685    4.42999983    2.71000004
   12.09083271   84.22080231    4.40999985    2.71000004
   12.09388828   80.73049927    4.42999983    2.71000004
   12.09722233   89.95999908    4.46999979    2.71000004
   12.10027790   88.83519745    4.44999981    2.71000004
   12.10361195   89.92739868    4.48999977    2.71000004
   12.10694504   74.83830261    4.44999981    2.71000004
   12.11027813   90.01909637    4.44999981    2.69000006
   12.11361122   85.05439758    4.46999979    2.71000004
   12.11694431   81.04380035    4.48999977    2.73000002
   12.11999989   87.46849823    4.46999979    2.73000002
   12.12333393   82.90809631    4.44999981    2.71000004
   12.12638855   91.95500183    4.44999981    2.71000004
   12.13000011   87.13800049    4.51000023    2.71000004
   12.13305569   97.85240173    4.48999977    2.71000004
   12.13638878   80.80220032    4.48999977    2.71000004
   12.13833332   88.68019867    4.51000023    2.71000004
   12.14000034   88.91349792    4.51000023    2.71000004
   12.14333344   92.38330078    4.48999977    2.71000004
   12.14638901   89.11199951    4.51000023    2.71000004
   12.14972210   97.99189758    4.48999977    2.71000004
   12.15305519   94.25299835    4.48999977    2.71000004
   12.15611076   88.89209747    4.46999979    2.71000004
   12.16027737   94.49430084    4.46999979    2.71000004
   12.16333294   89.51129913    4.46999979    2.71000004
   12.16666698   87.35749817    4.46999979    2.71000004
   12.17000008   91.88860321    4.44999981    2.71000004
   12.17305565   87.37220001    4.42999983    2.73000002
   12.17638874   88.42749786    4.42999983    2.73000002
   12.17944431   89.90859985    4.36999989    2.71000004
   12.18277836   86.55149841    4.32999992    2.71000004
   12.18583298   87.07299805    4.30999994    2.73000002
   12.18805599   88.75589752    4.28999996    2.73000002
   12.18972206   87.07369995    4.30999994    2.71000004
   12.19277763   90.66649628    4.26999998    2.75000000
   12.19583321   93.23660278    4.26999998    2.73000002
   12.19916630   93.01959991    4.32999992    2.73000002
   12.20222187   82.51750183    4.34999990    2.73000002
   12.20555496   84.74099731    4.48999977    2.73000002
   12.20861053   93.27359772    4.53000021    2.73000002
   12.21194458   82.25879669    4.57999992    2.71000004
   12.21500015   92.81590271    4.57999992    2.71000004
   12.21833324   83.84149933    4.55999994    2.73000002
   12.22138882   86.63629913    4.53000021    2.73000002
   12.22472191   83.98619843    4.55999994    2.73000002
   12.22777748   91.54479980    4.53999996    2.73000002
   12.23111057   82.89739990    4.61999989    2.73000002
   12.23416710   82.51760101    4.57999992    2.71000004
   12.23750019   77.70729828    4.51000023    2.71000004
   12.23805618   84.02709961    4.48999977    2.73000002
   12.24111176   82.83950043    4.36999989    2.73000002
   12.24416733   88.70749664    4.34999990    2.73000002
   12.24750042   88.35199738    4.32999992    2.73000002
   12.25055599   77.94660187    4.38999987    2.71000004
   12.25388908   84.99130249    4.44999981    2.73000002
   12.25694466   82.33300018    4.44999981    2.71000004
   12.26027775   89.15139771    4.42999983    2.73000002
   12.26333332   85.15750122    4.42999983    2.75000000
   12.26666641   94.49530029    4.36999989    2.73000002
   12.26972198   87.93640137    4.36999989    2.73000002
   12.27305508   90.41210175    4.36999989    2.73000002
   12.27611065   89.81390381    4.38999987    2.73000002
   12.27944374   80.82969666    4.42999983    2.73000002
   12.28249931   86.62570190    4.40999985    2.73000002
   12.28583336   89.61930084    4.40999985    2.73000002
   12.28805637   90.56390381    4.38999987    2.73000002
   12.28944492   82.39890289    4.36999989    2.75000000
   12.29250050   87.64589691    4.36999989    2.73000002
   12.29583359   93.15419769    4.42999983    2.73000002
   12.29888916   82.89499664    4.44999981    2.73000002
   12.30222225   86.34940338    4.44999981    2.73000002
   12.30527782   83.52870178    4.42999983    2.75000000
   12.30861092   94.85919952    4.44999981    2.73000002
   12.31166649   88.31020355    4.38999987    2.75000000
   12.31500053   87.91819763    4.38999987    2.75000000
   12.31805515   82.86679840    4.32999992    2.73000002
   12.32138920   89.12560272    4.26000023    2.75000000
   12.32444477   86.42500305    4.17999983    2.75000000
   12.32777786   81.76480103    4.15999985    2.75000000
   12.33083344   87.95939636    4.09999990    2.76999998
   12.33416653   88.03099823    4.05999994    2.75000000
   12.33722210   87.89209747    4.11999989    2.75000000
   12.33805561   83.23179626    4.15999985    2.75000000
   12.34083271   78.88169861    4.09999990    2.75000000
   12.34388828   85.52709961    4.07999992    2.75000000
   12.34722233   91.15049744    4.07999992    2.76999998
   12.35027790   83.15699768    4.03999996    2.76999998
   12.35361195   81.22280121    4.05999994    2.75000000
   12.35666752   86.73300171    4.05999994    2.75000000
   12.36000061   80.51989746    4.13999987    2.73000002
   12.36305618   88.22440338    4.13999987    2.75000000
   12.36638927   93.51249695    4.15999985    2.75000000
   12.36944485   87.60369873    4.17999983    2.75000000
   12.37277794   79.74819946    4.21999979    2.75000000
   12.37583351   84.75720215    4.21999979    2.75000000
   12.37916660   90.39160156    4.23999977    2.75000000
   12.38222218   84.43479919    4.26999998    2.75000000
   12.38555527   84.57019806    4.28999996    2.75000000
   12.38805580   79.35679626    4.28999996    2.75000000
   12.38916683   82.87879944    4.28999996    2.75000000
   12.39222240   84.60659790    4.30999994    2.75000000
   12.39555550   90.66159821    4.34999990    2.75000000
   12.39861107   80.40309906    4.36999989    2.73000002
   12.40194416   82.27700043    4.36999989    2.76999998
   12.40499973   86.31230164    4.26999998    2.75000000
   12.40833282   81.58969879    4.30999994    2.76999998
   12.41138840   89.31520081    4.34999990    2.75000000
   12.41472149   80.01940155    4.38999987    2.75000000
   12.41777802   86.75499725    4.38999987    2.75000000
   12.42111111   85.82610321    4.46999979    2.75000000
   12.42416668   86.93740082    4.46999979    2.75000000
   12.42750072   79.79039764    4.38999987    2.75000000
   12.43055630   92.73500061    4.36999989    2.75000000
   12.43388939   79.78679657    4.36999989    2.76999998
   12.43694496   80.58290100    4.38999987    2.75000000
   12.43805599   75.99890137    4.36999989    2.75000000
   12.44055557   79.73249817    4.36999989    2.78999996
   12.44361115   83.10230255    4.34999990    2.75000000
   12.44694424   92.14869690    4.40999985    2.75000000
   12.44999981   82.14080048    4.40999985    2.76999998
   12.45333290   87.69419861    4.42999983    2.75000000
   12.45638847   82.31169891    4.48999977    2.75000000
   12.45972157   92.46040344    4.53000021    2.75000000
   12.46277714   76.94319916    4.59999990    2.75000000
   12.46611118   77.12229919    4.65999985    2.76999998
   12.46916580   83.98670197    4.69999981    2.75000000
   12.47249985   83.25119781    4.71999979    2.76999998
   12.47555542   81.50119781    4.69999981    2.76999998
   12.47888851   77.06300354    4.63999987    2.75000000
   12.48194408   83.30239868    4.63999987    2.75000000
   12.48527813   78.71060181    4.67999983    2.75000000
   12.48805618   76.53549957    4.71999979    2.75000000
   12.48888874   81.15509796    4.71999979    2.75000000
   12.49194431   79.60949707    4.76000023    2.75000000
   12.49527836   79.24649811    4.80000019    2.75000000
   12.49833393   75.05819702    4.73999977    2.75000000
   12.50166702   73.13110352    4.67999983    2.75000000
   12.50472260   79.53620148    4.53999996    2.76999998
   12.50805569   76.32039642    4.53000021    2.78999996
   12.51111126   77.83209991    4.51000023    2.76999998
   12.51444435   79.10590363    4.44999981    2.75000000
   12.51749992   78.14440155    4.38999987    2.75000000
   12.52083302   76.23979950    4.34999990    2.76999998
   12.52388859   77.29119873    4.28999996    2.76999998
   12.52722168   81.34760284    4.26999998    2.76999998
   12.53027725   78.96199799    4.26999998    2.76999998
   12.53361130   77.01049805    4.26000023    2.76999998
   12.53666687   78.80490112    4.28999996    2.75000000
   12.53805637   75.89559937    4.30999994    2.75000000
   12.54027843   74.79049683    4.26000023    2.78999996
   12.54333401   79.90000153    4.26999998    2.76999998
   12.54666710   80.01029968    4.28999996    2.78999996
   12.54972267   77.42359924    4.28999996    2.78999996
   12.55305576   80.21369934    4.32999992    2.76999998
   12.55611134   81.37519836    4.32999992    2.76999998
   12.55944443   77.40309906    4.36999989    2.76999998
   12.56250000   75.45210266    4.38999987    2.78999996
   12.56583309   78.90110016    4.36999989    2.76999998
   12.56888866   79.32659912    4.40999985    2.76999998
   12.57222176   78.60289764    4.40999985    2.78999996
   12.57527733   75.17009735    4.44999981    2.78999996
   12.57861137   81.34490204    4.44999981    2.78999996
   12.58166695   81.00409698    4.46999979    2.76999998
   12.58500004   81.95890045    4.46999979    2.76999998
   12.58805561   76.13439941    4.42999983    2.76999998
   12.58861065   81.92819977    4.42999983    2.76999998
   12.59166622   77.18260193    4.34999990    2.76999998
   12.59499931   75.85220337    4.28999996    2.78999996
   12.59805489   84.65360260    4.21999979    2.76999998
   12.60138893   80.26360321    4.26000023    2.76999998
   12.60444450   83.96040344    4.32999992    2.76999998
   12.62416649   79.63349915    4.40999985    2.76999998
   12.62750053   77.96060181    4.38999987    2.78999996
   12.63055611   78.92960358    4.40999985    2.76999998
   12.63388920   79.61049652    4.46999979    2.78999996
   12.63694477   78.48139954    4.48999977    2.78999996
   12.63833332   78.61340332    4.44999981    2.76999998
   12.64027786   81.20359802    4.40999985    2.78999996
   12.64361095   80.53089905    4.42999983    2.78999996
   12.64666653   86.86029816    4.40999985    2.78999996
   12.64999962   79.40840149    4.44999981    2.78999996
   12.65305519   80.34709930    4.44999981    2.78999996
   12.65638828   76.83930206    4.44999981    2.78999996
   12.65944386   76.26190186    4.46999979    2.76999998
   12.66277695   82.12359619    4.42999983    2.78999996
   12.66583252   80.04799652    4.38999987    2.78999996
   12.66916656   74.08419800    4.40999985    2.78999996
   12.67222214   75.75250244    4.34999990    2.78999996
   12.67555618   75.16840363    4.38999987    2.78999996
   12.67861176   77.53649902    4.38999987    2.78999996
   12.68194485   77.56069946    4.42999983    2.78999996
   12.68500042   80.11219788    4.44999981    2.76999998
   12.68833351   78.78559875    4.44999981    2.76999998
   12.68861103   80.52610016    4.44999981    2.76999998
   12.69194412   78.07810211    4.42999983    2.78999996
   12.69499969   80.38880157    4.48999977    2.78999996
   12.69833374   78.14299774    4.51000023    2.76999998
   12.70138836   81.66190338    4.55999994    2.76999998
   12.70472240   79.71060181    4.57999992    2.78999996
   12.70777798   74.84449768    4.57999992    2.78999996
   12.71111107   79.55609894    4.61999989    2.76999998
   12.71416664   76.55950165    4.61999989    2.80999994
   12.71749973   76.19830322    4.61999989    2.78999996
   12.72055531   80.30999756    4.59999990    2.78999996
   12.72388840   77.16110229    4.55999994    2.78999996
   12.72694397   79.35060120    4.53000021    2.78999996
   12.73027706   74.05069733    4.53999996    2.78999996
   12.73333359   82.76490021    4.53000021    2.78999996
   12.73666668   78.11180115    4.53999996    2.78999996
   12.73833370   83.48989868    4.57999992    2.78999996
   12.74000072   79.20240021    4.57999992    2.78999996
   12.74333382   75.37779999    4.57999992    2.80999994
   12.74638939   78.97769928    4.61999989    2.78999996
   12.74972248   75.09259796    4.59999990    2.78999996
   12.75277805   76.92430115    4.65999985    2.78999996
   12.75611115   78.11309814    4.65999985    2.80999994
   12.75916672   81.59899902    4.61999989    2.78999996
   12.76249981   76.92530060    4.61999989    2.78999996
   12.76555538   80.42810059    4.53999996    2.76999998
   12.76888847   78.01689911    4.55999994    2.78999996
   12.77194405   79.84660339    4.53000021    2.78999996
   12.77527714   76.82769775    4.53000021    2.78999996
   12.77833271   77.39469910    4.57999992    2.78999996
   12.78166676   75.49140167    4.59999990    2.78999996
   12.78472233   80.37110138    4.61999989    2.80999994
   12.78805637   82.83750153    4.61999989    2.78999996
   12.78861141   78.99269867    4.61999989    2.78999996
   12.79166698   78.76589966    4.55999994    2.78999996
   12.79500008   78.72689819    4.59999990    2.78999996
   12.79805565   75.23190308    4.55999994    2.78999996
   12.80138874   75.33260345    4.63999987    2.78999996
   12.80444431   75.36509705    4.69999981    2.80999994
   12.80777836   77.41390228    4.71999979    2.78999996
   12.81083393   75.71499634    4.67999983    2.80999994
   12.81416702   75.58740234    4.73999977    2.78999996
   12.81722260   74.73570251    4.73999977    2.78999996
   12.82055569   76.07929993    4.78000021    2.80999994
   12.82361126   71.01029968    4.73999977    2.78999996
   12.82694435   72.07299805    4.76000023    2.78999996
   12.82999992   72.82060242    4.73999977    2.78999996
   12.83333302   77.81590271    4.71999979    2.80999994
   12.83638859   79.76480103    4.69999981    2.78999996
   12.83861065   75.00830078    4.71999979    2.80999994
   12.84000015   77.75050354    4.69999981    2.80999994
   12.84333324   80.26239777    4.78000021    2.78999996
   12.84638882   79.20539856    4.80000019    2.80999994
   12.84972191   77.79579926    4.69999981    2.80999994
   12.85277843   81.19180298    4.63999987    2.78999996
   12.85611153   80.19550323    4.59999990    2.78999996
   12.85916710   77.63059998    4.59999990    2.78999996
   12.86250019   83.04229736    4.59999990    2.78999996
   12.86555576   76.75420380    4.59999990    2.80999994
   12.86888885   76.91040039    4.63999987    2.78999996
   12.87194443   77.75789642    4.57999992    2.80999994
   12.87527752   76.99289703    4.53999996    2.78999996
   12.87833309   76.03820038    4.57999992    2.80999994
   12.88166714   77.15779877    4.53000021    2.80999994
   12.88472176   76.12159729    4.51000023    2.78999996
   12.88805580   79.71510315    4.46999979    2.80999994
   12.88861084   77.02159882    4.53000021    2.80999994
   12.89138889   77.24749756    4.44999981    2.80999994
   12.89472198   73.67070007    4.51000023    2.80999994
   12.89777756   75.44869995    4.46999979    2.80999994
   12.90111065   76.32309723    4.46999979    2.80999994
   12.90416622   81.30310059    4.51000023    2.78999996
   12.90749931   76.40049744    4.44999981    2.80999994
   12.91055489   73.35050201    4.36999989    2.80999994
   12.91388893   75.03690338    4.40999985    2.78999996
   12.91694450   77.70359802    4.40999985    2.80999994
   12.92027855   72.89160156    4.42999983    2.80999994
   12.92333412   77.26750183    4.40999985    2.78999996
   12.92666721   79.22209930    4.38999987    2.82999992
   12.92972279   77.37290192    4.38999987    2.80999994
   12.93305588   72.98650360    4.36999989    2.80999994
   12.93611145   72.53170013    4.32999992    2.78999996
   12.93861103   73.39250183    4.36999989    2.80999994
   12.93972206   75.06749725    4.38999987    2.80999994
   12.94305515   72.23100281    4.44999981    2.80999994
   12.94611073   74.68009949    4.40999985    2.80999994
   12.94944477   77.74530029    4.40999985    2.80999994
   12.95249939   77.26249695    4.38999987    2.80999994
   12.95583344   75.22589874    4.30999994    2.80999994
   12.95888901   78.06300354    4.32999992    2.80999994
   12.96222210   74.54949951    4.32999992    2.80999994
   12.96527767   76.36740112    4.32999992    2.82999992
   12.96861076   76.74299622    4.32999992    2.82999992
   12.97166634   78.40529633    4.30999994    2.80999994
   12.97499943   79.59449768    4.26000023    2.80999994
   12.97805500   77.24620056    4.36999989    2.80999994
   12.98138809   76.03700256    4.32999992    2.82999992
   12.98444462   77.51049805    4.42999983    2.80999994
   12.98777771   77.35489655    4.46999979    2.80999994
   12.98861122   76.10659790    4.46999979    2.80999994
   12.99111176   72.44219971    4.51000023    2.78999996
   12.99444485   77.15399933    4.55999994    2.82999992
   12.99750042   76.95739746    4.59999990    2.80999994
   13.00083351   76.05889893    4.55999994    2.80999994
   13.00388908   74.12500000    4.53000021    2.80999994
   13.00722218   72.72889709    4.40999985    2.82999992
   13.01027775   78.18650055    4.36999989    2.82999992
   13.01361084   74.52149963    4.38999987    2.80999994
   13.01666641   74.86810303    4.44999981    2.80999994
   13.01999950   78.82769775    4.42999983    2.82999992
   13.02305508   73.09919739    4.44999981    2.80999994
   13.02638817   78.34049988    4.38999987    2.80999994
   13.02944374   74.25569916    4.40999985    2.80999994
   13.03277779   81.39040375    4.32999992    2.80999994
   13.03583336   75.22560120    4.26000023    2.82999992
   13.03861141   74.85639954    4.19999981    2.82999992
   13.03944492   77.41320038    4.19999981    2.82999992
   13.04277802   74.60949707    4.13999987    2.82999992
   13.04583359   73.04280090    4.09999990    2.82999992
   13.04916668   78.49310303    4.15999985    2.80999994
   13.05222225   74.84249878    4.15999985    2.82999992
   13.05555534   75.08730316    4.19999981    2.82999992
   13.05861092   73.85079956    4.23999977    2.82999992
   13.06194496   73.46199799    4.23999977    2.82999992
   13.06500053   75.75399780    4.28999996    2.82999992
   13.06833363   76.24310303    4.28999996    2.82999992
   13.07138920   74.31279755    4.30999994    2.82999992
   13.07472229   78.48470306    4.30999994    2.82999992
   13.07777786   75.07900238    4.38999987    2.82999992
   13.08111095   77.70400238    4.36999989    2.82999992
   13.08416653   81.89360046    4.36999989    2.82999992
   13.08749962   82.84609985    4.38999987    2.82999992
   13.08861065   74.59420013    4.40999985    2.80999994
   13.09083271   81.10150146    4.42999983    2.82999992
   13.09416676   76.10510254    4.44999981    2.82999992
   13.09722233   75.99659729    4.46999979    2.80999994
   13.10055637   77.03279877    4.46999979    2.80999994
   13.10361195   79.90460205    4.42999983    2.82999992
   13.10694504   73.77600098    4.40999985    2.84999990
   13.11000061   74.04779816    4.44999981    2.82999992
   13.11333370   76.78089905    4.44999981    2.82999992
   13.11638927   72.01920319    4.40999985    2.80999994
   13.11972237   75.33390045    4.42999983    2.82999992
   13.12277794   73.55650330    4.42999983    2.80999994
   13.12611103   75.04049683    4.42999983    2.82999992
   13.12916660   78.91359711    4.38999987    2.82999992
   13.13249969   75.51490021    4.40999985    2.82999992
   13.13555527   78.02269745    4.34999990    2.82999992
   13.13861084   80.40229797    4.30999994    2.82999992
   13.13916683   78.45590210    4.30999994    2.82999992
   13.14249992   82.90170288    4.36999989    2.80999994
   13.14555550   80.66790009    4.36999989    2.82999992
   13.14888859   79.05970001    4.32999992    2.84999990
   13.15194416   80.63760376    4.28999996    2.82999992
   13.15527725   73.54830170    4.30999994    2.80999994
   13.15833282   77.27519989    4.32999992    2.82999992
   13.27444458   -1.00000000   -1.00000000   -1.00000000
   13.37166691   -1.00000000   -1.00000000   -1.00000000
   13.47444439   -1.00000000   -1.00000000   -1.00000000
   13.53249931   64.37799835    4.42999983    2.86999989
   13.53583336   95.04250336    4.42999983    2.86999989
   13.53888893   93.18569946    4.40999985    2.86999989
   13.54222298   91.08090210    4.38999987    2.84999990
   13.54527855   95.69999695    4.30999994    2.86999989
   13.54861164  100.33599854    4.26000023    2.84999990
   13.55166721   90.29759979    4.26999998    2.86999989
   13.55500031   85.56479645    4.19999981    2.86999989
   13.56111145   85.56479645    4.13999987    2.86999989
   13.56500053   92.37079620    4.07999992    2.86999989
   13.56833363   90.43990326    4.13999987    2.86999989
   13.57138920   87.61409760    4.13999987    2.86999989
   13.57472229   79.68099976    4.09999990    2.86999989
   13.57777786   82.74829865    4.21999979    2.86999989
   13.58111095   87.46420288    4.17999983    2.86999989
   13.58249950   88.02480316    4.21999979    2.86999989
   13.58444405   89.14499664    4.21999979    2.86999989
   13.58777714   83.48699951    4.15999985    2.86999989
   13.59083271   79.38279724    4.19999981    2.84999990
   13.59444427   93.04470062    4.30999994    2.86999989
   13.59749985   91.66709900    4.28999996    2.86999989
   13.60083389  100.40499878    4.42999983    2.86999989
   13.60388947   92.06120300    4.46999979    2.86999989
   13.60722256   96.64620209    4.65999985    2.84999990
   13.61222267   96.64620209    4.63999987    2.84999990
   13.61638927   91.61270142    4.67999983    2.86999989
   13.61944485   92.97149658    4.63999987    2.84999990
   13.62277794   93.11910248    4.71999979    2.86999989
   13.62583351   97.32070160    4.63999987    2.86999989
   13.62916660   98.69730377    4.67999983    2.86999989
   13.63222218   92.46430206    4.63999987    2.86999989
   13.63277817   86.01920319    4.63999987    2.86999989
   13.63583279   94.73799896    4.57999992    2.86999989
   13.63916683   96.55960083    4.53999996    2.86999989
   13.64222240   94.91780090    4.55999994    2.86999989
   13.64555550   95.75740051    4.48999977    2.86999989
   13.64861107   87.41280365    4.55999994    2.86999989
   13.65194416   89.98570251    4.42999983    2.86999989
   13.65499973  101.50000000    4.34999990    2.86999989
   13.65833282   85.70099640    4.42999983    2.86999989
   13.66333294   85.70099640    4.42999983    2.86999989
   13.66750050   99.00900269    4.48999977    2.86999989
   13.67055607   85.43890381    4.32999992    2.86999989
   13.67388916   93.31199646    4.26999998    2.86999989
   13.67694473  103.46199799    4.32999992    2.86999989
   13.68027782   89.54450226    4.32999992    2.84999990
   13.68277836   99.35590363    4.40999985    2.86999989
   13.68361092  100.85299683    4.38999987    2.86999989
   13.68694496  101.18099976    4.30999994    2.86999989
   13.69000053   93.17549896    4.38999987    2.86999989
   13.69333363  105.19100189    4.34999990    2.86999989
   13.69638920   94.52690125    4.34999990    2.86999989
   13.69972229  100.03299713    4.40999985    2.86999989
   13.70277786  100.48000336    4.44999981    2.86999989
   13.70611095   98.48249817    4.46999979    2.89000010
   13.70916653   90.74510193    4.42999983    2.86999989
   13.71444416   90.74510193    4.53999996    2.86999989
   13.71861076   93.51370239    4.51000023    2.86999989
   13.72194386   88.05750275    4.48999977    2.84999990
   13.72499943   91.62449646    4.40999985    2.84999990
   13.72833252   93.96530151    4.44999981    2.89000010
   13.73138809   99.53639984    4.42999983    2.86999989
   13.73277760   89.56300354    4.53000021    2.89000010
   13.73472214   88.73370361    4.40999985    2.86999989
   13.73805618  106.44699860    4.40999985    2.86999989
   13.74111176   97.32530212    4.34999990    2.86999989
   13.74444485  100.05300140    4.34999990    2.86999989
   13.74750042   87.82109833    4.44999981    2.86999989
   13.75083351  104.13899994    4.30999994    2.86999989
   13.75388908  104.15499878    4.36999989    2.86999989
   13.75722218  104.22100067    4.34999990    2.86999989
   13.76027775  104.16000366    4.38999987    2.86999989
   13.76583290  104.16000366    4.42999983    2.86999989
   13.76972198   92.73020172    4.51000023    2.86999989
   13.77305508   87.25930023    4.59999990    2.86999989
   13.77611065   87.87619781    4.61999989    2.86999989
   13.77944374   94.57949829    4.61999989    2.86999989
   13.78249931   98.82369995    4.65999985    2.86999989
   13.78305531   94.88349915    4.65999985    2.86999989
   13.78638935   84.90180206    4.61999989    2.86999989
   13.78944492   93.30030060    4.63999987    2.86999989
   13.79277802   87.89189911    4.80999994    2.89000010
   13.79583359   94.93699646    4.71999979    2.86999989
   13.79916668   88.79470062    4.78000021    2.89000010
   13.80222225   87.26519775    4.80000019    2.89000010
   13.80555534  104.66400146    4.69999981    2.86999989
   13.80861092   90.30020142    4.76000023    2.86999989
   13.81194496   96.47979736    4.69999981    2.89000010
   13.81694412   96.47979736    4.69999981    2.91000009
   13.82111073  105.83699799    4.65999985    2.89000010
   13.82416630  107.72000122    4.63999987    2.86999989
   13.82750034   92.41310120    4.67999983    2.86999989
   13.83055592  103.53399658    4.63999987    2.89000010
   13.83305550  106.67700195    4.65999985    2.89000010
   13.83416653   97.42279816    4.67999983    2.89000010
   13.83722210   97.68789673    4.61999989    2.86999989
   13.84055519   91.16899872    4.65999985    2.86999989
   13.84361076   94.50460052    4.65999985    2.89000010
   13.84694386   86.79139709    4.65999985    2.86999989
   13.85000038   96.54350281    4.76000023    2.86999989
   13.85333347  105.45400238    4.80000019    2.86999989
   13.85638905  110.76000214    4.80999994    2.86999989
   13.85972214   89.20259857    4.86999989    2.86999989
   13.86277771   97.22509766    4.90999985    2.86999989
   13.86805534   97.22509766    4.90999985    2.84999990
   13.87222195   95.07530212    4.90999985    2.89000010
   13.87527752  100.14499664    4.90999985    2.86999989
   13.87861156  108.95600128    4.90999985    2.86999989
   13.88166714   92.08550262    4.90999985    2.86999989
   13.88333321  105.94100189    4.90999985    2.86999989
   13.88555527   95.10949707    4.90999985    2.86999989
   13.88861084   98.23629761    4.90999985    2.86999989
   13.89194393  109.06600189    4.90999985    2.86999989
   13.89499950   92.72200012    4.90999985    2.86999989
   13.89833355   96.89559937    4.90999985    2.86999989
   13.90138817   96.47570038    4.90999985    2.86999989
   13.90472221   98.79630280    4.90999985    2.86999989
   13.90777779  107.60299683    4.90999985    2.86999989
   13.91111088   95.25499725    4.90999985    2.86999989
   13.91416645  104.98300171    4.90999985    2.86999989
   13.91916656  104.98300171    4.90999985    2.86999989
   13.92333412  104.90799713    4.86999989    2.86999989
   13.92666721  108.38999939    4.82999992    2.89000010
   13.92972279  107.77899933    4.84999990    2.89000010
   13.93305588   97.70369720    4.80999994    2.86999989
   13.93333340  109.61900330    4.76000023    2.86999989
   13.93638897  106.88600159    4.73999977    2.86999989
   13.93944454  101.14600372    4.73999977    2.89000010
   13.94277763   95.08370209    4.73999977    2.89000010
   13.94583321   86.54070282    4.69999981    2.86999989
   13.94916630   96.16780090    4.80999994    2.86999989
   13.95222187   98.70899963    4.80000019    2.86999989
   13.95555496   98.44940186    4.88999987    2.89000010
   13.95861053   97.01689911    4.90999985    2.86999989
   13.96194458  104.15599823    4.90999985    2.89000010
   13.96500015  106.81800079    4.90999985    2.86999989
   13.97055531  106.81800079    4.90999985    2.86999989
   13.97444439   98.47679901    4.90999985    2.86999989
   13.97777748   96.50119781    4.90999985    2.86999989
   13.98083305   88.28700256    4.90999985    2.89000010
   13.98333359   95.95429993    4.90999985    2.86999989
   13.98444462   99.18990326    4.90999985    2.86999989
   13.98750019  103.46399689    4.90999985    2.89000010
   13.99083328  107.20300293    4.90999985    2.89000010
   13.99388885   90.11689758    4.90999985    2.89000010
   13.99722290  108.57199860    4.90999985    2.86999989
   14.00027752   86.13210297    4.90999985    2.89000010
   14.00361156  101.36100006    4.90999985    2.86999989
   14.00666714   95.00370026    4.90999985    2.86999989
   14.01000023  101.97299957    4.90999985    2.89000010
   14.01305580   91.74970245    4.90999985    2.86999989
   14.01638889  100.15200043    4.90999985    2.89000010
   14.02166653  100.15200043    4.88999987    2.89000010
   14.02583313   96.80660248    4.84999990    2.89000010
   14.02888870   98.32820129    4.90999985    2.89000010
   14.03222179   96.16110229    4.90999985    2.89000010
   14.03333378  102.97000122    4.90999985    2.91000009
   14.03555584  106.46299744    4.90999985    2.89000010
   14.03861141   96.45469666    4.90999985    2.89000010
   14.04194450  105.49299622    4.90999985    2.86999989
   14.04500008   88.33119965    4.90999985    2.86999989
   14.04833412  100.42600250    4.90999985    2.89000010
   14.05138874  100.91799927    4.90999985    2.86999989
   14.05472279   97.83000183    4.90999985    2.89000010
   14.05777836   99.79370117    4.90999985    2.89000010
   14.06111145   97.64459991    4.90999985    2.89000010
   14.06416702   93.97039795    4.90999985    2.89000010
   14.06750011  106.08999634    4.90999985    2.89000010
   14.07277775  106.08999634    4.90999985    2.89000010
   14.07694435   99.65149689    4.90999985    2.89000010
   14.07999992   99.55560303    4.90999985    2.86999989
   14.08333302  111.20500183    4.90999985    2.89000010
   14.08388901  100.30899811    4.90999985    2.89000010
   14.08666611   95.97619629    4.90999985    2.86999989
   14.09000015  101.85800171    4.90999985    2.89000010
   14.09305477  115.97599792    4.90999985    2.86999989
   14.09638882  110.64900208    4.90999985    2.89000010
   14.09944439  118.26399994    4.90999985    2.91000009
   14.10277843  108.10399628    4.90999985    2.89000010
   14.10583401   95.61239624    4.90999985    2.89000010
   14.10916710   94.11430359    4.90999985    2.86999989
   14.11222267  113.46399689    4.90999985    2.89000010
   14.11555576  103.44499969    4.90999985    2.86999989
   14.11861134   95.86430359    4.90999985    2.89000010
   14.12388897   95.86430359    4.90999985    2.91000009
   14.12805557  108.05200195    4.90999985    2.91000009
   14.13138866  104.70800018    4.90999985    2.91000009
   14.13388920  103.78800201    4.90999985    2.89000010
   14.13472176   90.76080322    4.90999985    2.91000009
   14.13805580   95.80259705    4.90999985    2.91000009
   14.14111137   93.80819702    4.90999985    2.89000010
   14.14444447  107.36599731    4.90999985    2.89000010
   14.14750004  112.74600220    4.90999985    2.89000010
   14.15083313  104.23999786    4.90999985    2.91000009
   14.15388870  100.79399872    4.90999985    2.89000010
   14.15722179  103.64600372    4.90999985    2.89000010
   14.16027737  107.55799866    4.90999985    2.91000009
   14.16361046  103.67400360    4.90999985    2.89000010
   14.16666698   94.08750153    4.90999985    2.91000009
   14.17000008   99.45939636    4.90999985    2.91000009
   14.17527771   99.45939636    4.90999985    2.89000010
   14.17916679  106.60700226    4.90999985    2.89000010
   14.18249989   96.09570313    4.90999985    2.89000010
   14.18388939  105.13200378    4.90999985    2.89000010
   14.18583298   88.84799957    4.90999985    2.89000010
   14.18916702  112.02999878    4.90999985    2.89000010
   14.19222260  101.06999969    4.90999985    2.89000010
   14.19555569   96.66059875    4.90999985    2.89000010
   14.19861126  105.47399902    4.90999985    2.91000009
   14.20194435   98.63449860    4.90999985    2.89000010
   14.20499992  116.50700378    4.90999985    2.86999989
   14.20833302  104.41799927    4.90999985    2.91000009
   14.21138859  107.46700287    4.90999985    2.89000010
   14.21472168  117.04199982    4.90999985    2.89000010
   14.21777725   98.85410309    4.90999985    2.89000010
   14.22111034  108.20700073    4.90999985    2.89000010
   14.22638798  108.20700073    4.90999985    2.89000010
   14.23055553   92.16380310    4.90999985    2.89000010
   14.23361111   99.24250031    4.90999985    2.89000010
   14.23416710  108.25199890    4.90999985    2.89000010
   14.23722267  104.30200195    4.90999985    2.91000009
   14.24055576  110.29000092    4.90999985    2.89000010
   14.24361134   99.44740295    4.90999985    2.89000010
   14.24694443   98.34100342    4.90999985    2.89000010
   14.25000000   94.60320282    4.90999985    2.89000010
   14.25333309   86.20939636    4.90999985    2.89000010
   14.25638866   94.77610016    4.90999985    2.89000010
   14.25972176   81.45639801    4.90999985    2.89000010
   14.26277733   80.34729767    4.90999985    2.89000010
   14.26611137   97.14610291    4.90999985    2.89000010
   14.26916599   91.15689850    4.90999985    2.91000009
   14.27250004  100.93499756    4.90999985    2.89000010
   14.27750015  100.93499756    4.90999985    2.91000009
   14.28166676   81.43650055    4.90999985    2.89000010
   14.28416729   86.03669739    4.90999985    2.91000009
   14.28500080   99.41750336    4.90999985    2.86999989
   14.28833389   88.61879730    4.90999985    2.89000010
   14.29138947   85.24269867    4.90999985    2.91000009
   14.29472256   92.15560150    4.90999985    2.89000010
   14.29777813  102.43299866    4.90999985    2.89000010
   14.30111122   85.54190063    4.90999985    2.89000010
   14.30416679   97.15879822    4.90999985    2.91000009
   14.30749989   95.20449829    4.90999985    2.91000009
   14.31055546   91.13569641    4.90999985    2.86999989
   14.31388950   87.94840240    4.90999985    2.91000009
   14.31694412   93.57319641    4.90999985    2.89000010
   14.32027817   87.89330292    4.90999985    2.89000010
   14.32333374   94.94159698    4.90999985    2.89000010
   14.32861137   94.94159698    4.90999985    2.89000010
   14.33277798   94.38059998    4.90999985    2.89000010
   14.33416653   87.67949677    4.90999985    2.89000010
   14.33611107   95.15139771    4.90999985    2.89000010
   14.33944416   96.44650269    4.90999985    2.91000009
   14.34249973  102.09100342    4.90999985    2.91000009
   14.34583282   91.79720306    4.90999985    2.91000009
   14.34888840   82.99340057    4.90999985    2.91000009
   14.35222244   97.32150269    4.90999985    2.89000010
   14.35527802   93.30069733    4.90999985    2.89000010
   14.35861111   92.82869720    4.90999985    2.89000010
   14.36166668   82.89910126    4.90999985    2.89000010
   14.36500072  101.20500183    4.90999985    2.89000010
   14.36805534  103.30000305    4.90999985    2.86999989
   14.37138939   93.31439972    4.90999985    2.86999989
   14.37444496   86.82769775    4.90999985    2.86999989
   14.38000011   86.82769775    4.90999985    2.89000010
   14.38388920   91.91310120    4.90999985    2.89000010
   14.38444424   90.79129791    4.90999985    2.89000010
   14.38777733   93.43920135    4.90999985    2.89000010
   14.39083290   98.74590302    4.90999985    2.89000010
   14.39416695   79.42539978    4.90999985    2.86999989
   14.39722252   90.90579987    4.90999985    2.89000010
   14.40055561   85.45249939    4.90999985    2.91000009
   14.40361118   91.08499908    4.90999985    2.89000010
   14.40694427   91.06600189    4.90999985    2.89000010
   14.40999985   99.24520111    4.90999985    2.89000010
   14.41333294   96.32620239    4.90999985    2.89000010
   14.41638851   94.49829865    4.90999985    2.89000010
   14.41972256   93.27519989    4.90999985    2.89000010
   14.42277813   89.34159851    4.90999985    2.89000010
   14.42611122   97.70870209    4.90999985    2.89000010
   14.43111134   97.70870209    4.90999985    2.89000010
   14.43527794   95.78269958    4.90999985    2.89000010
   14.43833351   98.26679993    4.90999985    2.91000009
   14.44166660   89.55380249    4.90999985    2.91000009
   14.44472218   97.34339905    4.90999985    2.91000009
   14.44805527   93.47989655    4.90999985    2.89000010
   14.45111084   86.96779633    4.90999985    2.89000010
   14.45444393   86.67160034    4.90999985    2.91000009
   14.45749950  110.64299774    4.90999985    2.91000009
   14.46083355   88.28990173    4.90999985    2.91000009
   14.46388912  102.80200195    4.90999985    2.91000009
   14.46722221  106.33100128    4.90999985    2.93000007
   14.47027779   87.83380127    4.90999985    2.89000010
   14.47361088   97.51059723    4.90999985    2.91000009
   14.47666645   94.81819916    4.90999985    2.89000010
   14.48222160   94.81819916    4.90999985    2.91000009
   14.48638916   84.90619659    4.90999985    2.91000009
   14.48944473  101.41500092    4.90999985    2.91000009
   14.49277782   99.16400146    4.90999985    2.91000009
   14.49583340  103.15299988    4.90999985    2.91000009
   14.49916649   92.05370331    4.90999985    2.91000009
   14.50222206   96.45899963    4.90999985    2.91000009
   14.50555515  106.48999786    4.90999985    2.91000009
   14.50861073  105.18499756    4.90999985    2.91000009
   14.51194477   93.94560242    4.90999985    2.91000009
   14.51500034   97.75150299    4.90999985    2.91000009
   14.51833344   97.33110046    4.90999985    2.91000009
   14.52138901   97.89440155    4.90999985    2.91000009
   14.52472210  107.34700012    4.90999985    2.89000010
   14.52777767   96.81929779    4.90999985    2.89000010
   14.54944515  108.19000244    4.90999985    2.91000009
   14.55000019  105.96800232    4.90999985    2.91000009
   14.55305576   92.72899628    4.90999985    2.89000010
   14.55638885  102.69699860    4.90999985    2.91000009
   14.55944443  102.93699646    4.90999985    2.91000009
   14.56277752   95.04399872    4.90999985    2.91000009
   14.56583309   97.23210144    4.90999985    2.91000009
   14.56916618   94.94979858    4.90999985    2.91000009
   14.57222176  105.08499908    4.90999985    2.91000009
   14.57555580  106.55899811    4.90999985    2.91000009
   14.57861137  102.76599884    4.90999985    2.89000010
   14.58472157  102.76599884    4.90999985    2.89000010
   14.58888817   97.22160339    4.90999985    2.91000009
   14.59194374  103.91999817    4.90999985    2.93000007
   14.59527779   81.56259918    4.90999985    2.91000009
   14.59833336   93.74680328    4.90999985    2.91000009
   14.59944439   87.52010345    4.90999985    2.91000009
   14.60194492   95.35890198    4.90999985    2.91000009
   14.60527802   88.45110321    4.90999985    2.91000009
   14.60833359   98.42549896    4.90999985    2.91000009
   14.61166668   93.89489746    4.90999985    2.91000009
   14.61472225   90.71099854    4.90999985    2.91000009
   14.61805534   86.98840332    4.90999985    2.91000009
   14.62111092   83.62509918    4.90999985    2.91000009
   14.62444496   93.17289734    4.90999985    2.91000009
   14.62750053  100.60900116    4.90999985    2.91000009
   14.63083363   92.25430298    4.90999985    2.91000009
   14.63583279   92.25430298    4.90999985    2.93000007
   14.64000034   88.36219788    4.90999985    2.89000010
   14.64305496  102.23200226    4.90999985    2.91000009
   14.64638901   95.57929993    4.90999985    2.91000009
   14.64944458  102.13300323    4.90999985    2.91000009
   14.64972210  101.62000275    4.90999985    2.91000009
   14.65305519   90.82289886    4.90999985    2.91000009
   14.65611076   96.71009827    4.90999985    2.91000009
   14.65944386   99.86609650    4.90999985    2.91000009
   14.66249943  101.84700012    4.90999985    2.91000009
   14.66583252   92.59320068    4.90999985    2.89000010
   14.66888905   88.69699860    4.90999985    2.93000007
   14.67222214   93.69180298    4.90999985    2.91000009
   14.67527771   95.79299927    4.90999985    2.89000010
   14.67861176   94.82039642    4.90999985    2.91000009
   14.68166733   95.34980011    4.90999985    2.91000009
   14.68694496   95.34980011    4.90999985    2.91000009
   14.69111156   97.20020294    4.90999985    2.93000007
   14.69444466  110.38800049    4.90999985    2.91000009
   14.69750023  109.64600372    4.90999985    2.91000009
   14.69944477  101.33899689    4.90999985    2.91000009
   14.70111084  100.24199677    4.90999985    2.91000009
   14.70444393  107.22799683    4.90999985    2.91000009
   14.70749950  110.11799622    4.90999985    2.91000009
   14.71083355   94.48860168    4.90999985    2.91000009
   14.71388912   96.71199799    4.90999985    2.91000009
   14.71722221  101.65899658    4.90999985    2.89000010
   14.72027779   92.06539917    4.90999985    2.91000009
   14.72361088   87.08139801    4.90999985    2.91000009
   14.72666645  105.47100067    4.90999985    2.89000010
   14.72999954  103.30000305    4.90999985    2.91000009
   14.73305511   98.29029846    4.90999985    2.89000010
   14.73833370   98.29029846    4.90999985    2.91000009
   14.74222279  103.22799683    4.90999985    2.91000009
   14.74555588  113.29199982    4.90999985    2.89000010
   14.74861145   93.33879852    4.90999985    2.89000010
   14.74944496  104.26699829    4.90999985    2.89000010
   14.75222206  103.20400238    4.90999985    2.91000009
   14.75555515   94.47609711    4.90999985    2.91000009
   14.75861073   93.74549866    4.90999985    2.93000007
   14.76194477  106.15100098    4.90999985    2.93000007
   14.76500034  104.67500305    4.90999985    2.91000009
   14.76833344   98.84030151    4.90999985    2.93000007
   14.77138901  104.26899719    4.90999985    2.93000007
   14.77472210   93.30370331    4.90999985    2.93000007
   14.77777767  103.53299713    4.90999985    2.91000009
   14.78111076   99.46679688    4.90999985    2.93000007
   14.78416729  104.58599854    4.90999985    2.91000009
   14.78944492  104.58599854    4.90999985    2.93000007
   14.79361153  100.24600220    4.90999985    2.93000007
   14.79666710  107.58300018    4.90999985    2.93000007
   14.79944515  107.82599640    4.90999985    2.91000009
   14.80027771   94.18070221    4.90999985    2.91000009
   14.80361176   97.98519897    4.90999985    2.91000009
   14.80666733   99.92819977    4.90999985    2.91000009
   14.81000042   99.74669647    4.90999985    2.93000007
   14.81305599   93.86419678    4.90999985    2.91000009
   14.81638908   92.03099823    4.90999985    2.93000007
   14.81944466   91.48090363    4.90999985    2.91000009
   14.82277775   88.41629791    4.90999985    2.93000007
   14.82583332   92.46420288    4.90999985    2.91000009
   14.82916641  102.05999756    4.90999985    2.93000007
   14.83222198  103.80999756    4.90999985    2.93000007
   14.83555508   99.51850128    4.90999985    2.93000007
   14.84055519   99.51850128    4.90999985    2.93000007
   14.84472179   97.13929749    4.90999985    2.93000007
   14.84777737  101.88700104    4.90999985    2.93000007
   14.84944439   95.69129944    4.90999985    2.91000009
   14.85138893   93.85759735    4.90999985    2.91000009
   14.85472298   98.13909912    4.90999985    2.91000009
   14.85777855   91.75180054    4.90999985    2.91000009
   14.86111164  103.45099640    4.90999985    2.91000009
   14.86416721  100.16899872    4.90999985    2.91000009
   14.86750031   97.10700226    4.90999985    2.91000009
   14.87055588  106.90799713    4.90999985    2.91000009
   14.87388897  103.41000366    4.90999985    2.91000009
   14.87694454   98.22679901    4.90999985    2.91000009
   14.88027763   97.03260040    4.90999985    2.89000010
   14.88333321   98.04399872    4.90999985    2.89000010
   14.88666630   99.96869659    4.90999985    2.91000009
   14.89166641   99.96869659    4.90999985    2.91000009
   14.89583302   98.32369995    4.90999985    2.91000009
   14.89916611   93.37229919    4.90999985    2.91000009
   14.89944458   95.49089813    4.90999985    2.91000009
   14.90277767   89.13549805    4.90999985    2.91000009
   14.90611076   89.90630341    4.90999985    2.91000009
   14.90916634   90.07330322    4.90999985    2.91000009
   14.91249943   93.76110077    4.90999985    2.91000009
   14.91555500   94.49079895    4.90999985    2.93000007
   14.91888905   95.44989777    4.90999985    2.91000009
   14.92194462   96.87439728    4.90999985    2.91000009
   14.92527771   93.22309875    4.90999985    2.91000009
   14.92833328   91.06649780    4.90999985    2.93000007
   14.93166733   95.52519989    4.90999985    2.89000010
   14.93472195   93.91600037    4.90999985    2.93000007
   14.93805599  108.03199768    4.90999985    2.93000007
   14.94305515  108.03199768    4.90999985    2.91000009
   14.94694424   91.80259705    4.90999985    2.91000009
   14.94944477   97.59230042    4.90999985    2.91000009
   14.95055580   94.40670013    4.90999985    2.91000009
   14.95361137   90.03160095    4.90999985    2.91000009
   14.95694447  100.44499969    4.90999985    2.91000009
   14.96000004   93.57980347    4.90999985    2.93000007
   14.96333313   96.23889923    4.90999985    2.93000007
   14.96638870  108.79900360    4.90999985    2.91000009
   14.96972179   94.67440033    4.90999985    2.91000009
   14.97277737   89.71779633    4.90999985    2.91000009
   14.97611046   99.12409973    4.90999985    2.91000009
   14.97916603   86.99269867    4.90999985    2.91000009
   14.98249912  102.77700043    4.90999985    2.93000007
   14.98555565   89.76799774    4.90999985    2.91000009
   14.98888874   87.23760223    4.90999985    2.91000009
   14.99416733   87.23760223    4.90999985    2.93000007
   14.99833393   94.78549957    4.90999985    2.93000007
   14.99944496   97.84420013    4.90999985    2.91000009
   15.00166702   90.32520294    4.90999985    2.93000007
   15.00472260   96.47029877    4.90999985    2.91000009
   15.00805569   96.30120087    4.90999985    2.93000007
   15.01138878  105.15299988    4.90999985    2.93000007
   15.01444435  103.19000244    4.90999985    2.93000007
   15.01777744   96.81539917    4.90999985    2.91000009
   15.02083302   92.62090302    4.90999985    2.91000009
   15.02416611   95.69519806    4.90999985    2.93000007
   15.02722168   95.58409882    4.90999985    2.93000007
   15.03055573  102.19799805    4.90999985    2.91000009
   15.03361130   97.73670197    4.90999985    2.91000009
   15.03694534   99.57340240    4.90999985    2.93000007
   15.04000092  101.25599670    4.90999985    2.91000009
   15.04527855  101.25599670    4.90999985    2.91000009
   15.04944515   91.54090118    4.90999985    2.93000007
   15.04972267   95.43119812    4.90999985    2.93000007
   15.05305576  106.32199860    4.90999985    2.93000007
   15.05638885  106.12500000    4.90999985    2.91000009
   15.05944443   92.72920227    4.90999985    2.91000009
   15.06277752  102.61399841    4.90999985    2.93000007
   15.06583309  110.38999939    4.90999985    2.91000009
   15.06916618  107.74099731    4.90999985    2.93000007
   15.07222176  110.44000244    4.90999985    2.91000009
   15.07555580   95.85250092    4.90999985    2.93000007
   15.07861137  107.75199890    4.90999985    2.93000007
   15.08194447  104.00499725    4.90999985    2.93000007
   15.08500004  107.88500214    4.90999985    2.93000007
   15.08833313  104.77300262    4.90999985    2.93000007
   15.09138870  104.23400116    4.90999985    2.93000007
   15.09666634  104.23400116    4.90999985    2.93000007
   15.10055637  100.51499939    4.90999985    2.93000007
   15.10388947  110.16300201    4.90999985    2.93000007
   15.10694504  106.17700195    4.84999990    2.93000007
   15.11027813  105.15699768    4.90999985    2.93000007
   15.11333370  100.32599640    4.80999994    2.94000006
   15.11666679  114.54199982    4.57999992    2.93000007
   15.11972237  112.66100311    4.55999994    2.93000007
   15.12305546  106.77799988    4.55999994    2.94000006
   15.12611103  110.94100189    4.53000021    2.93000007
   15.12944412  103.29799652    4.51000023    2.93000007
   15.13249969   96.47299957    4.46999979    2.93000007
   15.13583279   98.44819641    4.48999977    2.93000007
   15.13888836  103.65100098    4.48999977    2.93000007
   15.14222240   82.79479980    4.57999992    2.93000007
   15.14777756   82.79479980    4.55999994    2.93000007
   15.15194416  107.13999939    4.44999981    2.93000007
   15.15499973  104.18499756    4.28999996    2.93000007
   15.15833282   98.21970367    4.38999987    2.94000006
   15.16138840   96.11669922    4.30999994    2.94000006
   15.16472149   86.65689850    4.23999977    2.93000007
   15.16777802   97.14669800    4.17999983    2.93000007
   15.17111111  103.59100342    4.17999983    2.93000007
   15.17416668  106.73400116    4.11999989    2.93000007
   15.17750072   97.34449768    3.97000003    2.93000007
   15.18055630  103.07800293    3.99000001    2.93000007
   15.18388939   94.31590271    3.91000009    2.93000007
   15.18694496  101.94999695    4.01999998    2.93000007
   15.19027805  107.25700378    3.91000009    2.93000007
   15.19333363   96.77960205    3.91000009    2.91000009
   15.19888878   96.77960205    3.80999994    2.94000006
   15.20305538   98.86830139    3.46000004    2.94000006
   15.20611095  104.19799805    3.36999989    2.93000007
   15.20944405   99.02339935    3.32999992    2.93000007
   15.21249962   97.37460327    3.25000000    2.94000006
   15.21583271  115.13300323    3.28999996    2.93000007
   15.21888828  100.77700043    3.25000000    2.94000006
   15.22222137  112.37000275    3.26999998    2.93000007
   15.22527695   99.64800262    3.23000002    2.94000006
   15.22861099  103.20999908    3.39000010    2.94000006
   15.23166656   97.96050262    3.45000005    2.93000007
   15.23500061  104.18800354    3.55999994    2.93000007
   15.23805618   96.53820038    3.41000009    2.93000007
   15.24138927  101.18499756    3.34999990    2.93000007
   15.24444485  100.13600159    3.39000010    2.93000007
   15.25000000  100.13600159    3.16000009    2.94000006
   15.25416660   95.79299927    3.11999989    2.94000006
   15.25749969   94.36080170    3.03999996    2.94000006
   15.26055527   98.29329681    3.07999992    2.94000006
   15.26388931  104.78299713    3.07999992    2.94000006
   15.26694393  101.33999634    2.89000010    2.93000007
   15.27027798  101.08499908    2.96000004    2.93000007
   15.27333355  101.77899933    2.96000004    2.93000007
   15.27666664  100.79299927    2.82999992    2.94000006
   15.27972221  111.77799988    2.64000010    2.94000006
   15.28305531  104.97899628    2.71000004    2.93000007
   15.28611183  104.48400116    2.75000000    2.94000006
   15.28944492  108.47200012    2.78999996    2.93000007
   15.29250050  110.46499634    2.66000009    2.94000006
   15.29583359   92.18170166    2.69000006    2.94000006
   15.30138874   92.18170166    2.51999998    2.94000006
   15.30527782   95.01869965    2.51999998    2.93000007
   15.30861092   96.97180176    2.46000004    2.94000006
   15.31166649   98.90969849    2.48000002    2.94000006
   15.31500053   96.25769806    2.50000000    2.93000007
   15.31805515   99.78700256    2.44000006    2.94000006
   15.32138920  101.42199707    2.46000004    2.94000006
   15.32444477  102.02100372    2.46000004    2.94000006
   15.32777786   98.63510132    2.53999996    2.94000006
   15.33083344   94.81529999    2.53999996    2.94000006
   15.33416653   93.63079834    2.50000000    2.94000006
   15.33722210   98.93289948    2.50000000    2.94000006
   15.34055519   96.23490143    2.42000008    2.94000006
   15.34361076  103.57700348    2.48000002    2.94000006
   15.34694386  103.37699890    2.46000004    2.94000006
   15.35249996  103.37699890    2.46000004    2.93000007
   15.35666752  103.83100128    2.46000004    2.94000006
   15.35972214  115.99400330    2.46000004    2.93000007
   15.36305618   99.58550262    2.42000008    2.94000006
   15.36611176  105.08799744    2.48000002    2.93000007
   15.36944485  115.37000275    2.48000002    2.94000006
   15.37250042  119.97299957    2.48000002    2.94000006
   15.37583351  110.24600220    2.53999996    2.94000006
   15.37888908  102.47599792    2.53999996    2.93000007
   15.38222218  108.50399780    2.59999990    2.93000007
   15.38527775  108.33799744    2.53999996    2.93000007
   15.38861084  105.37899780    2.42000008    2.94000006
   15.39166641  105.26000214    2.40000010    2.94000006
   15.39499950   93.13809967    2.39000010    2.94000006
   15.39805508   88.02390289    2.40000010    2.94000006
   15.40361118   88.02390289    2.44000006    2.94000006
   15.40777779  109.17099762    2.50000000    2.94000006
   15.41083336   98.27559662    2.48000002    2.94000006
   15.41416645  106.66799927    2.53999996    2.94000006
   15.41722298  111.08200073    2.46000004    2.93000007
   15.42055607  106.39099884    2.46000004    2.94000006
   15.42361164  106.89800262    2.48000002    2.93000007
   15.42694473  105.88999939    2.42000008    2.93000007
   15.43000031   94.82510376    2.36999989    2.94000006
   15.43333340  101.03600311    2.32999992    2.94000006
   15.43638897  101.52700043    2.23000002    2.93000007
   15.43972206  104.58300018    2.15000010    2.94000006
   15.44277763   93.36949921    2.11999989    2.94000006
   15.44611073  100.09300232    2.07999992    2.94000006
   15.44916630   98.64649963    2.05999994    2.94000006
   15.45472240   98.64649963    1.78999996    2.94000006
   15.45888901   94.55930328    1.78999996    2.94000006
   15.46222210   98.67240143    1.76999998    2.96000004
   15.46527767  104.12500000    1.80999994    2.94000006
   15.46861076  102.26000214    1.76999998    2.96000004
   15.47166634  103.54599762    1.76999998    2.96000004
   15.47499943  107.73100281    1.71000004    2.96000004
   15.47805500   95.60379791    1.71000004    2.96000004
   15.48138809  101.51699829    1.69000006    2.96000004
   15.48444462  106.51899719    1.71000004    2.96000004
   15.48777771   98.77320099    1.75000000    2.96000004
   15.49083328  102.11100006    1.75000000    2.96000004
   15.49416733   96.32499695    1.60000002    2.96000004
   15.49722290  105.05799866    1.61000001    2.96000004
   15.50055599  103.81400299    1.69000006    2.96000004
   15.50611115  103.81400299    1.78999996    2.96000004
   15.51000023   85.91600037    1.88000000    2.94000006
   15.51333332  109.83899689    1.94000006    2.96000004
   15.51638889  105.36699677    1.91999996    2.96000004
   15.51972198  106.59100342    1.88000000    2.96000004
   15.52277756  105.24600220    1.86000001    2.96000004
   15.52611065  102.24900055    1.86000001    2.96000004
   15.52916622   97.53579712    1.83000004    2.96000004
   15.53249931  103.39700317    1.83000004    2.94000006
   15.53555584   97.33049774    1.89999998    2.96000004
   15.53888893   93.85040283    1.85000002    2.96000004
   15.54194450   97.52549744    1.76999998    2.96000004
   15.54527855  100.83599854    1.75000000    2.96000004
   15.54833412  104.01599884    1.69000006    2.94000006
   15.56972218  104.01599884    1.51999998    2.96000004
   15.57388878  104.36900330    1.48000002    2.98000002
   15.57722187   98.29479980    1.48000002    3.00000000
   15.58027744   99.01679993    1.48000002    2.96000004
   15.58361053  105.20500183    1.51999998    2.98000002
   15.58666611  110.07800293    1.51999998    2.96000004
   15.59000015  111.34100342    1.48000002    2.98000002
   15.59305477  108.13899994    1.41999996    2.96000004
   15.59638882   99.80220032    1.41999996    2.98000002
   15.59944439   98.19110107    1.39999998    2.98000002
   15.60277843  101.37999725    1.36000001    2.96000004
   15.60583401   98.69380188    1.33000004    2.98000002
   15.60916710  107.19400024    1.26999998    2.98000002
   15.61222267  110.77700043    1.19000006    2.98000002
   15.61555576  102.53199768    1.16999996    2.98000002
   15.61722279   99.46690369    1.13000000    2.96000004
   15.62138939   99.46690369    1.07000005    2.98000002
   15.62555599  101.73899841    1.07000005    2.98000002
   15.62861156  106.89600372    1.05999994    2.96000004
   15.63194466  101.67500305    1.03999996    2.96000004
   15.63500023  103.37100220    0.95999998    2.98000002
   15.63833332   98.70950317    0.94000000    2.98000002
   15.64138889   87.44719696    0.95999998    2.96000004
   15.64472198  101.61399841    0.95999998    2.98000002
   15.64777756   94.17980194    0.94000000    2.98000002
   15.65111065  101.39600372    0.92000002    2.98000002
   15.65416622  102.80300140    0.89999998    2.96000004
   15.65749931   98.17340088    0.88000000    2.98000002
   15.66055489   95.26730347    0.86000001    2.98000002
   15.66388893   94.71240234    0.83999997    2.96000004
   15.66694450   96.77230072    0.81999999    2.98000002
   15.66750050   96.41860199    0.81999999    2.98000002
   15.67250061   96.41860199    0.79000002    2.98000002
   15.67666721   97.79779816    0.79000002    2.96000004
   15.67972279   94.03669739    0.79000002    2.96000004
   15.68305588   98.84690094    0.73000002    2.98000002
   15.68638897   92.80750275    0.75000000    2.98000002
   15.68944454   94.64479828    0.70999998    2.98000002
   15.69277763  100.57199860    0.70999998    2.98000002
   15.69583321  101.28399658    0.70999998    2.98000002
   15.69916630   96.97509766    0.70999998    2.98000002
   15.70222187   94.31529999    0.73000002    2.96000004
   15.70555496   90.20459747    0.73000002    2.98000002
   15.70861053   84.56929779    0.70999998    2.98000002
   15.71194458   91.79350281    0.69000000    2.96000004
   15.71500015   99.15429688    0.69000000    2.98000002
   15.71749973   98.31929779    0.67000002    2.98000002
   15.71833324   89.22080231    0.67000002    2.98000002
   15.72361088   89.22080231    0.69000000    2.98000002
   15.72777748   92.41179657    0.67000002    2.96000004
   15.73111057   92.14129639    0.69000000    2.98000002
   15.73416710   91.85340118    0.64999998    2.96000004
   15.73750019   97.81449890    0.63000000    2.98000002
   15.74055576   89.93039703    0.63000000    2.98000002
   15.74388885   93.48339844    0.61000001    2.98000002
   15.74694443   95.58439636    0.58999997    2.98000002
   15.75027752   93.87760162    0.56999999    2.96000004
   15.75333309   95.36450195    0.55000001    2.98000002
   15.75666714  101.24700165    0.51999998    2.98000002
   15.75972176  102.58599854    0.51999998    2.98000002
   15.76305580   97.05870056    0.50000000    2.98000002
   15.76611137  100.64800262    0.47999999    2.98000002
   15.76749992  103.10399628    0.47999999    2.98000002
   15.76972198  102.25199890    0.47999999    2.98000002
   15.77499962  102.25199890    0.46000001    2.96000004
   15.77888870   98.25740051    0.41999999    2.98000002
   15.78222179   98.12760162    0.41999999    2.98000002
   15.78527832   97.44450378    0.44000000    2.98000002
   15.78861141   89.47940063    0.41999999    2.98000002
   15.79166698   98.87359619    0.41999999    2.98000002
   15.79500008  101.45300293    0.41999999    2.98000002
   15.79805565   92.52050018    0.41999999    2.98000002
   15.80138874   90.58260345    0.41999999    2.96000004
   15.80444431   95.55840302    0.40000001    2.96000004
   15.80777836   92.33860016    0.36000001    2.96000004
   15.81083393   98.90370178    0.36000001    2.96000004
   15.81416702  100.15599823    0.34000000    2.98000002
   15.81722260   99.59680176    0.31999999    2.96000004
   15.81777763   99.46769714    0.31999999    2.96000004
   15.82111073   89.61100006    0.30000001    2.98000002
   15.82611084   89.61100006    0.25999999    2.98000002
   15.83027744   98.50559998    0.23000000    2.98000002
   15.83333302  105.59500122    0.20999999    2.96000004
   15.83666611   92.61810303    0.23000000    2.96000004
   15.83972168   95.16429901    0.19000000    2.96000004
   15.84305477   93.21880341    0.19000000    2.96000004
   15.84611034   97.32050323    0.17000000    2.96000004
   15.84944439  107.11399841    0.15000001    2.96000004
   15.85249996   96.72129822    0.13000000    2.96000004
   15.85583401  111.22000122    0.13000000    2.96000004
   15.85888958   97.32070160    0.11000000    2.96000004
   15.86222267   96.51879883    0.11000000    2.96000004
   15.86527824  108.68499756    0.09000000    2.96000004
   15.86777782   95.42369843    0.09000000    2.94000006
   15.86916637  101.87400055    0.07000000    2.96000004
   15.87222195  100.04399872    0.07000000    2.96000004
   15.87722206  100.04399872    0.07000000    2.98000002
   15.88138866   92.15399933    0.05000000    2.96000004
   15.88444424   99.02610016    0.05000000    2.96000004
   15.88777733   98.20619965    0.05000000    2.96000004
   15.89083290   95.98020172    0.07000000    2.94000006
   15.89416695   97.40239716    0.05000000    2.96000004
   15.89722252   95.82330322    0.07000000    2.96000004
   15.90055561   96.88829803    0.07000000    2.96000004
   15.90361118  101.85099792    0.05000000    2.94000006
   15.90694427   89.18180084    0.05000000    2.94000006
   15.90999985  101.87100220    0.05000000    2.94000006
   15.91333294   99.30100250    0.05000000    2.96000004
   15.91638851   88.12120056    0.05000000    2.94000006
   15.91777802  100.73699951    0.05000000    2.96000004
   15.92000008  109.37799835    0.05000000    2.94000006
   15.92305565   94.51110077    0.05000000    2.96000004
   15.92833328   94.51110077    0.05000000    2.94000006
   15.93249989   98.70320129    0.03000000    2.96000004
   15.93583298   99.05629730    0.03000000    2.94000006
   15.93888855   90.35679626    0.05000000    2.96000004
   15.94222260   90.70349884    0.03000000    2.94000006
   15.94527817  102.33799744    0.05000000    2.94000006
   15.94861126  103.22899628    0.03000000    2.94000006
   15.95166683   97.70709991    0.03000000    2.91000009
   15.95499992  102.20200348    0.05000000    2.82999992
   15.95805550   96.21659851    0.03000000    2.69000006
   15.96138859   96.00589752    0.03000000    2.53999996
   15.96444416  101.15100098    0.03000000    2.30999994
   15.96777725   98.68720245    0.03000000    2.00000000
   15.96805477   99.07099915    0.03000000    1.94000006
   15.97138882   94.04460144    0.03000000    1.69000006
   15.97444439   91.86489868    0.03000000    1.36000001
   15.97972202   91.86489868    0.03000000    0.89999998
   15.98361111   92.51730347    0.03000000    0.56999999
   15.98694515   91.75900269    0.03000000    0.31999999
   15.99000072   95.62529755    0.03000000    0.20999999
   15.99333382   87.66419983    0.03000000    0.07000000
   15.99638939   88.03230286    0.03000000    0.03000000
   15.99972248   94.78379822    0.03000000    0.01000000
   16.00277710   86.57019806    0.03000000    0.01000000
   16.00611115   93.79859924    0.03000000    0.01000000
   16.00916672   96.38130188    0.03000000    0.01000000
   16.01250076   94.39849854    0.03000000    0.01000000
   16.01555634   96.32920074    0.03000000    0.01000000
   16.01805496   92.47039795    0.03000000    0.01000000
   16.01916695   89.07640076    0.03000000    0.01000000
   16.02222252   95.36599731    0.03000000    0.01000000
   16.02555466   92.57109833    0.03000000    0.01000000
   16.03083229   92.57109833    0.03000000    0.01000000
   16.03499985   98.21710205    0.03000000    0.01000000
   16.03805542   89.88159943    0.03000000    0.01000000
   16.04138756  103.96800232    0.03000000    0.01000000
   16.04444313   93.31410217    0.03000000    0.01000000
   16.04777718   92.45880127    0.03000000    0.01000000
   16.05083275   97.33139801    0.03000000    0.01000000
   16.05416679   97.64700317    0.03000000    0.01000000
   16.05722237   95.58329773    0.03000000    0.01000000
   16.06055450   95.87709808    0.03000000    0.01000000
   16.06361008   98.12650299    0.03000000    0.01000000
   16.06694603  104.91200256    0.03000000    0.01000000
   16.06805611   99.19640350    0.03000000    0.01000000
   16.07027817   93.40440369    0.03000000    0.01000000
   16.07333374   97.38629913    0.03000000    0.01000000
   16.07666779   98.68009949    0.03000000    0.01000000
   16.08194542   98.68009949    0.03000000    0.01000000
   16.08611107   93.25469971    0.03000000    0.01000000
   16.08916664   93.14360046    0.03000000    0.01000000
   16.09250069   90.34750366    0.03000000    0.01000000
   16.09555626   91.69159698    0.03000000    0.01000000
   16.09889030   94.88369751    0.03000000    0.01000000
   16.10194397   92.53060150    0.03000000    0.01000000
   16.10527802   96.83560181    0.03000000    0.01000000
   16.10833359   85.47309875    0.03000000    0.01000000
   16.11166763   93.08090210    0.03000000    0.01000000
   16.11472321   91.23950195    0.03000000    0.01000000
   16.11805534   95.45619965    0.03000000    0.01000000
   16.11861038   92.41149902    0.03000000    0.01000000
   16.12166595   88.03220367    0.03000000    0.01000000
   16.12500000   98.97200012    0.03000000    0.01000000
   16.12805557   93.35279846    0.03000000    0.01000000
   16.13305473   93.35279846    0.03000000    0.01000000
   16.13722229   88.55750275    0.03000000    0.01000000
   16.14055634   90.19519806    0.03000000    0.01000000
   16.14361191   96.77249908    0.03000000    0.01000000
   16.14694405   95.13800049    0.03000000    0.01000000
   16.14999962   92.55740356    0.03000000    0.01000000
   16.15333366   94.80729675    0.03000000    0.01000000
   16.15638924  101.33799744    0.03000000    0.01000000
   16.15972137   95.30059814    0.03000000    0.01000000
   16.16277695   89.43160248    0.03000000    0.01000000
   16.16611099   87.72589874    0.03000000    0.01000000
   16.16860962   91.25749969    0.03000000    0.01000000
   16.16944313   92.84559631    0.03000000    0.01000000
   16.17249870   88.86270142    0.03000000    0.01000000
   16.17583275   87.10739899    0.03000000    0.01000000
   16.17888832   97.20790100    0.03000000    0.01000000
   16.18444443   97.20790100    0.03000000    0.01000000
   16.18833160   92.40969849    0.03000000    0.01000000
   16.19166565   94.66950226    0.03000000    0.01000000
   16.19472122   94.60820007    0.03000000    0.01000000
   16.19805527   90.83020020    0.03000000    0.01000000
   16.20111275   89.72239685    0.03000000    0.01000000
   16.20444489   95.75499725    0.03000000    0.01000000
   16.20750046   93.42919922    0.03000000    0.01000000
   16.21083450   92.06430054    0.03000000    0.01000000
   16.21389008   93.82309723    0.03000000    0.01000000
   16.21722221   95.10859680    0.03000000    0.01000000
   16.21861076   98.75319672    0.03000000    0.01000000
   16.22055626  101.25099945    0.03000000    0.01000000
   16.22389030   92.31690216    0.03000000    0.01000000
   16.22694588   94.27330017    0.03000000    0.01000000
   16.23027802   90.61190033    0.03000000    0.01000000
   16.23555565   90.61190033    0.03000000    0.01000000
   16.23972321   93.79679871    0.03000000    0.01000000
   16.24277878   87.50700378    0.03000000    0.01000000
   16.24611092   93.36849976    0.03000000    0.01000000
   16.24916649   79.97440338    0.03000000    0.01000000
   16.25250053   95.52249908    0.03000000    0.01000000
   16.25555611   85.82800293    0.03000000    0.01000000
   16.25888824   89.23449707    0.03000000    0.01000000
   16.26194382   84.32910156    0.03000000    0.01000000
   16.26527786   81.42489624    0.03000000    0.01000000
   16.26833344   83.20739746    0.03000000    0.01000000
   16.26888847   88.28939819    0.03000000    0.01000000
   16.27194405   94.51699829    0.03000000    0.01000000
   16.27527809   90.26239777    0.03000000    0.01000000
   16.27833366   91.21489716    0.03000000    0.01000000
   16.28166580   87.34539795    0.03000000    0.01000000
   16.28666687   87.34539795    0.03000000    0.01000000
   16.29083252   91.86319733    0.03000000    0.01000000
   16.29388809   86.77439880    0.03000000    0.01000000
   16.29722214   97.12519836    0.03000000    0.01000000
   16.30027771  102.76200104    0.03000000    0.01000000
   16.30360985   95.90850067    0.03000000    0.01000000
   16.30666542   90.16829681    0.03000000    0.01000000
   16.30999947   93.84339905    0.03000000    0.01000000
   16.31305504   95.45230103    0.03000000    0.01000000
   16.31638718  100.90200043    0.03000000    0.01000000
   16.31888962   91.39620209    0.03000000    0.01000000
   16.31972313   88.15339661    0.03000000    0.01000000
   16.32305717   84.26360321    0.03000000    0.01000000
   16.32611275   91.21829987    0.03000000    0.01000000
   16.32944489   94.19149780    0.03000000    0.01000000
   16.33250046   94.75170135    0.03000000    0.01000000
   16.33777809   94.75170135    0.03000000    0.01000000
   16.34194565   87.39430237    0.03000000    0.01000000
   16.34527779   91.11940002    0.03000000    0.01000000
   16.34833336   93.94799805    0.03000000    0.01000000
   16.35166740   96.46869659    0.03000000    0.01000000
   16.35472298   92.45619965    0.03000000    0.01000000
   16.35805511   84.93620300    0.03000000    0.01000000
   16.36111069   91.62480164    0.03000000    0.01000000
   16.36444473   95.35620117    0.03000000    0.01000000
   16.36750031   87.12229919    0.03000000    0.01000000
   16.36888885   90.16390228    0.03000000    0.01000000
   16.37083435  101.02899933    0.03000000    0.01000000
   16.37416649   88.71189880    0.03000000    0.01000000
   16.37722206   85.82559967    0.03000000    0.01000000
   16.38055611  101.23600006    0.03000000    0.01000000
   16.38361168   94.14579773    0.03000000    0.01000000
   16.38916588   94.14579773    0.03000000    0.01000000
   16.39305496   91.43019867    0.03000000    0.01000000
   16.39638901   86.66760254    0.03000000    0.01000000
   16.39944458   86.16459656    0.03000000    0.01000000
   16.40277672   85.36949921    0.03000000    0.01000000
   16.40583229   85.57869720    0.03000000    0.01000000
   16.40916634   88.51730347    0.03000000    0.01000000
   16.41222191   93.32250214    0.03000000    0.01000000
   16.41555595   95.42520142    0.03000000    0.01000000
   16.41860962   91.24559784    0.03000000    0.01000000
   16.41916656   90.32150269    0.03000000    0.01000000
   16.42249870   98.43569946    0.03000000    0.01000000
   16.42555428   90.14289856    0.03000000    0.01000000
   16.42888832   89.13590240    0.03000000    0.01000000
   16.43194389   95.27189636    0.03000000    0.01000000
   16.43527603   92.93139648    0.03000000    0.01000000
   16.44027710   92.93139648    0.03000000    0.01000000
   16.44444275   89.44730377    0.03000000    0.01000000
   16.44749832   96.43990326    0.03000000    0.01000000
   16.45083427   97.04900360    0.03000000    0.01000000
   16.45388985   97.34790039    0.03000000    0.01000000
   16.45722389   93.58110046    0.03000000    0.01000000
   16.46027946   94.80860138    0.03000000    0.01000000
   16.46361160   89.91870117    0.03000000    0.01000000
   16.46666718   92.64179993    0.03000000    0.01000000
   16.46944427   90.09980011    0.03000000    0.01000000
   16.47027779   92.23780060    0.03000000    0.01000000
   16.47333336   93.35449982    0.03000000    0.01000000
   16.47666740   88.70459747    0.03000000    0.01000000
   16.47972298   84.19920349    0.03000000    0.01000000
   16.48305511   88.47619629    0.03000000    0.01000000
   16.48611069   89.08969879    0.03000000    0.01000000
   16.49138832   89.08969879    0.03000000    0.01000000
   16.49555588   86.91580200    0.03000000    0.01000000
   16.49861145   87.26629639    0.03000000    0.01000000
   16.50194359   83.96489716    0.03000000    0.01000000
   16.50499916   87.39340210    0.03000000    0.01000000
   16.50833321   89.34349823    0.03000000    0.01000000
   16.51138878   87.48519897    0.03000000    0.01000000
   16.51472282   87.47370148    0.03000000    0.01000000
   16.51777840   90.46209717    0.03000000    0.01000000
   16.51944351   93.47560120    0.03000000    0.01000000
   16.52138901   84.23870087    0.03000000    0.01000000
   16.52472115   95.59950256    0.03000000    0.01000000
   16.52777672   85.74449921    0.03000000    0.01000000
   16.53111076   96.32060242    0.03000000    0.01000000
   16.53416634   88.43750000    0.03000000    0.01000000
   16.53750038   88.73110199    0.03000000    0.01000000
   16.54249954   88.73110199    0.03000000    0.01000000
   16.54666710   83.61190033    0.03000000    0.01000000
   16.54972076   87.70449829    0.03000000    0.01000000
   16.55305481   89.70099640    0.03000000    0.01000000
   16.55611038   96.84889984    0.03000000    0.01000000
   16.55944443   90.38819885    0.03000000    0.01000000
   16.56250000   95.05989838    0.03000000    0.01000000
   16.56583214   93.16390228    0.03000000    0.01000000
   16.58305550   98.56680298    0.03000000    0.01000000
   16.58555603   88.22750092    0.03000000    0.01000000
   16.58861160   94.11270142    0.03000000    0.01000000
   16.59388924   94.11270142    0.03000000    0.01000000
   16.59805679   88.89289856    0.03000000    0.01000000
   16.60111237   95.37039948    0.03000000    0.01000000
   16.60444450   88.43750000    0.03000000    0.01000000
   16.60750008   86.81459808    0.03000000    0.01000000
   16.61083412   86.04090118    0.03000000    0.01000000
   16.61388969   87.52100372    0.03000000    0.01000000
   16.61722183   86.73249817    0.03000000    0.01000000
   16.62027740   86.46289825    0.03000000    0.01000000
   16.62361145   87.80509949    0.03000000    0.01000000
   16.62666702   95.21540070    0.03000000    0.01000000
   16.63000107   88.38369751    0.03000000    0.01000000
   16.63305473   85.74050140    0.03000000    0.01000000
   16.63333321   91.85649872    0.03000000    0.01000000
   16.63666725   90.97550201    0.03000000    0.01000000
   16.63972282   87.68430328    0.03000000    0.01000000
   16.64500046   87.68430328    0.03000000    0.01000000
   16.64916611   91.02709961    0.03000000    0.01000000
   16.65250015   97.11720276    0.03000000    0.01000000
   16.65555573   85.17420197    0.03000000    0.01000000
   16.65888786   86.75099945    0.03000000    0.01000000
   16.66194344   91.13240051    0.03000000    0.01000000
   16.66527748   89.95110321    0.03000000    0.01000000
   16.66833305   85.22889709    0.03000000    0.01000000
   16.67166519   92.89489746    0.03000000    0.01000000
   16.67472076   95.06400299    0.03000000    0.01000000
   16.67805481   88.25060272    0.03000000    0.01000000
   16.68111038   83.44599915    0.03000000    0.01000000
   16.68305397   96.14170074    0.03000000    0.01000000
   16.68472099   93.94080353    0.03000000    0.01000000
   16.68805504   95.16750336    0.03000000    0.01000000
   16.69111061   90.28440094    0.03000000    0.01000000
   16.69638824   90.28440094    0.03000000    0.01000000
   16.70027924   83.71440125    0.03000000    0.01000000
   16.70361137   84.10859680    0.03000000    0.01000000
   16.70666695   83.89250183    0.03000000    0.01000000
   16.71000099   95.21569824    0.03000000    0.01000000
   16.71305656   88.00460052    0.03000000    0.01000000
   16.71638870   90.17310333    0.03000000    0.01000000
   16.71944427  100.23400116    0.03000000    0.01000000
   16.72277832   97.49220276    0.03000000    0.01000000
   16.72583389   99.12640381    0.03000000    0.01000000
   16.72916794   94.10109711    0.03000000    0.01000000
   16.73222351   99.48159790    0.03000000    0.01000000
   16.73305511  103.89700317    0.03000000    0.01000000
   16.73583412   95.90209961    0.03000000    0.01000000
   16.73916626   97.34770203    0.03000000    0.01000000
   16.74222183   97.07309723    0.03000000    0.01000000
   16.74749947   97.07309723    0.03000000    0.01000000
   16.75166702   94.89550018    0.03000000    0.01000000
   16.75472260   93.39710236    0.03000000    0.01000000
   16.75805473   99.27330017    0.03000000    0.01000000
   16.76111031   91.06649780    0.03000000    0.01000000
   16.76444435   89.96219635    0.03000000    0.01000000
   16.76749992   89.43470001    0.03000000    0.01000000
   16.77083397   94.80509949    0.03000000    0.01000000
   16.77388954   89.65090179    0.03000000    0.01000000
   16.77722168   89.58769989    0.03000000    0.01000000
   16.78027725   94.80390167    0.03000000    0.01000000
   16.78305435   91.03260040    0.03000000    0.01000000
   16.78388786   91.90000153    0.03000000    0.01000000
   16.78722191   94.02079773    0.03000000    0.01000000
   16.79027748   92.14669800    0.03000000    0.01000000
   16.79361153   88.33869934    0.03000000    0.01000000
   16.79861069   88.33869934    0.03000000    0.01000000
   16.80277634   92.17179871    0.03000000    0.01000000
   16.80583191   96.05310059    0.03000000    0.01000000
   16.80916595   92.84130096    0.03000000    0.01000000
   16.81222153   89.63829803    0.03000000    0.01000000
   16.81555557   92.09680176    0.03000000    0.01000000
   16.81861115   91.05449677    0.03000000    0.01000000
   16.82194519   94.54940033    0.03000000    0.01000000
   16.82500076   92.63500214    0.03000000    0.01000000
   16.82833481   95.68219757    0.03000000    0.01000000
   16.83139038   85.48619843    0.03000000    0.01000000
   16.83305550   98.56580353    0.03000000    0.01000000
   16.83500099   90.44830322    0.03000000    0.01000000
   16.83833313   94.25379944    0.03000000    0.01000000
   16.84138870   92.22229767    0.03000000    0.01000000
   16.84472275   91.81739807    0.03000000    0.01000000
   16.84972191   91.81739807    0.03000000    0.01000000
   16.85388947   88.28220367    0.03000000    0.01000000
   16.85722351   91.63110352    0.03000000    0.01000000
   16.86027908   93.42240143    0.03000000    0.01000000
   16.86361122   95.03089905    0.03000000    0.01000000
   16.86666679   97.01570129    0.03000000    0.01000000
   16.87000084  108.89700317    0.03000000    0.01000000
   16.87305641  103.10299683    0.03000000    0.01000000
   16.87638855  104.73600006    0.03000000    0.01000000
   16.87944412  103.99099731    0.03000000    0.01000000
   16.88277817  101.62100220    0.03000000    0.01000000
   16.88333321  102.80300140    0.03000000    0.01000000
   16.88611031  103.66699982    0.03000000    0.01000000
   16.88944435  101.10800171    0.03000000    0.01000000
   16.89249992   99.71469879    0.03000000    0.01000000
   16.89583397   89.55030060    0.03000000    0.01000000
   16.90111160   89.55030060    0.03000000    0.01000000
   16.90499878   96.32479858    0.03000000    0.01000000
   16.90833282   90.39880371    0.03000000    0.01000000
   16.91138840   95.05650330    0.03000000    0.01000000
   16.91472244   95.33879852    0.03000000    0.01000000
   16.91777802  100.31600189    0.03000000    0.01000000
   16.92111015  100.58000183    0.03000000    0.01000000
   16.92416573   87.74990082    0.03000000    0.01000000
   16.92749977  100.47399902    0.03000000    0.01000000
   16.93055534   94.94049835    0.03000000    0.01000000
   16.93333244   99.22460175    0.03000000    0.01000000
   16.93416595   88.86769867    0.03000000    0.01000000
   16.93750000   91.89990234    0.03000000    0.01000000
   16.94055557   93.90609741    0.03000000    0.01000000
   16.94388771   93.78769684    0.03000000    0.01000000
   16.94694328   96.92350006    0.03000000    0.01000000
   16.95222282   96.92350006    0.03000000    0.01000000
   16.95611191   92.44999695    0.03000000    0.01000000
   16.95944595   93.61799622    0.03000000    0.01000000
   16.96250153   91.17960358    0.03000000    0.01000000
   16.96583366   99.37300110    0.03000000    0.01000000
   16.96888924  102.87100220    0.03000000    0.01000000
   16.97222328   95.93869781    0.03000000    0.01000000
   16.97527885   92.37719727    0.03000000    0.01000000
   16.97861099   92.31870270    0.03000000    0.01000000
   16.98166656   96.31939697    0.03000000    0.01000000
   16.98333359   97.55789948    0.03000000    0.01000000
   16.98527718   92.51149750    0.03000000    0.01000000
   16.98861122   95.95590210    0.03000000    0.01000000
   16.99166679   94.54869843    0.03000000    0.01000000
   16.99500084   94.02749634    0.03000000    0.01000000
   16.99805641  100.10299683    0.03000000    0.01000000
   17.00333405  100.10299683    0.03000000    0.01000000
   17.00749969   92.45339966    0.03000000    0.01000000
   17.01055527   94.56169891    0.03000000    0.01000000
   17.01388931   88.70839691    0.03000000    0.01000000
   17.01694489   89.15249634    0.03000000    0.01000000
   17.02027702   85.99549866    0.03000000    0.01000000
   17.02333260   92.64830017    0.03000000    0.01000000
   17.02666664   88.27179718    0.03000000    0.01000000
   17.02972221   93.15139771    0.03000000    0.01000000
   17.03305435   84.58049774    0.03000000    0.01000000
   17.03361130   93.81179810    0.03000000    0.01000000
   17.03666687  100.36499786    0.03000000    0.01000000
   17.03999901   97.37699890    0.03000000    0.01000000
   17.04305458   85.17610168    0.03000000    0.01000000
   17.04638863   96.94149780    0.03000000    0.01000000
   17.04944420   95.67590332    0.03000000    0.01000000
   17.05444336   95.67590332    0.03000000    0.01000000
   17.05861092   92.02259827    0.03000000    0.01000000
   17.06166649   97.00530243    0.03000000    0.01000000
   17.06499863   91.03140259    0.03000000    0.01000000
   17.06805611   92.60569763    0.03000000    0.01000000
   17.07139015   86.31109619    0.03000000    0.01000000
   17.07444572   95.28240204    0.03000000    0.01000000
   17.07777786   87.62059784    0.03000000    0.01000000
   17.08083344   97.04650116    0.03000000    0.01000000
   17.08361244   91.84390259    0.03000000    0.01000000
   17.08444595   85.21910095    0.03000000    0.01000000
   17.08777809   89.67859650    0.03000000    0.01000000
   17.09083366   92.31060028    0.03000000    0.01000000
   17.09416771   86.88480377    0.03000000    0.01000000
   17.09722328   89.90039825    0.03000000    0.01000000
   17.10055542   87.98429871    0.03000000    0.01000000
   17.10583305   87.98429871    0.03000000    0.01000000
   17.10972214   87.41699982    0.03000000    0.01000000
   17.11305618   83.36440277    0.03000000    0.01000000
   17.11611176   85.46269989    0.03000000    0.01000000
   17.11944389   85.61660004    0.03000000    0.01000000
   17.12249947   84.70590210    0.03000000    0.01000000
   17.12583351   89.23960114    0.03000000    0.01000000
   17.12888908   81.61440277    0.03000000    0.01000000
   17.13222313   83.73899841    0.03000000    0.01000000
   17.13361168   87.77290344    0.03000000    0.01000000
   17.13555527   95.12870026    0.03000000    0.01000000
   17.13888931   94.69499969    0.03000000    0.01000000
   17.14194489   92.18550110    0.03000000    0.01000000
   17.14527702   92.35169983    0.03000000    0.01000000
   17.14833260   83.35320282    0.03000000    0.01000000
   17.15166664   90.94080353    0.03000000    0.01000000
   17.15694427   90.94080353    0.03000000    0.01000000
   17.16083336   88.58049774    0.03000000    0.01000000
   17.16416550   95.48940277    0.03000000    0.01000000
   17.16722107   86.96869659    0.03000000    0.01000000
   17.17055511   91.37079620    0.03000000    0.01000000
   17.17361069   85.69680023    0.03000000    0.01000000
   17.17694473   91.52490234    0.03000000    0.01000000
   17.18000031   91.13300323    0.03000000    0.01000000
   17.18333244   96.87210083    0.03000000    0.01000000
   17.18388748   88.26210022    0.03000000    0.01000000
   17.18694305   93.77780151    0.03000000    0.01000000
   17.19027710   98.09580231    0.03000000    0.01000000
   17.19333267   93.43650055    0.03000000    0.01000000
   17.19666672   90.25189972    0.03000000    0.01000000
   17.19972038  101.13800049    0.03000000    0.01000000
   17.20305634   95.32740021    0.03000000    0.01000000
   17.20805550   95.32740021    0.03000000    0.01000000
   17.21222305  105.35299683    0.03000000    0.01000000
   17.21527863   99.37090302    0.03000000    0.01000000
   17.21861076   93.00460052    0.03000000    0.01000000
   17.22166634   99.30059814    0.03000000    0.01000000
   17.22500038   96.10119629    0.03000000    0.01000000
   17.22805595  102.90799713    0.03000000    0.01000000
   17.23139000  103.54399872    0.03000000    0.01000000
   17.23388863   96.37249756    0.03000000    0.01000000
   17.23472214   94.11260223    0.03000000    0.01000000
   17.23805618   94.32430267    0.03000000    0.01000000
   17.24111176   94.54090118    0.03000000    0.01000000
   17.24444389   96.32050323    0.03000000    0.01000000
   17.24749947  100.96099854    0.03000000    0.01000000
   17.25083351   96.48880005    0.03000000    0.01000000
   17.25388908   98.63659668    0.03000000    0.01000000
   17.25916672   98.63659668    0.03000000    0.01000000
   17.26333427   97.94000244    0.03000000    0.01000000
   17.26638794   97.90499878    0.03000000    0.01000000
   17.26972198  104.50000000    0.03000000    0.01000000
   17.27277756   94.37950134    0.03000000    0.01000000
   17.27611160   97.83619690    0.03000000    0.01000000
   17.27916718   99.10739899    0.03000000    0.01000000
   17.28249931  102.30300140    0.03000000    0.01000000
   17.28388786   93.26879883    0.03000000    0.01000000
   17.28583336   96.47910309    0.03000000    0.01000000
   17.28916550   96.22720337    0.03000000    0.01000000
   17.29222107  103.75199890    0.03000000    0.01000000
   17.29555511  139.98800659    0.03000000    0.01000000
   17.29861069  145.26199341    0.03000000    0.01000000
   17.30194283   92.62560272    0.03000000    0.01000000
   17.30499840  126.29100037    0.03000000    0.01000000
   17.31055450  126.29100037    0.03000000    0.01000000
   17.31444359   93.24140167    0.03000000    0.01000000
   17.31777954   -1.00000000    0.03000000    0.01000000
   17.32083511   -1.00000000    0.03000000    0.01000000
   17.32389069   -1.00000000    0.03000000    0.01000000
   17.32722282   -1.00000000    0.03000000    0.01000000
   17.33027840   -1.00000000    0.03000000    0.01000000
   17.33361244   -1.00000000    0.03000000    0.01000000
   17.33694458   -1.00000000    0.03000000    0.01000000
   17.34027863   -1.00000000    0.03000000    0.01000000
   17.34333420   -1.00000000    0.03000000    0.01000000
   17.34666824   97.20320129    0.03000000    0.01000000
   17.34972191   86.72460175    0.03000000    0.01000000
   17.35305595   89.52799988    0.03000000    0.01000000
   17.35611153   96.54609680    0.03000000    0.01000000
   17.36166763   96.54609680    0.03000000    0.01000000
   17.36555672   93.62609863    0.03000000    0.01000000
   17.36888885   90.76029968    0.03000000    0.01000000
   17.37194443   94.09850311    0.03000000    0.01000000
   17.37527847   91.26869965    0.03000000    0.01000000
   17.37833405   86.09929657    0.03000000    0.01000000
   17.38166618   86.49960327    0.03000000    0.01000000
   17.38388824   86.28260040    0.03000000    0.01000000
   17.38527679   91.67630005    0.03000000    0.01000000
   17.38833237   89.04730225    0.03000000    0.01000000
   17.39166641   86.44100189    0.03000000    0.01000000
   17.39472198  136.47200012    0.03000000    0.01000000
   17.39805603   82.61740112    0.03000000    0.01000000
   17.40111160   92.05560303    0.03000000    0.01000000
   17.40444374   94.14430237    0.03000000    0.01000000
   17.40749931   94.35500336    0.03000000    0.01000000
   17.41277695   94.35500336    0.03000000    0.01000000
   17.41694450   89.89510345    0.03000000    0.01000000
   17.42000008   83.53019714    0.03000000    0.01000000
   17.42333221  103.12300110    0.03000000    0.01000000
   17.42638779   97.47350311    0.03000000    0.01000000
   17.42972183   90.95680237    0.03000000    0.01000000
   17.43277740   92.22180176    0.03000000    0.01000000
   17.43388748   95.68099976    0.03000000    0.01000000
   17.43638802  106.93699646    0.03000000    0.01000000
   17.43944359   93.37259674    0.03000000    0.01000000
   17.44277763   99.17939758    0.03000000    0.01000000
   17.44583321  102.97000122    0.03000000    0.01000000
   17.44916534   95.63890076    0.03000000    0.01000000
   17.45222282   96.28420258    0.03000000    0.01000000
   17.45555687   91.24839783    0.03000000    0.01000000
   17.45861244   83.26529694    0.03000000    0.01000000
   17.46389008   83.26529694    0.03000000    0.01000000
   17.46805573  100.70099640    0.03000000    0.01000000
   17.47111130   95.80539703    0.03000000    0.01000000
   17.47444534   97.01139832    0.03000000    0.01000000
   17.47750092   91.28630066    0.03000000    0.01000000
   17.48083305   96.40689850    0.03000000    0.01000000
   17.48388863   90.12280273    0.03000000    0.01000000
   17.48444557   85.81310272    0.03000000    0.01000000
   17.48750114   88.40450287    0.03000000    0.01000000
   17.49083328   98.64089966    0.03000000    0.01000000
   17.49388885   92.68840027    0.03000000    0.01000000
   17.49722290   93.73349762    0.03000000    0.01000000
   17.50027847   89.79160309    0.03000000    0.01000000
   17.50361061   91.79039764    0.03000000    0.01000000
   17.50666618   92.51889801    0.03000000    0.01000000
   17.51000023   86.17089844    0.03000000    0.01000000
   17.51499939   86.17089844    0.03000000    0.01000000
   17.51916695   87.92359924    0.03000000    0.01000000
   17.52249908   96.49859619    0.03000000    0.01000000
   17.52555466   84.93959808    0.03000000    0.01000000
   17.52888870   93.52330017    0.03000000    0.01000000
   17.53194427   84.06839752    0.03000000    0.01000000
   17.53388786   90.03890228    0.03000000    0.01000000
   17.53555489   84.11340332    0.03000000    0.01000000
   17.53861046   87.70290375    0.03000000    0.01000000
   17.54194450   78.29190063    0.03000000    0.01000000
   17.54500008   91.39399719    0.03000000    0.01000000
   17.54833221   86.39250183    0.03000000    0.01000000
   17.55138779   86.37439728    0.03000000    0.01000000
   17.55472183   86.87689972    0.03000000    0.01000000
   17.55777740   95.43879700    0.03000000    0.01000000
   17.56110954   85.15350342    0.03000000    0.01000000
   17.56638718   85.15350342    0.03000000    0.01000000
   17.57027817   83.61959839    0.03000000    0.01000000
   17.57361221   81.58100128    0.03000000    0.01000000
   17.57666779   85.24870300    0.03000000    0.01000000
   17.58000183   86.55660248    0.03000000    0.01000000
   17.58305550   88.91130066    0.03000000    0.01000000
   17.60027885   91.54100037    0.03000000    0.01000000
   17.60305595   88.43800354    0.03000000    0.01000000
   17.60639000   89.94709778    0.03000000    0.01000000
   17.60944557   81.50060272    0.03000000    0.01000000
   17.61277771   94.43049622    0.03000000    0.01000000
   17.61750031   94.43049622    0.03000000    0.01000000
   17.62166595   78.82460022    0.03000000    0.01000000
   17.62472153   92.56079865    0.03000000    0.01000000
   17.62805557   85.07959747    0.03000000    0.01000000
   17.63111115   92.48000336    0.03000000    0.01000000
   17.63444519   86.69450378    0.03000000    0.01000000
   17.63750076   85.67520142    0.03000000    0.01000000
   17.64083290   91.08869934    0.03000000    0.01000000
   17.64388847   96.66899872    0.03000000    0.01000000
   17.64722252   93.73249817    0.03000000    0.01000000
   17.64999962   96.86979675    0.03000000    0.01000000
   17.65083313   94.58930206    0.03000000    0.01000000
   17.65388870   97.14340210    0.03000000    0.01000000
   17.65722275   90.62689972    0.03000000    0.01000000
   17.66027832  101.20899963    0.03000000    0.01000000
   17.66361046   98.43800354    0.03000000    0.01000000
   17.66860962   98.43800354    0.03000000    0.01000000
   17.67277718   90.94850159    0.03000000    0.01000000
   17.67583275  100.18000031    0.03000000    0.01000000
   17.67916679   99.16230011    0.03000000    0.01000000
   17.68222237   86.17150116    0.03000000    0.01000000
   17.68555450   92.64270020    0.03000000    0.01000000
   17.68861008   95.89489746    0.03000000    0.01000000
   17.69194412  102.79499817    0.03000000    0.01000000
   17.69499969   92.69229889    0.03000000    0.01000000
   17.69833183   95.74179840    0.03000000    0.01000000
   17.70000076   92.95760345    0.03000000    0.01000000
   17.70194435   94.21939850    0.03000000    0.01000000
   17.70499992   94.42680359    0.03000000    0.01000000
   17.70833397   92.88379669    0.03000000    0.01000000
   17.71138954   99.46240234    0.03000000    0.01000000
   17.71472359   89.68699646    0.03000000    0.01000000
   17.71972275   89.68699646    0.03000000    0.01000000
   17.72389030   95.75910187    0.03000000    0.01000000
   17.72722244   92.34600067    0.03000000    0.01000000
   17.73027802   88.18630219    0.03000000    0.01000000
   17.73361206   91.63120270    0.03000000    0.01000000
   17.73666763   96.35790253    0.03000000    0.01000000
   17.73999977   92.59510040    0.03000000    0.01000000
   17.74305534   95.34410095    0.03000000    0.01000000
   17.74638939   96.99659729    0.03000000    0.01000000
   17.74944496   88.22170258    0.03000000    0.01000000
   17.75000000   94.45099640    0.03000000    0.01000000
   17.75305557   85.08319855    0.03000000    0.01000000
   17.75611115   93.23690033    0.03000000    0.01000000
   17.75944519   93.52729797    0.03000000    0.01000000
   17.76250076   92.49379730    0.03000000    0.01000000
   17.76583290   91.91059875    0.03000000    0.01000000
   17.77111053   91.91059875    0.03000000    0.01000000
   17.77527809   92.44049835    0.03000000    0.01000000
   17.77833366   94.66670227    0.03000000    0.01000000
   17.78166580   92.44450378    0.03000000    0.01000000
   17.78472137   90.71890259    0.03000000    0.01000000
   17.78805542   91.68029785    0.03000000    0.01000000
   17.79111099   89.86879730    0.03000000    0.01000000
   17.79444313  103.41300201    0.03000000    0.01000000
   17.79749870   98.87760162    0.03000000    0.01000000
   17.80027771   93.48090363    0.03000000    0.01000000
   17.80111122   96.77480316    0.03000000    0.01000000
   17.80444336   89.40319824    0.03000000    0.01000000
