    HOUR (UT)   FLARE FACTOR    SKY TESTER    SUN TESTER
   11.32972240   -1.00000000   -1.00000000   -1.00000000
   11.37305546   91.80979919    4.90999985    2.61999989
   11.37638855   97.45639801    4.90999985    2.61999989
   11.38111115  102.01200104    4.90999985    2.64000010
   11.38444424   92.69869995    4.90999985    2.64000010
   11.38777733   99.51000214    4.90999985    2.64000010
   11.39083290   93.35540009    4.90999985    2.64000010
   11.39416695   95.96150208    4.90999985    2.64000010
   11.39750004   96.90910339    4.90999985    2.64000010
   11.40055561   94.78289795    4.90999985    2.61999989
   11.40388870   88.54290009    4.90999985    2.61999989
   11.40583324   87.91940308    4.90999985    2.64000010
   11.40749931   92.52459717    4.90999985    2.61999989
   11.41055489   97.54250336    4.90999985    2.61999989
   11.41388893  101.05300140    4.90999985    2.64000010
   11.41722298   93.16590118    4.90999985    2.64000010
   11.42027855   97.76360321    4.90999985    2.64000010
   11.42361164   93.15650177    4.90999985    2.64000010
   11.42666721   93.13870239    4.90999985    2.64000010
   11.43000031   88.27410126    4.90999985    2.64000010
   11.43333340   93.00299835    4.90999985    2.64000010
   11.43666649   92.78649902    4.90999985    2.64000010
   11.43972206   98.32759857    4.90999985    2.64000010
   11.44305515   91.28179932    4.90999985    2.64000010
   11.44638920   89.69270325    4.90999985    2.64000010
   11.44944477   86.80940247    4.90999985    2.64000010
   11.45277786   87.17050171    4.90999985    2.64000010
   11.45583344   87.19760132    4.90999985    2.64000010
   11.45638847   87.12650299    4.90999985    2.64000010
   11.45944405   92.40589905    4.90999985    2.64000010
   11.46277714   88.35859680    4.90999985    2.66000009
   11.46611118   94.22769928    4.90999985    2.64000010
   11.46916580   96.40640259    4.90999985    2.64000010
   11.47249985   88.00820160    4.90999985    2.64000010
   11.47555542   90.47039795    4.90999985    2.64000010
   11.47888851   92.67929840    4.90999985    2.66000009
   11.48222160   88.38189697    4.90999985    2.66000009
   11.48527813   89.58219910    4.90999985    2.66000009
   11.48861122   92.32240295    4.90999985    2.66000009
   11.49194431   87.05349731    4.90999985    2.66000009
   11.49499989   89.36440277    4.90999985    2.66000009
   11.49833393   89.83740234    4.90999985    2.66000009
   11.50138855   89.42510223    4.90999985    2.66000009
   11.50472260   88.55030060    4.90999985    2.66000009
   11.50583363   86.77700043    4.90999985    2.66000009
   11.50833321   98.54340363    4.90999985    2.66000009
   11.51138878   90.19370270    4.90999985    2.67000008
   11.51472187   87.22049713    4.90999985    2.66000009
   11.51805496   86.73950195    4.90999985    2.66000009
   11.52111053   91.75920105    4.90999985    2.66000009
   11.52444458   91.10340118    4.90999985    2.66000009
   11.52750015   94.55780029    4.90999985    2.67000008
   11.53083324   92.48629761    4.90999985    2.67000008
   11.53416729   84.89089966    4.90999985    2.67000008
   11.53722286   91.43139648    4.90999985    2.66000009
   11.54055595   93.73259735    4.90999985    2.67000008
   11.54388905   90.36630249    4.90999985    2.66000009
   11.54694462   89.62819672    4.90999985    2.67000008
   11.55027771   89.29740143    4.90999985    2.67000008
   11.55333328   90.56490326    4.90999985    2.66000009
   11.55583382   91.66780090    4.90999985    2.66000009
   11.55722237   89.57499695    4.90999985    2.66000009
   11.56027794   90.47360229    4.90999985    2.67000008
   11.56361103   89.77259827    4.90999985    2.67000008
   11.56694412   85.28610229    4.90999985    2.67000008
   11.56999969   93.28079987    4.90999985    2.67000008
   11.57333374   93.70610046    4.90999985    2.67000008
   11.57666683   90.38919830    4.90999985    2.67000008
   11.57972240   90.69719696    4.90999985    2.67000008
   11.58305550   91.54949951    4.90999985    2.67000008
   11.58611107   84.94429779    4.90999985    2.67000008
   11.58944416   91.47750092    4.90999985    2.67000008
   11.59277725   86.50689697    4.90999985    2.67000008
   11.59583282   86.81240082    4.90999985    2.67000008
   11.59916592   84.25920105    4.90999985    2.67000008
   11.60249996   84.61000061    4.90999985    2.67000008
   11.60555553   89.99939728    4.90999985    2.67000008
   11.60611153   88.38359833    4.90999985    2.67000008
   11.60944462   85.19049835    4.90999985    2.69000006
   11.61277771   93.14679718    4.90999985    2.69000006
   11.61583328   94.43620300    4.90999985    2.69000006
   11.61916637   94.05410004    4.90999985    2.69000006
   11.62222195   86.88410187    4.90999985    2.69000006
   11.62555599   88.06960297    4.90999985    2.69000006
   11.62888908   90.56069946    4.90999985    2.69000006
   11.63194466   86.61959839    4.90999985    2.69000006
   11.63527775   86.93029785    4.90999985    2.69000006
   11.63861084   88.23259735    4.90999985    2.69000006
   11.64166641   83.79519653    4.90999985    2.69000006
   11.64499950   83.27799988    4.90999985    2.69000006
   11.64805508   82.32879639    4.90999985    2.69000006
   11.65138817   78.66649628    4.90999985    2.69000006
   11.65472221   84.23560333    4.90999985    2.69000006
   11.65611076   82.71880341    4.90999985    2.69000006
   11.65833282   84.44950104    4.90999985    2.69000006
   11.66166592   85.80740356    4.90999985    2.69000006
   11.66472149   84.78849792    4.90999985    2.71000004
   11.66805553   84.64859772    4.90999985    2.71000004
   11.67111111   82.23449707    4.90999985    2.69000006
   11.67444515   86.83670044    4.90999985    2.69000006
   11.67777824   82.21279907    4.90999985    2.69000006
   11.68083382   81.43959808    4.90999985    2.69000006
   11.68416691   89.44899750    4.90999985    2.69000006
   11.68750000   83.92690277    4.90999985    2.71000004
   11.69055557   86.86889648    4.90999985    2.69000006
   11.69388866   89.16960144    4.90999985    2.69000006
   11.69694424   86.34580231    4.90999985    2.71000004
   11.70027733   86.36119843    4.90999985    2.69000006
   11.70361137   83.49849701    4.90999985    2.71000004
   11.70611095   84.02660370    4.90999985    2.71000004
   11.70722198   89.55899811    4.90999985    2.71000004
   11.71055508   83.50569916    4.90999985    2.71000004
   11.71361065   79.39830017    4.90999985    2.71000004
   11.71694374   90.67079926    4.90999985    2.71000004
   11.71999931   85.48889923    4.90999985    2.71000004
   11.72333336   85.90599823    4.90999985    2.71000004
   11.72666645   90.23799896    4.90999985    2.71000004
   11.72972202   81.66320038    4.90999985    2.71000004
   11.73305511   86.77140045    4.90999985    2.71000004
   11.73638916   81.09110260    4.90999985    2.71000004
   11.73944473   82.04730225    4.90999985    2.71000004
   11.74277782   77.18170166    4.90999985    2.71000004
   11.74583340   76.55619812    4.90999985    2.71000004
   11.74916649   78.50090027    4.90999985    2.71000004
   11.75249958   81.34709930    4.90999985    2.71000004
   11.75555515   81.73290253    4.90999985    2.71000004
   11.75611115   79.01370239    4.90999985    2.71000004
   11.75916672   79.08000183    4.90999985    2.71000004
   11.76249981   81.23950195    4.90999985    2.71000004
   11.76555538   81.36579895    4.90999985    2.71000004
   11.76888847   79.10630035    4.90999985    2.71000004
   11.77194405   76.84110260    4.90999985    2.73000002
   11.77527714   77.79920197    4.90999985    2.71000004
   11.77861118   81.77590179    4.90999985    2.71000004
   11.78166676   82.89659882    4.90999985    2.71000004
   11.78500080   79.38760376    4.90999985    2.73000002
   11.78833389   83.08589935    4.90999985    2.73000002
   11.79138947   79.50319672    4.90999985    2.71000004
   11.79472256   82.32980347    4.90999985    2.73000002
   11.79777813   80.07450104    4.90999985    2.73000002
   11.80111122   81.50800323    4.90999985    2.71000004
   11.80444431   76.27850342    4.90999985    2.73000002
   11.80611134   77.31800079    4.90999985    2.73000002
   11.80805588   80.38040161    4.90999985    2.73000002
   11.81138897   80.19029999    4.90999985    2.73000002
   11.81444454   77.42690277    4.90999985    2.73000002
   11.81777763   81.51940155    4.90999985    2.73000002
   11.82111073   81.34909821    4.90999985    2.73000002
   11.82416630   81.29660034    4.90999985    2.73000002
   11.82750034   76.06520081    4.90999985    2.73000002
   11.83055592   78.17060089    4.90999985    2.73000002
   11.83388901   81.69650269    4.90999985    2.73000002
   11.83722210   82.90429688    4.90999985    2.73000002
   11.84027767   79.70300293    4.90999985    2.75000000
   11.84361076   76.45890045    4.90999985    2.73000002
   11.84694386   86.95709991    4.90999985    2.75000000
   11.85000038   79.05680084    4.90999985    2.73000002
   11.85333347   76.23049927    4.90999985    2.73000002
   11.85611153   78.84040070    4.90999985    2.75000000
   11.85694504   81.33300018    4.90999985    2.75000000
   11.86027813   82.27770233    4.90999985    2.73000002
   11.86333370   79.41149902    4.90999985    2.73000002
   11.86666679   83.65360260    4.90999985    2.75000000
   11.86999989   80.64199829    4.90999985    2.75000000
   11.87305546   80.94249725    4.90999985    2.75000000
   11.87638855   78.34369659    4.90999985    2.75000000
   11.87944412   78.13529968    4.90999985    2.75000000
   11.88277817   75.60659790    4.90999985    2.75000000
   11.88611126   78.80020142    4.90999985    2.73000002
   11.88916683   81.74400330    4.90999985    2.73000002
   11.89249992   81.53430176    4.90999985    2.75000000
   11.89583302   77.85829926    4.90999985    2.73000002
   11.89888859   79.77469635    4.90999985    2.73000002
   11.90222168   78.40380096    4.90999985    2.75000000
   11.90527725   78.60079956    4.90999985    2.75000000
   11.90611076   78.53690338    4.90999985    2.75000000
   11.90888882   78.39240265    4.90999985    2.75000000
   11.91222191   83.20110321    4.90999985    2.75000000
   11.91527748   75.40730286    4.90999985    2.75000000
   11.91861153   78.86119843    4.90999985    2.73000002
   11.92194462   83.31279755    4.90999985    2.75000000
   11.92500019   77.32489777    4.90999985    2.75000000
   11.92833328   75.18219757    4.90999985    2.75000000
   11.93166733   73.55139923    4.90999985    2.75000000
   11.93472195   79.01429749    4.90999985    2.75000000
   11.93805599   73.65139771    4.90999985    2.75000000
   11.94111156   81.22440338    4.90999985    2.75000000
   11.94444466   77.05729675    4.90999985    2.75000000
   11.94777775   78.63680267    4.90999985    2.75000000
   11.95083332   81.88610077    4.90999985    2.75000000
   11.95416641   80.22830200    4.90999985    2.75000000
   11.95611095   78.71089935    4.90999985    2.75000000
   11.95777798   76.26650238    4.90999985    2.75000000
   11.96111107   76.04399872    4.90999985    2.75000000
   11.96416664   74.68620300    4.90999985    2.75000000
   11.96749973   81.23040009    4.90999985    2.75000000
   11.97083282   80.51390076    4.90999985    2.75000000
   11.97388840   80.80879974    4.90999985    2.75000000
   11.97722149   78.56549835    4.90999985    2.75000000
   11.98027706   76.87529755    4.90999985    2.75000000
   11.98361111   75.75659943    4.90999985    2.75000000
   11.98694515   78.10980225    4.90999985    2.76999998
   11.99000072   79.15339661    4.90999985    2.75000000
   11.99333382   80.91210175    4.90999985    2.76999998
   11.99666691   74.80970001    4.90999985    2.76999998
   11.99972248   78.83350372    4.90999985    2.76999998
   12.00305557   75.94029999    4.90999985    2.76999998
   12.00638866   78.14830017    4.90999985    2.75000000
   12.00666714   76.46140289    4.90999985    2.76999998
   12.01000023   80.79940033    4.90999985    2.76999998
   12.01305580   79.53559875    4.90999985    2.76999998
   12.01638889   83.68830109    4.90999985    2.76999998
   12.01972198   78.88839722    4.90999985    2.76999998
   12.02277756   76.46910095    4.90999985    2.76999998
   12.02666664   76.85109711    4.90999985    2.76999998
   12.03027725   76.52210236    4.90999985    2.76999998
   12.03361130   76.68890381    4.90999985    2.76999998
   12.03694534   75.54060364    4.90999985    2.76999998
   12.04138947   79.08740234    4.90999985    2.76999998
   12.04500008   84.42369843    4.90999985    2.78999996
   12.04888916   74.14399719    4.90999985    2.76999998
   12.05222225   78.05909729    4.90999985    2.76999998
   12.05611134   78.75090027    4.90999985    2.76999998
   12.05888939   78.25789642    4.90999985    2.76999998
   12.06277752   80.63749695    4.90999985    2.76999998
   12.06694412   78.18659973    4.90999985    2.76999998
   12.07055569   75.54910278    4.90999985    2.76999998
   12.07416630   80.26989746    4.90999985    2.76999998
   12.07805538   78.03369904    4.90999985    2.76999998
   12.08138847   78.36399841    4.90999985    2.78999996
   12.08472157   76.43270111    4.90999985    2.78999996
   12.08805561   74.60240173    4.90999985    2.78999996
   12.09111118   78.52359772    4.90999985    2.76999998
   12.09444427   75.60980225    4.90999985    2.78999996
   12.09777737   78.36720276    4.90999985    2.78999996
   12.10111141   81.05130005    4.90999985    2.76999998
   12.10416698   78.99810028    4.90999985    2.78999996
   12.10666752   80.63490295    4.90999985    2.78999996
   12.10833359   80.16200256    4.90999985    2.78999996
   12.11138916   77.07550049    4.90999985    2.78999996
   12.11472225   76.39469910    4.90999985    2.80999994
   12.11805534   82.60590363    4.90999985    2.78999996
   12.12111092   75.42720032    4.90999985    2.76999998
   12.12444496   77.57679749    4.90999985    2.78999996
   12.12777805   76.89199829    4.90999985    2.78999996
   12.13111115   79.41249847    4.90999985    2.78999996
   12.13444424   81.78990173    4.90999985    2.78999996
   12.13749981   73.80280304    4.90999985    2.78999996
   12.14083290   79.19480133    4.90999985    2.78999996
   12.14416695   77.33049774    4.90999985    2.78999996
   12.14750004   76.50260162    4.90999985    2.78999996
   12.15083313   76.62689972    4.90999985    2.78999996
   12.15416622   76.10489655    4.90999985    2.78999996
   12.15666676   80.36150360    4.90999985    2.78999996
   12.15777779   77.37400055    4.90999985    2.78999996
   12.16194439   74.67829895    4.90999985    2.78999996
   12.16555500   75.00140381    4.90999985    2.78999996
   12.16944504   77.76090240    4.90999985    2.80999994
   12.17305565   76.83730316    4.90999985    2.78999996
   12.17638874   72.67320251    4.90999985    2.78999996
   12.17972279   74.13719940    4.90999985    2.80999994
   12.18305588   75.14350128    4.90999985    2.78999996
   12.18638897   84.35340118    4.90999985    2.78999996
   12.18972206   78.08920288    4.90999985    2.80999994
   12.19333363   81.59529877    4.90999985    2.80999994
   12.19666672   77.45600128    4.90999985    2.80999994
   12.19999981   77.14859772    4.90999985    2.80999994
   12.20361137   75.24130249    4.90999985    2.80999994
   12.20694447   78.58190155    4.90999985    2.80999994
   12.20749950   77.91840363    4.90999985    2.80999994
   12.21083355   81.11319733    4.90999985    2.80999994
   12.21416664   76.60739899    4.90999985    2.80999994
   12.21749973   76.43779755    4.90999985    2.80999994
   12.22111034   76.44360352    4.90999985    2.80999994
   12.22444439   75.27369690    4.90999985    2.78999996
   12.22777748   78.75990295    4.90999985    2.80999994
   12.23111057   77.38449860    4.90999985    2.78999996
   12.23444462   74.97940063    4.90999985    2.80999994
   12.23777771   76.56279755    4.90999985    2.80999994
   12.24111176   81.32949829    4.90999985    2.80999994
   12.24472237   75.79360199    4.90999985    2.80999994
   12.24777794   77.55069733    4.90999985    2.80999994
   12.25111103   76.79309845    4.90999985    2.80999994
   12.25472260   75.52940369    4.90999985    2.80999994
   12.25694466   83.49250031    4.90999985    2.80999994
   12.25861073   78.35890198    4.90999985    2.82999992
   12.26194477   75.46099854    4.90999985    2.80999994
   12.26500034   76.95790100    4.90999985    2.80999994
   12.26833344   76.88880157    4.90999985    2.80999994
   12.27166653   84.21540070    4.90999985    2.80999994
   12.27472210   79.06330109    4.90999985    2.80999994
   12.27805519   76.69619751    4.90999985    2.80999994
   12.28138828   78.57879639    4.90999985    2.80999994
   12.28444481   81.69110107    4.90999985    2.80999994
   12.28777790   78.53289795    4.90999985    2.82999992
   12.29083347   77.37580109    4.90999985    2.82999992
   12.29416752   78.47979736    4.90999985    2.82999992
   12.29750061   76.83260345    4.90999985    2.80999994
   12.30055618   77.26100159    4.90999985    2.80999994
   12.30388927   76.51200104    4.90999985    2.80999994
   12.30666733   74.59369659    4.90999985    2.82999992
   12.30749989   87.42120361    4.90999985    2.82999992
   12.31083393   78.79900360    4.90999985    2.80999994
   12.31388950   77.58419800    4.90999985    2.80999994
   12.31722260   75.27459717    4.90999985    2.82999992
   12.32055569   77.38259888    4.90999985    2.80999994
   12.32361126   76.29429626    4.90999985    2.82999992
   12.32694435   75.67269897    4.90999985    2.82999992
   12.32999992   76.18219757    4.90999985    2.82999992
   12.33333302   77.10070038    4.90999985    2.82999992
   12.33666611   78.47789764    4.90999985    2.82999992
   12.33972168   78.49790192    4.90999985    2.82999992
   12.34305477   78.06500244    4.90999985    2.82999992
   12.34638882   75.56849670    4.90999985    2.82999992
   12.34944439   77.61589813    4.90999985    2.80999994
   12.35277843   77.54460144    4.90999985    2.80999994
   12.35611153   74.19740295    4.90999985    2.82999992
   12.35666752   76.49240112    4.90999985    2.82999992
   12.35972214   75.57350159    4.90999985    2.82999992
   12.36305618   77.01480103    4.90999985    2.82999992
   12.36611176   73.73190308    4.90999985    2.82999992
   12.36944485   77.29489899    4.90999985    2.82999992
   12.38916683   78.63899994    4.90999985    2.82999992
   12.39249992   80.10420227    4.90999985    2.82999992
   12.39555550   79.72840118    4.90999985    2.82999992
   12.39888859   78.80909729    4.90999985    2.84999990
   12.40194416   81.70760345    4.90999985    2.82999992
   12.40527725   79.15840149    4.90999985    2.82999992
   12.40694427   75.40129852    4.90999985    2.82999992
   12.40888882   81.19180298    4.90999985    2.82999992
   12.41194439   79.82929993    4.90999985    2.84999990
   12.41527748   76.19770050    4.90999985    2.82999992
   12.41833401   78.51439667    4.90999985    2.82999992
   12.42166710   75.48639679    4.90999985    2.82999992
   12.42500019   78.65299988    4.90999985    2.84999990
   12.42805576   75.26200104    4.90999985    2.84999990
   12.43138885   78.48380280    4.90999985    2.84999990
   12.43444443   81.70829773    4.90999985    2.84999990
   12.43777752   79.05449677    4.90999985    2.84999990
   12.44111156   75.80169678    4.90999985    2.82999992
   12.44416714   75.91459656    4.90999985    2.84999990
   12.44750023   78.09100342    4.90999985    2.84999990
   12.45083332   77.94339752    4.90999985    2.84999990
   12.45388889   75.31749725    4.90999985    2.82999992
   12.45694447   76.57730103    4.90999985    2.84999990
   12.45777798   77.27700043    4.90999985    2.84999990
   12.46083355   80.06240082    4.90999985    2.84999990
   12.46416664   78.41040039    4.90999985    2.84999990
   12.46722221   79.21990204    4.90999985    2.84999990
   12.47055531   82.35189819    4.90999985    2.84999990
   12.47388840   83.62609863    4.90999985    2.84999990
   12.47694397   81.21630096    4.90999985    2.84999990
   12.48027706   83.61090088    4.90999985    2.84999990
   12.48333359   82.46520233    4.90999985    2.84999990
   12.48666668   80.92169952    4.90999985    2.84999990
   12.49000072   77.41300201    4.90999985    2.84999990
   12.49305534   78.80149841    4.90999985    2.84999990
   12.49638939   81.37709808    4.90999985    2.84999990
   12.49944496   77.84829712    4.90999985    2.84999990
   12.50277805   75.41809845    4.90999985    2.84999990
   12.50611115   75.52929688    4.90999985    2.84999990
   12.50694466   76.94969940    4.90999985    2.84999990
   12.50972176   75.28469849    4.90999985    2.84999990
   12.51277733   74.39279938    4.90999985    2.84999990
   12.51611137   76.67279816    4.90999985    2.84999990
   12.51916599   77.17009735    4.90999985    2.84999990
   12.52250004   78.28220367    4.90999985    2.84999990
   12.52583313   79.59339905    4.90999985    2.84999990
   12.52888870   75.62220001    4.90999985    2.84999990
   12.53222179   75.33070374    4.90999985    2.84999990
   12.53527832   76.06379700    4.90999985    2.86999989
   12.53861141   78.12650299    4.90999985    2.84999990
   12.54194450   74.61239624    4.90999985    2.84999990
   12.54500008   77.03540039    4.90999985    2.84999990
   12.54833412   73.38870239    4.90999985    2.84999990
   12.55166721   74.02570343    4.90999985    2.84999990
   12.55472279   76.29879761    4.90999985    2.84999990
   12.55694485   76.41059875    4.90999985    2.84999990
   12.55861092   76.70200348    4.90999985    2.84999990
   12.56166649   76.41130066    4.90999985    2.84999990
   12.56500053   75.02549744    4.90999985    2.86999989
   12.56805515   77.80660248    4.90999985    2.84999990
   12.57138920   76.15070343    4.90999985    2.86999989
   12.57472229   76.92169952    4.90999985    2.84999990
   12.57777786   75.53179932    4.90999985    2.86999989
   12.58111095   76.88500214    4.90999985    2.84999990
   12.58444405   76.11360168    4.90999985    2.84999990
   12.58749962   76.00499725    4.90999985    2.84999990
   12.59083271   72.25170135    4.90999985    2.86999989
   12.59388828   72.51119995    4.90999985    2.84999990
   12.59722233   75.22940063    4.90999985    2.86999989
   12.60055637   73.99960327    4.90999985    2.86999989
   12.60361195   72.85870361    4.90999985    2.86999989
   12.60694504   75.36820221    4.90999985    2.86999989
   12.60750008   77.89769745    4.90999985    2.86999989
   12.61055565   77.03949738    4.90999985    2.86999989
   12.61388969   73.95899963    4.90999985    2.86999989
   12.61694431   74.06809998    4.90999985    2.86999989
   12.62027836   76.12909698    4.90999985    2.86999989
   12.62361145   74.44120026    4.90999985    2.86999989
   12.62666702   77.81739807    4.90999985    2.84999990
   12.63000011   78.11289978    4.90999985    2.84999990
   12.63333321   79.42340088    4.90999985    2.86999989
   12.63638878   78.70159912    4.90999985    2.86999989
   12.63972187   74.45490265    4.90999985    2.86999989
   12.64277744   77.74900055    4.90999985    2.86999989
   12.64611053   75.84400177    4.90999985    2.86999989
   12.64944458   76.83429718    4.90999985    2.86999989
   12.65249920   77.74449921    4.90999985    2.86999989
   12.65583324   74.80639648    4.90999985    2.84999990
   12.65694427   77.43419647    4.90999985    2.86999989
   12.65944386   74.83670044    4.90999985    2.86999989
   12.66249943   76.03749847    4.90999985    2.86999989
   12.66583252   73.80069733    4.90999985    2.86999989
   12.66916656   75.29119873    4.90999985    2.86999989
   12.67222214   78.62120056    4.90999985    2.86999989
   12.67555618   76.19249725    4.90999985    2.86999989
   12.67861176   77.39769745    4.90999985    2.86999989
   12.68194485   76.92389679    4.90999985    2.86999989
   12.68527794   79.22989655    4.90999985    2.86999989
   12.68833351   74.45870209    4.90999985    2.86999989
   12.69166660   77.18319702    4.90999985    2.86999989
   12.69499969   81.68139648    4.90999985    2.86999989
   12.69805527   85.67310333    4.90999985    2.86999989
   12.70138836   77.53610229    4.90999985    2.86999989
   12.70444393   75.47029877    4.90999985    2.86999989
   12.70694447   76.51349640    4.90999985    2.86999989
   12.70833302   73.14029694    4.90999985    2.86999989
   12.71138859   76.17800140    4.90999985    2.89000010
   12.71472168   73.40390015    4.90999985    2.86999989
   12.71805477   73.31639862    4.90999985    2.89000010
   12.72111034   77.79570007    4.90999985    2.86999989
   12.72444439   73.64630127    4.90999985    2.89000010
   12.72777748   75.00910187    4.90999985    2.86999989
   12.73083305   74.61820221    4.90999985    2.86999989
   12.73416710   76.21430206    4.90999985    2.89000010
   12.73722267   78.17649841    4.90999985    2.86999989
   12.74055576   76.37870026    4.90999985    2.86999989
   12.74388885   75.17539978    4.90999985    2.89000010
   12.74694443   75.67009735    4.90999985    2.86999989
   12.75027752   75.34600067    4.90999985    2.89000010
   12.75361156   76.35980225    4.90999985    2.89000010
   12.75666714   76.60620117    4.90999985    2.86999989
   12.75722218   77.44300079    4.90999985    2.86999989
   12.76055527   74.44950104    4.90999985    2.86999989
   12.76361084   73.99530029    4.90999985    2.86999989
   12.76694393   78.58029938    4.90999985    2.86999989
   12.77027798   76.92289734    4.90999985    2.86999989
   12.77333355   74.59010315    4.90999985    2.86999989
   12.77666664   76.08100128    4.90999985    2.86999989
   12.77999973   80.73010254    4.90999985    2.86999989
   12.78305531   75.09059906    4.90999985    2.89000010
   12.78638935   75.72219849    4.90999985    2.86999989
   12.78944492   76.67160034    4.90999985    2.86999989
   12.79277802   78.39060211    4.90999985    2.89000010
   12.79611111   73.39659882    4.90999985    2.89000010
   12.79916668   77.09680176    4.90999985    2.89000010
   12.80249977   73.05560303    4.90999985    2.89000010
   12.80583382   74.49140167    4.90999985    2.89000010
   12.80722237   73.57869720    4.90999985    2.89000010
   12.80944443   76.06390381    4.90999985    2.89000010
   12.81250000   72.99250031    4.90999985    2.89000010
   12.81583309   73.90529633    4.90999985    2.89000010
   12.81916618   72.44429779    4.90999985    2.89000010
   12.82222176   77.79609680    4.90999985    2.91000009
   12.82555580   72.93550110    4.90999985    2.89000010
   12.82888889   72.10780334    4.90999985    2.89000010
   12.83194447   75.07450104    4.90999985    2.91000009
   12.83527756   76.96189880    4.90999985    2.89000010
   12.83833313   74.37090302    4.90999985    2.89000010
   12.84166622   74.89510345    4.90999985    2.86999989
   12.84499931   71.18060303    4.90999985    2.89000010
   12.84805489   76.44470215    4.90999985    2.86999989
   12.85138893   78.26609802    4.90999985    2.89000010
   12.85472298   77.24150085    4.90999985    2.89000010
   12.85722256   71.20649719    4.90999985    2.89000010
   12.85833359   71.45359802    4.90999985    2.89000010
   12.86138916   73.98840332    4.90999985    2.89000010
   12.86472225   74.09420013    4.90999985    2.89000010
   12.86805534   77.28299713    4.90999985    2.89000010
   12.87111092   78.13069916    4.90999985    2.89000010
   12.87444496   75.87190247    4.90999985    2.91000009
   12.87777805   75.41329956    4.90999985    2.91000009
   12.88083363   74.38780212    4.90999985    2.91000009
   12.88416672   75.02770233    4.90999985    2.91000009
   12.88722229   76.34739685    4.90999985    2.91000009
   12.89055538   76.79329681    4.90999985    2.91000009
   12.89388847   75.02999878    4.90999985    2.91000009
   12.89694405   73.92489624    4.90999985    2.89000010
   12.90027714   72.74289703    4.90999985    2.91000009
   12.90361118   73.26309967    4.90999985    2.89000010
   12.90666676   75.68599701    4.90999985    2.89000010
   12.90722179   77.05290222    4.90999985    2.89000010
   12.91027737   73.39689636    4.90999985    2.89000010
   12.91333294   74.84410095    4.90999985    2.91000009
   12.91666698   74.01740265    4.90999985    2.89000010
   12.92000008   73.15360260    4.90999985    2.91000009
   12.92305565   80.75229645    4.90999985    2.91000009
   12.92638874   79.87449646    4.90999985    2.91000009
   12.92972279   73.74530029    4.90999985    2.89000010
   12.93277836   74.23069763    4.90999985    2.91000009
   12.93611145   75.38829803    4.90999985    2.89000010
   12.93916702   76.26850128    4.90999985    2.91000009
   12.94250011   79.38390350    4.90999985    2.89000010
   12.94583321   80.03450012    4.90999985    2.91000009
   12.94888878   76.00050354    4.90999985    2.91000009
   12.95222187   77.85199738    4.90999985    2.91000009
   12.95555496   88.13950348    4.90999985    2.89000010
   12.95722198   81.45200348    4.90999985    2.89000010
   12.95916653   78.76860046    4.90999985    2.91000009
   12.96222210   77.96250153    4.90999985    2.91000009
   12.96555519   81.59140015    4.90999985    2.89000010
   12.96888828   77.55560303    4.90999985    2.91000009
   12.97194386   73.23770142    4.90999985    2.91000009
   12.97527695   78.55280304    4.90999985    2.89000010
   12.97861099   84.88400269    4.90999985    2.91000009
   12.98166656   76.54519653    4.90999985    2.91000009
   12.98500061   80.02179718    4.90999985    2.91000009
   12.98805618   78.12129974    4.90999985    2.91000009
   12.99138927   80.00389862    4.90999985    2.91000009
   12.99472237   82.58229828    4.90999985    2.89000010
   12.99777794   82.48139954    4.90999985    2.91000009
   13.00111103   80.53939819    4.90999985    2.91000009
   13.00444412   83.99520111    4.90999985    2.91000009
   13.00722218   78.72930145    4.90999985    2.91000009
   13.00805569   82.52919769    4.90999985    2.91000009
   13.01138878   86.06009674    4.90999985    2.89000010
   13.01444435   84.34510040    4.90999985    2.89000010
   13.01777744   84.92549896    4.90999985    2.91000009
   13.02083302   92.41000366    4.90999985    2.93000007
   13.02416611   87.38670349    4.90999985    2.91000009
   13.02750015   85.95040131    4.90999985    2.91000009
   13.03083324   80.84249878    4.90999985    2.91000009
   13.03388977   89.05439758    4.90999985    2.91000009
   13.03722286   89.34889984    4.90999985    2.91000009
   13.04027843  100.05000305    4.90999985    2.91000009
   13.04361153   95.03369904    4.90999985    2.91000009
   13.04694462   99.76309967    4.90999985    2.91000009
   13.05000019   90.53179932    4.90999985    2.91000009
   13.05333328   87.40589905    4.90999985    2.91000009
   13.05666733   89.37629700    4.90999985    2.91000009
   13.05722237   88.84729767    4.90999985    2.91000009
   13.06027794   84.08309937    4.90999985    2.91000009
   13.06333351   86.84909821    4.90999985    2.93000007
   13.06666660   90.41069794    4.90999985    2.91000009
   13.06999969   86.74269867    4.90999985    2.93000007
   13.07305527   83.80829620    4.90999985    2.93000007
   13.07638836   79.10359955    4.90999985    2.91000009
   13.07944393   78.21430206    4.90999985    2.89000010
   13.08277798   86.73079681    4.90999985    2.93000007
   13.08611107   88.70249939    4.90999985    2.93000007
   13.08916664   87.06670380    4.90999985    2.93000007
   13.09249973   87.08650208    4.90999985    2.93000007
   13.09583282   87.52420044    4.90999985    2.91000009
   13.09888840   84.83650208    4.90999985    2.93000007
   13.10222244   89.42199707    4.90999985    2.91000009
   13.10527802   90.46679688    4.90999985    2.91000009
   13.10722256   83.98660278    4.90999985    2.91000009
   13.10888958   85.12439728    4.90999985    2.91000009
   13.11222267   82.24389648    4.90999985    2.93000007
   13.11527824   87.15640259    4.90999985    2.91000009
   13.11861134   93.62409973    4.90999985    2.93000007
   13.12166691   86.98349762    4.90999985    2.93000007
   13.12500000   94.55930328    4.90999985    2.91000009
   13.12833309   81.18470001    4.90999985    2.91000009
   13.13138866   86.07319641    4.90999985    2.93000007
   13.13472176   86.71920013    4.90999985    2.91000009
   13.13805580   80.55639648    4.90999985    2.91000009
   13.14111137   81.24649811    4.90999985    2.91000009
   13.14444447   89.75129700    4.90999985    2.93000007
   13.14777756   82.93299866    4.90999985    2.93000007
   13.15083313   88.91069794    4.90999985    2.91000009
   13.15416622   82.82460022    4.90999985    2.93000007
   13.15722179   81.79360199    4.90999985    2.93000007
   13.15777779   84.95860291    4.90999985    2.93000007
   13.16111088   91.78320313    4.90999985    2.93000007
   13.16416645   86.62770081    4.90999985    2.93000007
   13.16750050   81.80609894    4.90999985    2.93000007
   13.17055607   83.76490021    4.90999985    2.93000007
   13.17388916   85.91770172    4.90999985    2.93000007
   13.17722225   82.52950287    4.90999985    2.93000007
   13.18027782   82.45909882    4.90999985    2.93000007
   13.18361092   84.11599731    4.90999985    2.93000007
   13.18666649   81.09970093    4.90999985    2.93000007
   13.19000053   88.01000214    4.90999985    2.94000006
   13.19333363   82.90869904    4.90999985    2.93000007
   13.19638920   86.83860016    4.90999985    2.93000007
   13.19972229   83.41290283    4.90999985    2.93000007
   13.20277786   88.24030304    4.90999985    2.93000007
   13.20611095   90.30819702    4.90999985    2.93000007
   13.20722198   85.68109894    4.90999985    2.93000007
   13.20972157   85.18810272    4.90999985    2.93000007
   13.21305561   82.87270355    4.90999985    2.93000007
   13.21611118   88.21099854    4.90999985    2.93000007
   13.21944427   82.40110016    4.90999985    2.93000007
   13.22277737   88.74230194    4.90999985    2.94000006
   13.22583294   77.78340149    4.90999985    2.94000006
   13.22916603   87.63469696    4.90999985    2.94000006
   13.23222160   87.70600128    4.90999985    2.93000007
   13.23555565   83.44159698    4.90999985    2.93000007
   13.23888874   79.17269897    4.90999985    2.93000007
   13.24194431   81.58190155    4.90999985    2.93000007
   13.24527836   84.01069641    4.90999985    2.93000007
   13.24833393   80.82839966    4.90999985    2.93000007
   13.25166702   84.15840149    4.90999985    2.93000007
   13.25500011   81.93019867    4.90999985    2.93000007
   13.25749969   81.24130249    4.90999985    2.94000006
   13.25861073   79.75589752    4.90999985    2.93000007
   13.26194477   80.80090332    4.90999985    2.94000006
   13.26500034   81.49780273    4.90999985    2.93000007
   13.26833344   83.57620239    4.90999985    2.93000007
   13.27166653   89.57569885    4.90999985    2.93000007
   13.27472210   76.17279816    4.90999985    2.94000006
   13.27805519   81.41750336    4.90999985    2.93000007
   13.28111076   80.17559814    4.90999985    2.93000007
   13.28444481   84.60820007    4.90999985    2.93000007
   13.28777790   86.28489685    4.90999985    2.93000007
   13.29083347   79.98519897    4.90999985    2.93000007
   13.29416752   82.02239990    4.90999985    2.93000007
   13.29722309   76.75270081    4.90999985    2.93000007
   13.30055618   71.90360260    4.90999985    2.93000007
   13.30388927   79.96610260    4.90999985    2.93000007
   13.30694485   80.89600372    4.90999985    2.93000007
   13.30749989   81.65950012    4.90999985    2.93000007
   13.31055546   73.62640381    4.90999985    2.94000006
   13.31361103   81.28350067    4.90999985    2.94000006
   13.31694412   81.22180176    4.90999985    2.93000007
   13.31999969   77.47840118    4.90999985    2.93000007
   13.32333374   81.08480072    4.90999985    2.93000007
   13.32666683   82.73500061    4.90999985    2.93000007
   13.32972240   83.39739990    4.90999985    2.98000002
   13.33305550   83.48629761    4.90999985    2.94000006
   13.33611107   81.86990356    4.90999985    2.93000007
   13.33944416   78.00569916    4.90999985    2.94000006
   13.34249973   82.21540070    4.90999985    2.96000004
   13.34583282   79.22119904    4.90999985    2.94000006
   13.34916592   84.04360199    4.90999985    2.94000006
   13.35222244   84.21250153    4.90999985    2.93000007
   13.35555553   79.87460327    4.90999985    2.94000006
   13.35750008   85.05300140    4.90999985    2.94000006
   13.35916710   80.58670044    4.90999985    2.93000007
   13.36222267   83.73030090    4.90999985    2.94000006
   13.36555576   84.02330017    4.90999985    2.93000007
   13.36888885   76.37000275    4.90999985    2.94000006
   13.37194443   80.52110291    4.90999985    2.94000006
   13.37527752   81.06199646    4.90999985    2.94000006
   13.37861156   84.72429657    4.90999985    2.94000006
   13.38166714   83.81929779    4.90999985    2.93000007
   13.38500023   78.36049652    4.90999985    2.94000006
   13.38805580   82.95249939    4.90999985    2.94000006
   13.40777779   83.47579956    4.90999985    2.94000006
   13.40805531   84.35209656    4.90999985    2.94000006
   13.41138840   83.84829712    4.90999985    2.94000006
   13.41472149   79.91870117    4.90999985    2.94000006
   13.41777802   82.69719696    4.90999985    2.94000006
   13.42111111   83.38770294    4.90999985    2.94000006
   13.42444515   81.64890289    4.90999985    2.94000006
   13.42750072   89.40809631    4.90999985    2.94000006
   13.43083382   82.84700012    4.90999985    2.94000006
   13.43388939   81.26989746    4.90999985    2.94000006
   13.43722248   79.18869781    4.90999985    2.94000006
   13.44055557   78.49359894    4.90999985    2.94000006
   13.44361115   75.62770081    4.90999985    2.94000006
   13.44694424   91.31659698    4.90999985    2.94000006
   13.45027733   86.18409729    4.90999985    2.94000006
   13.45333290   77.94560242    4.90999985    2.94000006
   13.45666695   85.78890228    4.90999985    2.94000006
   13.45749950   79.97779846    4.90999985    2.93000007
   13.46027756   81.67240143    4.90999985    2.94000006
   13.46361065   80.80120087    4.90999985    2.94000006
   13.46666622   77.51370239    4.90999985    2.94000006
   13.46999931   79.31909943    4.90999985    2.94000006
   13.47333336   73.79949951    4.90999985    2.94000006
   13.47638798   83.10520172    4.90999985    2.93000007
   13.47972202   81.84320068    4.90999985    2.94000006
   13.48277760   77.81020355    4.90999985    2.94000006
   13.48611164   77.20709991    4.90999985    2.93000007
   13.48944473   82.24770355    4.90999985    2.93000007
   13.49250031   78.26219940    4.90999985    2.94000006
   13.49583340   82.75129700    4.90999985    2.94000006
   13.49916649   78.62719727    4.90999985    2.94000006
   13.50222206   75.69680023    4.90999985    2.94000006
   13.50555515   76.51660156    4.90999985    2.94000006
   13.50749969   79.47389984    4.90999985    2.94000006
   13.50916672   86.47229767    4.90999985    2.94000006
   13.51249981   85.45220184    4.90999985    2.94000006
   13.51555538   73.17209625    4.90999985    2.94000006
   13.51888847   79.03079987    4.90999985    2.94000006
   13.52222157   83.94999695    4.90999985    2.94000006
   13.52527714   85.17829895    4.90999985    2.96000004
   13.52861118   83.10980225    4.90999985    2.94000006
   13.53166676   80.27899933    4.90999985    2.94000006
   13.53500080   85.45010376    4.90999985    2.94000006
   13.53833389   77.81089783    4.90999985    2.93000007
   13.54138947   78.89189911    4.90999985    2.94000006
   13.54472256   84.80870056    4.90999985    2.94000006
   13.54777813   81.65850067    4.90999985    2.94000006
   13.55111122   79.33619690    4.90999985    2.94000006
   13.55444431   78.26450348    4.90999985    2.94000006
   13.55777836   83.26119995    4.90999985    2.93000007
   13.55805588   81.75879669    4.90999985    2.93000007
   13.56138897   77.55490112    4.90999985    2.94000006
   13.56444454   76.90460205    4.90999985    2.94000006
   13.56777763   74.72799683    4.90999985    2.94000006
   13.57111073   77.83550262    4.90999985    2.94000006
   13.57416630   78.72499847    4.90999985    2.94000006
   13.57750034   79.97609711    4.90999985    2.94000006
   13.58083344   76.45469666    4.90999985    2.93000007
   13.58388901   77.77600098    4.90999985    2.94000006
   13.58722210   78.16600037    4.90999985    2.94000006
   13.59027767   75.61699677    4.90999985    2.94000006
   13.59361076   78.38259888    4.90999985    2.94000006
   13.59694386   75.02960205    4.90999985    2.94000006
   13.60000038   78.82369995    4.90999985    2.94000006
   13.60333347   77.28890228    4.90999985    2.94000006
   13.60666752   75.13430023    4.90999985    2.93000007
   13.60805607   82.13140106    4.90999985    2.94000006
   13.61083412   78.88649750    4.90999985    2.98000002
   13.61388969   81.96790314    4.90999985    2.94000006
   13.61722279   76.14450073    4.90999985    2.94000006
   13.62027836   84.85870361    4.90999985    2.93000007
   13.62361145   85.84829712    4.90999985    2.94000006
   13.62694454   84.33789825    4.90999985    2.94000006
   13.63000011   84.55180359    4.90999985    2.94000006
   13.63333321   84.82859802    4.90999985    2.94000006
   13.63638878   81.81510162    4.90999985    2.94000006
   13.63972187   75.26339722    4.90999985    2.94000006
   13.64305496   78.20790100    4.90999985    2.94000006
   13.64611053   82.45410156    4.90999985    2.94000006
   13.64944458   83.51080322    4.90999985    2.94000006
   13.65277767   82.83329773    4.90999985    2.96000004
   13.65583324   85.36720276    4.90999985    2.96000004
   13.65777779   82.77010345    4.90999985    2.94000006
   13.65944386   77.33679962    4.90999985    2.96000004
   13.66277695   80.37989807    4.90999985    2.96000004
   13.66583252   76.69509888    4.90999985    2.94000006
   13.66916656   76.76180267    4.90999985    2.94000006
   13.67250061   81.20809937    4.90999985    2.94000006
   13.67555618   78.34480286    4.90999985    2.94000006
   13.67888927   76.81900024    4.90999985    2.94000006
   13.68222237   79.84459686    4.90999985    2.96000004
   13.68527794   82.10220337    4.90999985    2.94000006
   13.68861103   74.03730011    4.90999985    2.94000006
   13.69194412   77.33070374    4.90999985    2.94000006
   13.69499969   84.15360260    4.90999985    2.94000006
   13.69833374   74.59950256    4.90999985    2.96000004
   13.70138836   79.71250153    4.90999985    2.96000004
   13.70472240   85.80680084    4.90999985    2.94000006
   13.70777798   77.54989624    4.90999985    2.96000004
   13.70833302   78.60739899    4.90999985    2.94000006
   13.71166611   80.47949982    4.90999985    2.96000004
   13.71500015   76.82569885    4.90999985    2.96000004
   13.71805477   82.55770111    4.90999985    2.94000006
   13.72138882   83.14040375    4.90999985    2.94000006
   13.72444439   78.91660309    4.90999985    2.96000004
   13.72777748   77.39710236    4.90999985    2.94000006
   13.73111057   82.51409912    4.90999985    2.94000006
   13.73416710   75.19439697    4.90999985    2.96000004
   13.73750019   73.90679932    4.90999985    2.94000006
   13.74083328   84.82430267    4.90999985    2.96000004
   13.74388885   81.06860352    4.90999985    2.94000006
   13.74722290   80.19670105    4.90999985    2.96000004
   13.75027752   78.34860229    4.90999985    2.94000006
   13.75361156   79.75550079    4.90999985    2.94000006
   13.75694466   86.81829834    4.90999985    2.94000006
   13.75777817   81.50949860    4.90999985    2.96000004
   13.76027775   84.96420288    4.90999985    2.96000004
   13.76361084   74.15029907    4.90999985    2.94000006
   13.76666641   79.13659668    4.90999985    2.94000006
   13.76999950   80.51959991    4.90999985    2.94000006
   13.77333355   77.66739655    4.90999985    2.94000006
   13.77638817   82.03399658    4.90999985    2.96000004
   13.77972221   82.71970367    4.90999985    2.94000006
   13.78305531   81.92769623    4.90999985    2.94000006
   13.78611183   74.22740173    4.90999985    2.96000004
   13.78944492   79.28479767    4.90999985    2.94000006
   13.90555477   -1.00000000   -1.00000000   -1.00000000
   14.00194454   -1.00000000   -1.00000000   -1.00000000
   14.11833382   -1.00000000   -1.00000000   -1.00000000
   14.16166592   62.73699951    4.90999985    2.96000004
   14.16472149   79.97750092    4.90999985    2.98000002
   14.16805553   94.19580078    4.90999985    2.96000004
   14.17138958   83.56390381    4.90999985    2.98000002
   14.17472267   81.16069794    4.90999985    2.98000002
   14.17805576   80.98989868    4.90999985    2.98000002
   14.18111134   81.45300293    4.90999985    2.98000002
   14.18472195   75.73310089    4.90999985    2.96000004
   14.19083309   75.73310089    4.90999985    2.96000004
   14.19499969   84.75900269    4.90999985    2.96000004
   14.19833374   80.17549896    4.90999985    2.96000004
   14.20138836   76.94770050    4.90999985    2.98000002
   14.20472240   77.17720032    4.90999985    2.96000004
   14.20805550   76.65630341    4.90999985    2.98000002
   14.21111107   79.81449890    4.90999985    2.98000002
   14.21166611   80.09100342    4.90999985    2.98000002
   14.21472168   80.40090179    4.90999985    2.98000002
   14.21805477   74.36969757    4.90999985    2.96000004
   14.22111034   75.86479950    4.90999985    2.96000004
   14.22444439   78.37650299    4.90999985    2.96000004
   14.22777748   78.80770111    4.90999985    2.96000004
   14.23083305   83.61100006    4.90999985    2.98000002
   14.23416710   77.56749725    4.90999985    2.98000002
   14.23722267   76.82900238    4.90999985    2.98000002
   14.24138927   76.82900238    4.90999985    2.96000004
   14.24555588   81.67600250    4.90999985    2.98000002
   14.24888897   73.70790100    4.90999985    2.96000004
   14.25222206   82.24819946    4.90999985    2.96000004
   14.25527763   76.06140137    4.90999985    2.98000002
   14.25861073   84.00650024    4.90999985    2.98000002
   14.26166630   79.11889648    4.90999985    2.98000002
   14.26222229   81.87590027    4.90999985    2.98000002
   14.26555538   83.41220093    4.90999985    2.98000002
   14.26861095   77.66339874    4.90999985    2.98000002
   14.27194405   81.27400208    4.90999985    2.98000002
   14.27499962   80.13710022    4.90999985    2.98000002
   14.27833271   78.13510132    4.90999985    2.98000002
   14.28166676   78.39440155    4.90999985    2.98000002
   14.28500080   81.65100098    4.90999985    2.98000002
   14.28805637   85.90299988    4.90999985    2.98000002
   14.29277802   85.90299988    4.90999985    2.98000002
   14.29666710   80.33809662    4.90999985    2.98000002
   14.30000019   81.78610229    4.90999985    2.98000002
   14.30333328   87.05180359    4.90999985    2.98000002
   14.30638885   81.85939789    4.90999985    2.98000002
   14.30972195   86.65429688    4.90999985    2.98000002
   14.31166649   79.61569977    4.90999985    2.98000002
   14.31333351   78.77230072    4.90999985    2.98000002
   14.31666660   71.99880219    4.90999985    2.98000002
   14.31972218   76.17060089    4.90999985    2.96000004
   14.32305527   77.27819824    4.90999985    2.96000004
   14.32611084   76.71040344    4.90999985    2.98000002
   14.32944393   75.59100342    4.90999985    2.98000002
   14.33277798   78.27899933    4.90999985    2.98000002
   14.33583260   78.79499817    4.90999985    2.96000004
   14.33916664   77.38400269    4.90999985    2.98000002
   14.34388828   77.38400269    4.90999985    2.96000004
   14.34805489   78.81909943    4.90999985    2.98000002
   14.35111141   78.79470062    4.90999985    2.98000002
   14.35444450   80.76480103    4.90999985    2.96000004
   14.35750008   79.29889679    4.90999985    2.98000002
   14.36083412   82.13729858    4.90999985    2.98000002
   14.36166668   79.91899872    4.90999985    2.98000002
   14.36444473   83.59400177    4.90999985    2.98000002
   14.36777782   79.84790039    4.90999985    2.98000002
   14.37083340   80.91510010    4.90999985    2.98000002
   14.37416649   75.95819855    4.90999985    2.98000002
   14.37750053   80.84919739    4.90999985    2.98000002
   14.38055611   79.04530334    4.90999985    2.98000002
   14.38388920   78.96360016    4.90999985    2.98000002
   14.38694477   84.03220367    4.90999985    2.98000002
   14.39027786   79.57019806    4.90999985    2.98000002
   14.39499950   79.57019806    4.90999985    2.98000002
   14.39916611   80.37860107    4.90999985    2.98000002
   14.40222168   78.45829773    4.90999985    2.98000002
   14.40555477   78.20790100    4.90999985    2.98000002
   14.40888882   80.01999664    4.90999985    2.98000002
   14.41194439   78.88120270    4.90999985    2.98000002
   14.41249943   76.49289703    4.90999985    2.98000002
   14.41583252   77.52890015    4.90999985    2.98000002
   14.41888905   78.34239960    4.90999985    2.96000004
   14.42222214   78.62850189    4.90999985    2.98000002
   14.42555618   77.77220154    4.90999985    2.98000002
   14.42861176   82.60150146    4.90999985    2.98000002
   14.43194485   81.73650360    4.90999985    3.00000000
   14.43527794   77.92320251    4.90999985    2.96000004
   14.43833351   79.52989960    4.90999985    2.98000002
   14.44166660   81.02529907    4.90999985    2.98000002
   14.44611073   81.02529907    4.90999985    2.98000002
   14.45027733   78.96350098    4.90999985    2.98000002
   14.45361137   77.09320068    4.90999985    2.98000002
   14.45666695   80.86550140    4.90999985    2.98000002
   14.46000004   79.50879669    4.90999985    2.98000002
   14.46194458   75.61170197    4.90999985    2.98000002
   14.46361065   77.77210236    4.90999985    2.98000002
   14.46694374   81.69400024    4.90999985    2.98000002
   14.47027779   75.00150299    4.90999985    2.98000002
   14.47333336   78.15460205    4.90999985    2.98000002
   14.47666645   82.52649689    4.90999985    2.98000002
   14.47972202   80.51830292    4.90999985    2.98000002
   14.48305511   79.13680267    4.90999985    2.98000002
   14.48638916   81.27510071    4.90999985    2.98000002
   14.48944473   76.49130249    4.90999985    2.98000002
   14.49277782   75.95549774    4.90999985    2.98000002
   14.49750042   75.95549774    4.90999985    2.98000002
   14.50138855   78.31819916    4.90999985    2.98000002
   14.50472260   83.05319977    4.90999985    2.98000002
   14.50805569   79.28759766    4.90999985    2.98000002
   14.51111126   75.67279816    4.90999985    2.98000002
   14.51194477   81.37850189    4.90999985    2.98000002
   14.51472187   77.51069641    4.90999985    3.00000000
   14.51805496   74.30629730    4.90999985    2.98000002
   14.52111053   80.36340332    4.90999985    2.98000002
   14.52444458   79.80829620    4.90999985    2.98000002
   14.52777767   81.61519623    4.90999985    2.98000002
   14.53083324   77.59040070    4.90999985    2.96000004
   14.53416729   82.04319763    4.90999985    3.00000000
   14.53722286   81.17980194    4.90999985    2.98000002
   14.54055595   79.76560211    4.90999985    2.98000002
   14.54388905   82.34770203    4.90999985    2.98000002
   14.54861164   82.34770203    4.90999985    2.98000002
   14.55277824   82.18160248    4.90999985    2.98000002
   14.55583382   84.45629883    4.90999985    2.98000002
   14.55916691   85.74600220    4.90999985    2.98000002
   14.56194496   78.17240143    4.90999985    2.96000004
   14.56277752   83.49359894    4.90999985    3.00000000
   14.56611156   86.86540222    4.90999985    2.98000002
   14.56916618   78.08910370    4.90999985    2.98000002
   14.57250023   79.60240173    4.90999985    2.98000002
   14.57583332   79.52999878    4.90999985    2.98000002
   14.57888889   76.94740295    4.90999985    2.98000002
   14.58222198   73.20480347    4.90999985    2.98000002
   14.58527756   81.89119720    4.90999985    3.00000000
   14.58861065   78.77059937    4.90999985    2.98000002
   14.59194374   79.85639954    4.90999985    2.98000002
   14.59499931   76.80049896    4.90999985    3.00000000
   14.59972191   76.80049896    4.90999985    2.98000002
   14.60388947   81.71289825    4.90999985    2.98000002
   14.60722256   73.94609833    4.90999985    3.00000000
   14.61027813   79.65879822    4.90999985    3.00000000
   14.61194515   81.74639893    4.90999985    2.98000002
   14.61388969   76.45359802    4.90999985    3.00000000
   14.61722279   87.44719696    4.90999985    3.00000000
   14.62027836   78.03710175    4.90999985    3.00000000
   14.62361145   83.42050171    4.90999985    2.98000002
   14.62694454   87.96389771    4.90999985    2.98000002
   14.63000011   79.89279938    4.90999985    2.98000002
   14.63333321   79.57679749    4.90999985    2.98000002
   14.63638878   83.18160248    4.90999985    2.98000002
   14.63972187   80.15460205    4.90999985    2.98000002
   14.64305496   82.16699982    4.90999985    2.98000002
   14.64611053   86.85810089    4.90999985    2.98000002
   14.65083313   86.85810089    4.90999985    2.98000002
   14.65499973   83.82900238    4.90999985    3.00000000
   14.65833282   81.00640106    4.90999985    2.98000002
   14.66138840   81.68119812    4.90999985    2.98000002
   14.66194439   82.96240234    4.90999985    2.98000002
   14.66499996   83.65170288    4.90999985    2.98000002
   14.66833401   83.32299805    4.90999985    3.00000000
   14.67138958   86.74279785    4.90999985    3.00000000
   14.67472267   83.50430298    4.90999985    3.00000000
   14.67805576   81.53500366    4.90999985    3.00000000
   14.68111134   80.79499817    4.90999985    3.00000000
   14.68444443   79.08599854    4.90999985    3.00000000
   14.68750000   80.48490143    4.90999985    3.00000000
   14.69083309   83.65019989    4.90999985    3.00000000
   14.69416714   81.69730377    4.90999985    3.00000000
   14.69722271   77.01419830    4.90999985    2.98000002
   14.70194435   77.01419830    4.90999985    3.03999996
   14.70666695   80.55169678    0.05000000    0.50000000
   14.70972157   77.26550293    0.05000000    0.23000000
   14.71222210   80.52449799    0.05000000    0.23000000
   14.71333313   77.97270203    0.05000000    0.23000000
   14.71666622   73.26509857    0.05000000    0.23000000
   14.71972179   87.49739838    0.05000000    0.23000000
   14.72305489   80.69699860    0.05000000    0.23000000
   14.72638798   79.90509796    0.05000000    0.23000000
   14.72944355   81.09590149    0.05000000    0.23000000
   14.73277760   74.62329865    0.05000000    0.23000000
   14.73583317   75.36540222    0.05000000    0.23000000
   14.73916721   84.62969971    0.05000000    0.23000000
   14.74250031   84.89299774    0.05000000    0.23000000
   14.74555588   79.36789703    0.05000000    0.23000000
   14.74888897   82.32469940    0.05000000    0.23000000
   14.75333309   82.32469940    0.05000000    0.23000000
   14.75749969   83.55639648    0.05000000    0.23000000
   14.76055527   78.46839905    0.05000000    0.23000000
   14.76222229   79.86039734    0.05000000    0.23000000
   14.76416683   76.58470154    0.05000000    0.23000000
   14.76749992   78.68150330    0.05000000    0.23000000
   14.77055550   76.38790131    0.05000000    0.23000000
   14.77388859   80.34529877    0.05000000    0.23000000
   14.77722168   79.50949860    0.05000000    0.23000000
   14.78027725   78.42749786    0.05000000    0.23000000
   14.78361130   78.76499939    0.05000000    0.23000000
   14.78666687   84.53199768    0.05000000    0.23000000
   14.79000092   81.73349762    0.05000000    0.23000000
   14.79333401   78.51010132    0.05000000    0.23000000
   14.79638958   85.78350067    0.05000000    0.23000000
   14.79972267   86.05249786    0.05000000    0.23000000
   14.80444431   86.05249786    0.05000000    0.23000000
   14.80861092   84.61759949    0.05000000    0.23000000
   14.81166649   86.48609924    0.05000000    0.23000000
   14.81222248   77.98960114    0.05000000    0.23000000
   14.81527805   81.87789917    0.05000000    0.23000000
   14.81861115   78.05149841    0.05000000    0.23000000
   14.82166672   79.37740326    0.05000000    0.23000000
   14.82499981   79.51119995    0.05000000    0.23000000
   14.82833290   79.63369751    0.05000000    0.23000000
   14.83138847   78.66210175    0.05000000    0.23000000
   14.83472157   80.19069672    0.05000000    0.23000000
   14.83777714   83.73639679    0.05000000    0.23000000
   14.84111118   76.06150055    0.05000000    0.23000000
   14.84444427   77.08110046    0.05000000    0.23000000
   14.84749985   77.76039886    0.05000000    0.23000000
   14.85083389   78.97530365    0.05000000    0.23000000
   14.85555553   78.97530365    0.05000000    0.23000000
   14.86000061   80.06970215    0.05000000    0.23000000
   14.86222267   78.26349640    0.05000000    0.23000000
   14.86361122   77.07129669    0.05000000    0.23000000
   14.86694431   73.93299866    0.05000000    0.23000000
   14.86999989   78.21749878    0.05000000    0.23000000
   14.87333393   80.52590179    0.05000000    0.23000000
   14.87666702   78.66130066    0.05000000    0.23000000
   14.87972260   77.37049866    0.05000000    0.23000000
   14.88305569   80.68820190    0.05000000    0.23000000
   14.88638878   78.91200256    0.05000000    0.23000000
   14.88944435   79.55930328    0.05000000    0.23000000
   14.89277744   74.99749756    0.05000000    0.23000000
   14.89583302   76.09120178    0.05000000    0.23000000
   14.89916611   83.01580048    0.05000000    0.23000000
   14.90249920   77.77089691    0.05000000    0.23000000
   14.90694427   77.77089691    0.05000000    0.23000000
   14.91083336   80.06320190    0.05000000    0.23000000
   14.91249943   78.47000122    0.05000000    0.23000000
   14.91472149   75.17569733    0.05000000    0.23000000
   14.91777802   80.97910309    0.05000000    0.23000000
   14.92138958   81.58209991    0.05000000    0.23000000
   14.92472267   83.02130127    0.05000000    0.23000000
   14.92777824   78.19439697    0.05000000    0.23000000
   14.93111134   79.72879791    0.05000000    0.23000000
   14.93416691   81.92669678    0.05000000    0.23000000
   14.93750000   75.75550079    0.05000000    0.23000000
   14.94083309   77.36519623    0.05000000    0.23000000
   14.94388866   82.04709625    0.05000000    0.23000000
   14.94722271   79.82050323    0.05000000    0.23000000
   14.95055580   74.49490356    0.05000000    0.23000000
   14.95388889   82.82070160    0.05000000    0.23000000
   14.95805550   82.82070160    0.05000000    0.23000000
   14.96222210   78.37760162    0.05000000    0.23000000
   14.96277714   73.77960205    0.05000000    0.23000000
   14.96611118   77.91649628    0.05000000    0.23000000
   14.96916580   86.78880310    0.05000000    0.23000000
   14.97249985   77.49949646    0.05000000    0.23000000
   14.97583294   77.72450256    0.05000000    0.23000000
   14.97888851   78.63159943    0.05000000    0.23000000
   14.98222160   77.52480316    0.05000000    0.23000000
   14.98527813   79.78829956    0.05000000    0.23000000
   14.98861122   82.82050323    0.05000000    0.23000000
   14.99194431   82.91529846    0.05000000    0.23000000
   14.99499989   83.82450104    0.05000000    0.23000000
   14.99833393   84.96920013    0.05000000    0.23000000
   15.00166702   77.84480286    0.05000000    0.23000000
   15.00472260   77.85350037    0.05000000    0.23000000
   15.00916672   77.85350037    0.05000000    0.23000000
   15.01333332   78.58630371    0.05000000    0.23000000
   15.01666641   81.45680237    0.05000000    0.23000000
   15.01972198   84.45729828    0.05000000    0.23000000
   15.02305508   81.66349792    0.05000000    0.23000000
   15.02611065   77.74510193    0.05000000    0.23000000
   15.02944374   74.53040314    0.05000000    0.23000000
   15.03277779   76.21810150    0.05000000    0.23000000
   15.03583336   86.43329620    0.05000000    0.23000000
   15.03916740   77.30059814    0.05000000    0.23000000
   15.04250050   81.51349640    0.05000000    0.23000000
   15.04583359   79.52610016    0.05000000    0.23000000
   15.04888916   78.74050140    0.05000000    0.23000000
   15.05222225   82.16269684    0.05000000    0.23000000
   15.05527782   82.28150177    0.05000000    0.23000000
   15.06027794   82.28150177    0.05000000    0.23000000
   15.06444454   77.51860046    0.05000000    0.23000000
   15.06777763   75.49389648    0.05000000    0.23000000
   15.07083321   75.07969666    0.05000000    0.23000000
   15.07416630   84.35160065    0.05000000    0.23000000
   15.07750034   79.61170197    0.05000000    0.23000000
   15.08055592   78.34359741    0.05000000    0.23000000
   15.08388901   78.85220337    0.05000000    0.23000000
   15.08722210   79.59929657    0.05000000    0.23000000
   15.09027767   75.22789764    0.05000000    0.23000000
   15.09361076   78.10890198    0.05000000    0.23000000
   15.09666634   78.48840332    0.05000000    0.23000000
   15.10000038   78.45970154    0.05000000    0.23000000
   15.10333347   78.99690247    0.05000000    0.23000000
   15.10638905   79.81770325    0.05000000    0.23000000
   15.11166668   79.81770325    0.05000000    0.23000000
   15.11555576   74.13420105    0.05000000    0.23000000
   15.11888885   75.28170013    0.05000000    0.23000000
   15.12222195   81.18720245    0.05000000    0.23000000
   15.12527752   76.34040070    0.05000000    0.23000000
   15.12861156   81.43139648    0.05000000    0.23000000
   15.13194466   83.27880096    0.05000000    0.23000000
   15.13500023   76.31379700    0.05000000    0.23000000
   15.13833332   81.03489685    0.05000000    0.23000000
   15.14138889   79.44419861    0.05000000    0.23000000
   15.14472198   79.79209900    0.05000000    0.23000000
   15.14805508   80.96119690    0.05000000    0.23000000
   15.15111065   81.93949890    0.05000000    0.23000000
   15.15444374   76.75370026    0.05000000    0.23000000
   15.15777779   81.54100037    0.05000000    0.23000000
   15.17916679   78.65750122    0.05000000    0.23000000
   15.17944431   77.38390350    0.05000000    0.23000000
   15.18277836   78.01260376    0.05000000    0.23000000
   15.18611145   76.43659973    0.05000000    0.23000000
   15.18916702   85.84919739    0.05000000    0.23000000
   15.19250011   80.45449829    0.05000000    0.23000000
   15.19583321   80.52230072    0.05000000    0.23000000
   15.19888878   82.30560303    0.05000000    0.23000000
   15.20222187   74.73190308    0.05000000    0.23000000
   15.20527744   76.76930237    0.05000000    0.23000000
   15.20861053   78.36150360    0.05000000    0.23000000
   15.21388912   78.36150360    0.05000000    0.23000000
   15.21805477   76.75910187    0.05000000    0.23000000
   15.22138882   79.33450317    0.05000000    0.23000000
   15.22472191   75.31749725    0.05000000    0.23000000
   15.22777748   80.59310150    0.05000000    0.23000000
   15.22916603   73.98670197    0.05000000    0.23000000
   15.23138809   76.71260071    0.05000000    0.23000000
   15.23472214   79.00839996    0.05000000    0.23000000
   15.23777771   77.40100098    0.05000000    0.23000000
   15.24111176   77.93019867    0.05000000    0.23000000
   15.24444485   77.73690033    0.05000000    0.23000000
   15.24750042   78.06510162    0.05000000    0.23000000
   15.25083351   76.96579742    0.05000000    0.23000000
   15.25416660   84.98339844    0.05000000    0.23000000
   15.25722218   77.96669769    0.05000000    0.23000000
   15.26055527   77.32920074    0.05000000    0.23000000
   15.26527786   77.32920074    0.05000000    0.23000000
   15.26944447   82.50589752    0.05000000    0.23000000
   15.27250004   80.43520355    0.05000000    0.23000000
   15.27583313   77.56449890    0.05000000    0.23000000
   15.27916622   74.22889709    0.05000000    0.23000000
   15.27944374   80.55359650    0.05000000    0.23000000
   15.28277779   79.37129974    0.05000000    0.23000000
   15.28583336   75.79280090    0.05000000    0.23000000
   15.28916740   74.92630005    0.05000000    0.23000000
   15.29250050   80.48979950    0.05000000    0.23000000
   15.29555607   77.83290100    0.05000000    0.23000000
   15.29888916   74.55480194    0.05000000    0.23000000
   15.30222225   80.89060211    0.05000000    0.23000000
   15.30527782   77.57099915    0.05000000    0.23000000
   15.30861092   75.51629639    0.05000000    0.23000000
   15.31166649   75.76799774    0.05000000    0.23000000
   15.31638908   75.76799774    0.05000000    0.23000000
   15.32055569   77.84909821    0.05000000    0.23000000
   15.32361126   78.93740082    0.05000000    0.23000000
   15.32694435   77.96369934    0.05000000    0.23000000
   15.32916641   75.63310242    0.05000000    0.23000000
   15.33055592   77.17800140    0.05000000    0.23000000
   15.33388901   76.80570221    0.05000000    0.23000000
   15.33694458   75.98419952    0.05000000    0.23000000
   15.34027767   78.02519989    0.05000000    0.23000000
   15.34361076   74.54750061    0.05000000    0.23000000
   15.34666634   77.61039734    0.05000000    0.23000000
   15.35000038   75.13600159    0.05000000    0.23000000
   15.35333347   74.32900238    0.05000000    0.23000000
   15.35638905   73.32630157    0.05000000    0.23000000
   15.35972214   76.49960327    0.05000000    0.23000000
   15.36277771   73.32230377    0.05000000    0.23000000
   15.36750031   73.32230377    0.05000000    0.23000000
   15.37166691   76.26349640    0.05000000    0.23000000
   15.37500000   76.94360352    0.05000000    0.23000000
   15.37805557   76.59719849    0.05000000    0.23000000
   15.37916660   78.57649994    0.05000000    0.23000000
   15.38166714   72.91400146    0.05000000    0.23000000
   15.38500023   79.05400085    0.05000000    0.23000000
   15.38833332   73.88020325    0.05000000    0.23000000
   15.39138889   75.15519714    0.05000000    0.23000000
   15.39472198   75.92079926    0.05000000    0.23000000
   15.39777756   74.73259735    0.05000000    0.23000000
   15.40111065   73.47769928    0.05000000    0.23000000
   15.40444374   74.74230194    0.05000000    0.23000000
   15.40749931   74.54280090    0.05000000    0.23000000
   15.41083336   74.91390228    0.05000000    0.23000000
   15.41416645   76.69270325    0.05000000    0.23000000
   15.41888905   76.69270325    0.05000000    0.23000000
   15.42305565   77.15119934    0.05000000    0.23000000
   15.42611122   73.95970154    0.05000000    0.23000000
   15.42944431   78.54129791    0.05000000    0.23000000
   15.42972279   79.07319641    0.05000000    0.23000000
   15.43305588   77.63710022    0.05000000    0.23000000
   15.43611145   75.32929993    0.05000000    0.23000000
   15.43944454   74.14630127    0.05000000    0.23000000
   15.44277763   74.48850250    0.05000000    0.23000000
   15.44583321   77.89579773    0.05000000    0.23000000
   15.44916630   76.39920044    0.05000000    0.23000000
   15.45249939   76.84919739    0.05000000    0.23000000
   15.45555496   71.02899933    0.05000000    0.23000000
   15.45888901   75.63880157    0.05000000    0.23000000
   15.46194458   74.63619995    0.05000000    0.23000000
   15.46527767   73.17070007    0.05000000    0.23000000
   15.46999931   73.17070007    0.05000000    0.23000000
   15.47416592   72.86630249    0.05000000    0.23000000
   15.47722149   71.60810089    0.05000000    0.23000000
   15.47944355   73.95040131    0.05000000    0.23000000
   15.48083305   72.52770233    0.05000000    0.23000000
   15.48416710   72.20649719    0.05000000    0.23000000
   15.48750019   74.67630005    0.05000000    0.23000000
   15.49055576   71.10189819    0.05000000    0.23000000
   15.49388885   76.12380219    0.05000000    0.23000000
   15.49694443   70.78659821    0.05000000    0.23000000
   15.50027752   77.17179871    0.05000000    0.23000000
   15.50361156   71.98490143    0.05000000    0.23000000
   15.50666714   71.95459747    0.05000000    0.23000000
   15.51000023   72.84190369    0.05000000    0.23000000
   15.51333332   75.57279968    0.05000000    0.23000000
   15.51638889   71.31140137    0.05000000    0.23000000
   15.52111053   71.31140137    0.05000000    0.23000000
   15.52527714   72.81379700    0.05000000    0.23000000
   15.52861118   74.08879852    0.05000000    0.23000000
   15.52944374   73.09889984    0.05000000    0.23000000
   15.53194427   75.77179718    0.05000000    0.23000000
   15.53527832   72.61080170    0.05000000    0.23000000
   15.53861141   71.90200043    0.05000000    0.23000000
   15.54166698   71.25599670    0.05000000    0.23000000
   15.54500008   72.32920074    0.05000000    0.23000000
   15.54805565   71.24069977    0.05000000    0.23000000
   15.55138874   72.91329956    0.05000000    0.23000000
   15.55472279   72.17130280    0.05000000    0.23000000
   15.55777836   76.27639771    0.05000000    0.23000000
   15.56111145   73.68160248    0.05000000    0.23000000
   15.56444454   72.51080322    0.05000000    0.23000000
   15.56750011   73.26419830    0.05000000    0.23000000
   15.57250023   73.26419830    0.05000000    0.23000000
   15.57638836   71.35910034    0.05000000    0.23000000
   15.57944393   71.77300262    0.05000000    0.23000000
   15.57999992   72.69740295    0.05000000    0.23000000
   15.58333302   71.60590363    0.05000000    0.23000000
   15.58666611   74.18740082    0.05000000    0.23000000
   15.58972168   72.14929962    0.05000000    0.23000000
   15.59305477   74.11579895    0.05000000    0.23000000
   15.59611034   70.68759918    0.05000000    0.23000000
   15.59944439   74.79740143    0.05000000    0.23000000
   15.60277843   74.98410034    0.05000000    0.23000000
   15.60583401   73.85669708    0.05000000    0.23000000
   15.60916710   74.08660126    0.05000000    0.23000000
   15.61250019   71.88490295    0.05000000    0.23000000
   15.61555576   72.78649902    0.05000000    0.23000000
   15.61888885   73.07969666    0.05000000    0.23000000
   15.62361145   73.07969666    0.05000000    0.23000000
   15.62777805   73.46530151    0.05000000    0.23000000
   15.62944412   70.63580322    0.05000000    0.23000000
   15.63111115   72.58059692    0.05000000    0.23000000
   15.63444424   70.38619995    0.05000000    0.23000000
   15.63777733   72.82460022    0.05000000    0.23000000
   15.64083290   74.56020355    0.05000000    0.23000000
   15.64416695   71.67440033    0.05000000    0.23000000
   15.64750004   73.05020142    0.05000000    0.23000000
   15.65055561   77.93849945    0.05000000    0.23000000
   15.65388870   74.98110199    0.05000000    0.23000000
   15.65694427   75.17050171    0.05000000    0.23000000
   15.66027737   72.13600159    0.05000000    0.23000000
   15.66361046   73.71669769    0.05000000    0.23000000
   15.66666698   74.88690186    0.05000000    0.23000000
   15.67000008   74.20459747    0.05000000    0.23000000
   15.67472267   74.20459747    0.05000000    0.23000000
   15.67888927   72.58709717    0.05000000    0.23000000
   15.67944431   71.96330261    0.05000000    0.23000000
   15.68222237   75.69429779    0.05000000    0.23000000
   15.68555546   72.57510376    0.05000000    0.23000000
   15.68888855   71.83969879    0.05000000    0.23000000
   15.69194412   76.26339722    0.05000000    0.23000000
   15.69527817   72.39929962    0.05000000    0.23000000
   15.69861126   71.11959839    0.05000000    0.23000000
   15.70166683   69.52940369    0.05000000    0.23000000
   15.70499992   71.67859650    0.05000000    0.23000000
   15.70805550   76.18520355    0.05000000    0.23000000
   15.71138859   72.79779816    0.05000000    0.23000000
   15.71472168   74.19319916    0.05000000    0.23000000
   15.71777725   74.28130341    0.05000000    0.23000000
   15.72111034   70.09439850    0.05000000    0.23000000
   15.72583294   70.09439850    0.05000000    0.23000000
   15.72999954   72.11450195    0.05000000    0.23000000
   15.73333359   71.69139862    0.05000000    0.23000000
   15.73638916   72.72899628    0.05000000    0.23000000
   15.73972225   71.65440369    0.05000000    0.23000000
   15.74305534   72.93489838    0.05000000    0.23000000
   15.74611092   70.03440094    0.05000000    0.23000000
   15.74944496   72.05529785    0.05000000    0.23000000
   15.75277805   73.60260010    0.05000000    0.23000000
   15.75583363   73.53350067    0.05000000    0.23000000
   15.75916672   74.37689972    0.05000000    0.23000000
   15.76222229   73.97090149    0.05000000    0.23000000
   15.76555538   79.68550110    0.05000000    0.23000000
   15.76888847   75.13099670    0.05000000    0.23000000
   15.77194405   72.56829834    0.05000000    0.23000000
   15.77722168   72.56829834    0.05000000    0.23000000
   15.78111076   72.84580231    0.05000000    0.23000000
   15.78444481   73.00199890    0.05000000    0.23000000
   15.78777790   72.52349854    0.05000000    0.23000000
   15.79083347   74.40080261    0.05000000    0.23000000
   15.79416752   75.49030304    0.05000000    0.23000000
   15.79722309   77.36199951    0.05000000    0.23000000
   15.80055618   74.80670166    0.05000000    0.23000000
   15.80388927   74.69689941    0.05000000    0.23000000
   15.80694485   79.49490356    0.05000000    0.23000000
   15.81027794   74.47540283    0.05000000    0.23000000
   15.81361103   71.77559662    0.05000000    0.23000000
   15.81666660   73.51349640    0.05000000    0.23000000
   15.81999969   74.28800201    0.05000000    0.23000000
   15.82305527   75.24060059    0.05000000    0.23000000
   15.82833290   75.24060059    0.05000000    0.23000000
   15.83249950   72.05979919    0.05000000    0.23000000
   15.83583260   70.76499939    0.05000000    0.23000000
   15.83888817   72.45939636    0.05000000    0.23000000
   15.84222221   72.74030304    0.05000000    0.23000000
   15.84527779   72.01989746    0.05000000    0.23000000
   15.84861088   71.54070282    0.05000000    0.23000000
   15.85194492   73.05989838    0.05000000    0.23000000
   15.85500050   76.45110321    0.05000000    0.23000000
   15.85833359   70.30449677    0.05000000    0.23000000
   15.86166668   73.17559814    0.05000000    0.23000000
   15.86472225   73.87870026    0.05000000    0.23000000
   15.86805534   73.16970062    0.05000000    0.23000000
   15.87111092   77.50389862    0.05000000    0.23000000
   15.87444496   73.21759796    0.05000000    0.23000000
   15.87944412   73.21759796    0.05000000    0.23000000
   15.88361073   73.27220154    0.05000000    0.23000000
   15.88694477   72.41629791    0.05000000    0.23000000
   15.89000034   74.83670044    0.05000000    0.23000000
   15.89333344   71.93350220    0.05000000    0.23000000
   15.89638901   71.24810028    0.05000000    0.23000000
   15.89972210   72.93789673    0.05000000    0.23000000
   15.90305519   75.13749695    0.05000000    0.23000000
   15.90611076   74.38490295    0.05000000    0.23000000
   15.90944386   71.36589813    0.05000000    0.23000000
   15.91277695   74.82620239    0.05000000    0.23000000
   15.91583252   74.73780060    0.05000000    0.23000000
   15.91916656   72.99909973    0.05000000    0.23000000
   15.92250061   73.33090210    0.05000000    0.23000000
   15.92555618   75.36769867    0.05000000    0.23000000
   15.93055630   75.36769867    0.05000000    0.23000000
   15.93472195   73.62280273    0.05000000    0.23000000
   15.93805599   73.62439728    0.05000000    0.23000000
   15.94111156   70.54779816    0.05000000    0.23000000
   15.94444466   73.81680298    0.05000000    0.23000000
   15.94777775   72.63849640    0.05000000    0.23000000
   15.95083332   74.62699890    0.05000000    0.23000000
   15.95416641   74.99259949    0.05000000    0.23000000
   15.95749950   72.88600159    0.05000000    0.23000000
   15.96055508   73.47409821    0.05000000    0.23000000
   15.96388912   74.85980225    0.05000000    0.23000000
   15.96694374   74.47190094    0.05000000    0.23000000
   15.97027779   78.05269623    0.05000000    0.23000000
   15.97361088   77.43630219    0.05000000    0.23000000
   15.97666645   76.15299988    0.05000000    0.23000000
   15.98166656   76.15299988    0.05000000    0.23000000
   15.98583317   74.88259888    0.05000000    0.23000000
   15.98916721   73.47119904    0.05000000    0.23000000
   15.99250031   77.78269958    0.05000000    0.23000000
   15.99555588   73.74659729    0.05000000    0.23000000
   15.99888897   70.62449646    0.05000000    0.23000000
   16.00222206   75.78569794    0.05000000    0.23000000
   16.00527763   71.36609650    0.05000000    0.23000000
   16.00861168   70.46150208    0.05000000    0.23000000
   16.01166725   73.08470154    0.05000000    0.23000000
   16.01499939   72.23699951    0.05000000    0.23000000
   16.01833344   70.82520294    0.05000000    0.23000000
   16.02138901   72.71109772    0.05000000    0.23000000
   16.02472115   70.50769806    0.05000000    0.23000000
   16.02805519   70.43119812    0.05000000    0.23000000
   16.03305435   70.43119812    0.05000000    0.23000000
   16.03722191   72.40309906    0.05000000    0.23000000
   16.04027748   69.93090057    0.05000000    0.23000000
   16.04361153   71.44069672    0.05000000    0.23000000
   16.04666710   70.43779755    0.05000000    0.23000000
   16.04999924   71.65460205    0.05000000    0.23000000
   16.05333328   73.38110352    0.05000000    0.23000000
   16.05638885   74.34649658    0.05000000    0.23000000
   16.05972099   74.20310211    0.05000000    0.23000000
   16.06305504   72.78179932    0.05000000    0.23000000
   16.06611061   74.17250061    0.05000000    0.23000000
   16.06944466   74.18460083    0.05000000    0.23000000
   16.07250023   72.16010284    0.05000000    0.23000000
   16.07583427   71.78990173    0.05000000    0.23000000
   16.07916832   72.28600311    0.05000000    0.23000000
   16.08416748   72.28600311    0.05000000    0.23000000
   16.08833313   72.35600281    0.05000000    0.23000000
   16.09138870   74.02210236    0.05000000    0.23000000
   16.09472275   72.70030212    0.05000000    0.23000000
   16.09805679   73.47409821    0.05000000    0.23000000
   16.10111237   74.24649811    0.05000000    0.23000000
   16.10444450   73.58689880    0.05000000    0.23000000
   16.10777855   71.00140381    0.05000000    0.23000000
   16.11083412   72.97560120    0.05000000    0.23000000
   16.11416626   72.18170166    0.05000000    0.23000000
   16.11722183   71.02200317    0.05000000    0.23000000
   16.12055588   72.21440125    0.05000000    0.23000000
   16.12388992   74.65840149    0.05000000    0.23000000
   16.12694550   74.61049652    0.05000000    0.23000000
   16.13027763   72.25430298    0.05000000    0.23000000
   16.13527679   72.25430298    0.05000000    0.23000000
   16.13944435   76.77950287    0.05000000    0.23000000
   16.14277840   73.83959961    0.05000000    0.23000000
   16.14583397   73.23889923    0.05000000    0.23000000
   16.14916611   74.29350281    0.05000000    0.23000000
   16.15250015   73.49109650    0.05000000    0.23000000
   16.15555573   73.62229919    0.05000000    0.23000000
   16.15888786   74.96189880    0.05000000    0.23000000
   16.16194344   73.89240265    0.05000000    0.23000000
   16.16527748   74.19629669    0.05000000    0.23000000
   16.16860962   73.19570160    0.05000000    0.23000000
   16.17166519   73.39700317    0.05000000    0.23000000
   16.17499924   73.65560150    0.05000000    0.23000000
   16.17833328   78.29900360    0.05000000    0.23000000
   16.19944382   78.29900360    0.05000000    0.23000000
   16.20361137   68.50240326    0.05000000    0.23000000
   16.20666695   69.21119690    0.05000000    0.23000000
   16.21000099   73.33380127    0.05000000    0.23000000
   16.21305656   71.63130188    0.05000000    0.23000000
   16.21638870   72.69129944    0.05000000    0.23000000
   16.21972275   74.49839783    0.05000000    0.23000000
   16.22277832   72.41139984    0.05000000    0.23000000
   16.22611237   69.70580292    0.05000000    0.23000000
   16.22944450   70.47280121    0.05000000    0.23000000
   16.23250008   71.78369904    0.05000000    0.23000000
   16.23583412   73.75669861    0.05000000    0.23000000
   16.23888969   73.61239624    0.05000000    0.23000000
   16.24222183   74.92009735    0.05000000    0.23000000
   16.24555588   77.01820374    0.05000000    0.23000000
   16.24694443   74.16790009    0.05000000    0.23000000
   16.25083351   74.16790009    0.05000000    0.23000000
   16.25499916   71.17220306    0.05000000    0.23000000
   16.25833321   76.41639709    0.05000000    0.23000000
   16.26166725   81.36190033    0.05000000    0.23000000
   16.26472282   74.46600342    0.05000000    0.23000000
   16.26805496   75.87059784    0.05000000    0.23000000
   16.27111053   74.33589935    0.05000000    0.23000000
   16.27444458   76.74870300    0.05000000    0.23000000
   16.27777672   80.50569916    0.05000000    0.23000000
   16.28083229   77.61060333    0.05000000    0.23000000
   16.28416634   78.26390076    0.05000000    0.23000000
   16.28750038   74.84940338    0.05000000    0.23000000
   16.29055595   76.63130188    0.05000000    0.23000000
   16.29388809   73.90119934    0.05000000    0.23000000
   16.29694366   76.61889648    0.05000000    0.23000000
   16.29749870   76.63559723    0.05000000    0.23000000
   16.30222130   76.63559723    0.05000000    0.23000000
   16.30638885   79.02469635    0.05000000    0.23000000
   16.30944443   73.77069855    0.05000000    0.23000000
   16.31277657   71.99030304    0.05000000    0.23000000
   16.31583214   71.69419861    0.05000000    0.23000000
   16.31916809   78.32689667    0.05000000    0.23000000
   16.32250023   73.78780365    0.05000000    0.23000000
   16.32555580   77.75749969    0.05000000    0.23000000
   16.32888985   76.24500275    0.05000000    0.23000000
   16.33222389   75.97109985    0.05000000    0.23000000
   16.33527756   74.94850159    0.05000000    0.23000000
   16.33861160   77.21990204    0.05000000    0.23000000
   16.34166718   75.18070221    0.05000000    0.23000000
   16.34500122   74.99310303    0.05000000    0.23000000
   16.34694481   75.51149750    0.05000000    0.23000000
   16.34861183   76.28369904    0.05000000    0.23000000
   16.35333443   76.28369904    0.05000000    0.23000000
   16.35750008   78.60579681    0.05000000    0.23000000
   16.36055565   74.20480347    0.05000000    0.23000000
   16.36388969   74.94770050    0.05000000    0.23000000
   16.36722183   76.66560364    0.05000000    0.23000000
   16.37027740   73.18070221    0.05000000    0.23000000
   16.37361145   73.59420013    0.05000000    0.23000000
   16.37694550   75.56430054    0.05000000    0.23000000
   16.38000107   74.84259796    0.05000000    0.23000000
   16.38333321   73.07689667    0.05000000    0.23000000
   16.38638878   76.04750061    0.05000000    0.23000000
   16.38972282   76.77709961    0.05000000    0.23000000
   16.39305496   73.66690063    0.05000000    0.23000000
   16.39611053   75.04450226    0.05000000    0.23000000
   16.39694405   76.68270111    0.05000000    0.23000000
   16.39972115   76.11430359    0.05000000    0.23000000
   16.40444374   76.11430359    0.05000000    0.23000000
   16.40861130   74.11550140    0.05000000    0.23000000
   16.41194344   73.90119934    0.05000000    0.23000000
   16.41499901   72.57959747    0.05000000    0.23000000
   16.41833305   75.23960114    0.05000000    0.23000000
   16.42166519   74.51719666    0.05000000    0.23000000
   16.42472076   74.18689728    0.05000000    0.23000000
   16.42805481   72.97640228    0.05000000    0.23000000
   16.43111038   77.15000153    0.05000000    0.23000000
   16.43444443   71.86810303    0.05000000    0.23000000
   16.43777657   73.77449799    0.05000000    0.23000000
   16.44083214   77.64600372    0.05000000    0.23000000
   16.44416618   76.63469696    0.05000000    0.23000000
   16.44694328   72.73349762    0.05000000    0.23000000
   16.44777679   71.05429840    0.05000000    0.23000000
   16.45111275   73.03199768    0.05000000    0.23000000
   16.45555687   73.03199768    0.05000000    0.23000000
   16.45972252   70.20700073    0.05000000    0.23000000
   16.46305656   73.74639893    0.05000000    0.23000000
   16.46638870   72.67990112    0.05000000    0.23000000
   16.46944427   76.38939667    0.05000000    0.23000000
   16.47277832   78.96160126    0.05000000    0.23000000
   16.47583389   75.70629883    0.05000000    0.23000000
   16.47916794   71.68090057    0.05000000    0.23000000
   16.48250008   76.26529694    0.05000000    0.23000000
   16.48555565   72.70490265    0.05000000    0.23000000
   16.48888969   72.22100067    0.05000000    0.23000000
   16.49222183   73.05680084    0.05000000    0.23000000
   16.49527740   72.33390045    0.05000000    0.23000000
   16.49694443   70.73490143    0.05000000    0.23000000
   16.49888992   72.21099854    0.05000000    0.23000000
   16.50222206   73.49939728    0.05000000    0.23000000
   16.50694466   73.49939728    0.05000000    0.23000000
   16.51111031   74.47339630    0.05000000    0.23000000
   16.51416588   74.04940033    0.05000000    0.23000000
   16.51749992   74.17739868    0.05000000    0.23000000
   16.52055550   75.43669891    0.05000000    0.23000000
   16.52388954   72.87950134    0.05000000    0.23000000
   16.52722168   71.77709961    0.05000000    0.23000000
   16.53027725   76.14830017    0.05000000    0.23000000
   16.53361130   73.43720245    0.05000000    0.23000000
   16.53694344   74.79540253    0.05000000    0.23000000
   16.53999901   74.77429962    0.05000000    0.23000000
   16.54333305   75.92430115    0.05000000    0.23000000
   16.54638863   80.82260132    0.05000000    0.23000000
   16.54694366   74.01119995    0.05000000    0.23000000
   16.55027771   78.11959839    0.05000000    0.23000000
   16.55360985   73.57790375    0.05000000    0.23000000
   16.55805397   73.57790375    0.05000000    0.23000000
   16.56222153   72.03700256    0.05000000    0.23000000
   16.56527710   72.70230103    0.05000000    0.23000000
   16.56861115   73.08360291    0.05000000    0.23000000
   16.57194519   76.41239929    0.05000000    0.23000000
   16.57500076   74.52230072    0.05000000    0.23000000
   16.57833481   74.74220276    0.05000000    0.23000000
   16.58166695   79.42469788    0.05000000    0.23000000
   16.58472252   72.57839966    0.05000000    0.23000000
   16.58805656   73.70659637    0.05000000    0.23000000
   16.59111214   71.46230316    0.05000000    0.23000000
   16.59444427   71.36470032    0.05000000    0.23000000
   16.59694481   73.47550201    0.05000000    0.23000000
   16.59805679   74.67489624    0.05000000    0.23000000
   16.60138893   70.09780121    0.05000000    0.23000000
   16.60444450   71.72609711    0.05000000    0.23000000
   16.60916710   71.72609711    0.05000000    0.23000000
   16.61333466   72.48179626    0.05000000    0.23000000
   16.61666679   74.86139679    0.05000000    0.23000000
   16.61972237   72.30200195    0.05000000    0.23000000
   16.62305641   73.49420166    0.05000000    0.23000000
   16.62638855   70.20220184    0.05000000    0.23000000
   16.62944412   73.98899841    0.05000000    0.23000000
   16.63277817   71.95249939    0.05000000    0.23000000
   16.63583374   71.43840027    0.05000000    0.23000000
   16.63916588   70.85729980    0.05000000    0.23000000
   16.64249992   74.94490051    0.05000000    0.23000000
   16.64555550   71.96810150    0.05000000    0.23000000
   16.64694405   71.94280243    0.05000000    0.23000000
   16.64916611   75.55650330    0.05000000    0.23000000
   16.65250015   74.42469788    0.05000000    0.23000000
   16.65555573   74.95120239    0.05000000    0.23000000
   16.66027832   74.95120239    0.05000000    0.23000000
   16.66444397   71.01100159    0.05000000    0.23000000
   16.66777802   72.01730347    0.05000000    0.23000000
   16.67111015   73.97969818    0.05000000    0.23000000
   16.67416573   74.22389984    0.05000000    0.23000000
   16.67749977   74.06020355    0.05000000    0.23000000
   16.68055534   72.74430084    0.05000000    0.23000000
   16.68388748   74.33090210    0.05000000    0.23000000
   16.68722153   74.08550262    0.05000000    0.23000000
   16.69027710   73.19200134    0.05000000    0.23000000
   16.69361115   72.83879852    0.05000000    0.23000000
   16.69694328   73.93309784    0.05000000    0.23000000
   16.69722176   71.81999969    0.05000000    0.23000000
   16.70055580   71.69860077    0.05000000    0.23000000
   16.70388985   73.40740204    0.05000000    0.23000000
   16.70694542   74.86350250    0.05000000    0.23000000
   16.71166801   74.86350250    0.05000000    0.23000000
   16.71555710   72.07260132    0.05000000    0.23000000
   16.71888924   73.82579803    0.05000000    0.23000000
   16.72222328   71.56230164    0.05000000    0.23000000
   16.72527885   75.72480011    0.05000000    0.23000000
   16.72861099   74.93959808    0.05000000    0.23000000
   16.73194504   73.43270111    0.05000000    0.23000000
   16.73500061   75.12339783    0.05000000    0.23000000
   16.73833275   74.80349731    0.05000000    0.23000000
   16.74166679   75.06159973    0.05000000    0.23000000
   16.74472237   75.51300049    0.05000000    0.23000000
   16.74722290   74.89109802    0.05000000    0.23000000
   16.74833298   78.51529694    0.05000000    0.23000000
   16.75166702   74.91629791    0.05000000    0.23000000
   16.75472260   72.16560364    0.05000000    0.23000000
   16.75805473   73.43060303    0.05000000    0.23000000
   16.76277733   73.43060303    0.05000000    0.23000000
   16.76694489   73.24710083    0.05000000    0.23000000
   16.77000046   73.03199768    0.05000000    0.23000000
   16.77333260   72.08730316    0.05000000    0.23000000
   16.77666664   73.73739624    0.05000000    0.23000000
   16.77972221   72.58309937    0.05000000    0.23000000
   16.78305435   73.70439911    0.05000000    0.23000000
   16.78638840   71.62069702    0.05000000    0.23000000
   16.78944397   71.59329987    0.05000000    0.23000000
   16.79277802   78.28350067    0.05000000    0.23000000
   16.79583359   74.32060242    0.05000000    0.23000000
   16.79749870   79.65470123    0.05000000    0.23000000
   16.79944420   76.97779846    0.05000000    0.23000000
   16.80277634   77.75260162    0.05000000    0.23000000
   16.80583191   72.40769958    0.05000000    0.23000000
   16.80916595   73.06479645    0.05000000    0.23000000
   16.81388855   73.06479645    0.05000000    0.23000000
   16.81805611   71.70829773    0.05000000    0.23000000
   16.82139015   73.67070007    0.05000000    0.23000000
   16.82444572   72.40070343    0.05000000    0.23000000
   16.82777786   73.07240295    0.05000000    0.23000000
   16.83111191   73.94139862    0.05000000    0.23000000
   16.83416748   74.63770294    0.05000000    0.23000000
   16.83750153   75.03739929    0.05000000    0.23000000
   16.84055710   72.56030273    0.05000000    0.23000000
   16.84388924   73.68270111    0.05000000    0.23000000
   16.84722328   73.32099915    0.05000000    0.23000000
   16.84777832   74.02760315    0.05000000    0.23000000
   16.85083389   74.68910217    0.05000000    0.23000000
   16.85416794   71.64320374    0.05000000    0.23000000
   16.85750008   70.93779755    0.05000000    0.23000000
   16.86055565   75.35549927    0.05000000    0.23000000
   16.86499977   75.35549927    0.05000000    0.23000000
   16.86916733   71.27549744    0.05000000    0.23000000
   16.87249947   70.83370209    0.05000000    0.23000000
   16.87583351   72.49230194    0.05000000    0.23000000
   16.87888908   73.75389862    0.05000000    0.23000000
   16.88222313   72.04570007    0.05000000    0.23000000
   16.88527679   69.65959930    0.05000000    0.23000000
   16.88861084   72.90589905    0.05000000    0.23000000
   16.89194489   73.39749908    0.05000000    0.23000000
   16.89500046   71.68689728    0.05000000    0.23000000
   16.89777756   73.30809784    0.05000000    0.23000000
   16.89861107   74.49949646    0.05000000    0.23000000
   16.90194321   72.29820251    0.05000000    0.23000000
   16.90527725   73.22979736    0.05000000    0.23000000
   16.90833282   73.43139648    0.05000000    0.23000000
   16.91166687   73.36689758    0.05000000    0.23000000
   16.91638756   73.36689758    0.05000000    0.23000000
   16.92027664   71.21150208    0.05000000    0.23000000
   16.92361069   70.57270050    0.05000000    0.23000000
   16.92694473   72.40370178    0.05000000    0.23000000
   16.93000031   71.28389740    0.05000000    0.23000000
   16.93333244   71.13999939    0.05000000    0.23000000
   16.93666649   71.03440094    0.05000000    0.23000000
   16.93972206   72.50109863    0.05000000    0.23000000
   16.94305420   73.34320068    0.05000000    0.23000000
   16.94638824   73.66729736    0.05000000    0.23000000
   16.94777679   71.34549713    0.05000000    0.23000000
   16.94972038   70.60990143    0.05000000    0.23000000
   16.95305634   73.11199951    0.05000000    0.23000000
   16.95639038   73.33270264    0.05000000    0.23000000
   16.95944595   71.02999878    0.05000000    0.23000000
   16.96277809   70.57810211    0.05000000    0.23000000
   16.96750069   70.57810211    0.05000000    0.23000000
   16.97166634   71.81559753    0.05000000    0.23000000
   16.97472191   72.66709900    0.05000000    0.23000000
   16.97805595   70.98470306    0.05000000    0.23000000
   16.98139000   71.95259857    0.05000000    0.23000000
   16.98444557   73.13790131    0.05000000    0.23000000
   16.98777771   76.98519897    0.05000000    0.23000000
   16.99111176   71.71720123    0.05000000    0.23000000
   16.99416733   71.59300232    0.05000000    0.23000000
   16.99749947   72.74590302    0.05000000    0.23000000
   16.99805641   71.01599884    0.05000000    0.23000000
   17.00111198   70.48650360    0.05000000    0.23000000
   17.00444412   72.15209961    0.05000000    0.23000000
   17.00777817   70.89880371    0.05000000    0.23000000
   17.01083374   71.90280151    0.05000000    0.23000000
   17.01416588   69.39659882    0.05000000    0.23000000
   17.01861000   69.39659882    0.05000000    0.23000000
   17.02277756   73.02960205    0.05000000    0.23000000
   17.02611160   78.61160278    0.05000000    0.23000000
   17.02916718   73.26159668    0.05000000    0.23000000
   17.03249931   74.72579956    0.05000000    0.23000000
   17.03555489   72.10910034    0.05000000    0.23000000
   17.03888893   73.10269928    0.05000000    0.23000000
   17.04222107   72.68979645    0.05000000    0.23000000
   17.04527664   74.49349976    0.05000000    0.23000000
   17.04805565   74.86029816    0.05000000    0.23000000
   17.04888916   71.39530182    0.05000000    0.23000000
   17.05222130   75.47460175    0.05000000    0.23000000
   17.05555534   74.10739899    0.05000000    0.23000000
   17.05861092   72.50160217    0.05000000    0.23000000
   17.06194305   71.13819885    0.05000000    0.23000000
   17.06527710   75.04360199    0.05000000    0.23000000
   17.06972313   75.04360199    0.05000000    0.23000000
   17.07389069   71.44930267    0.05000000    0.23000000
   17.07722282   72.34970093    0.05000000    0.23000000
   17.08027840   71.70439911    0.05000000    0.23000000
   17.08361244   72.74810028    0.05000000    0.23000000
   17.08694458   74.02010345    0.05000000    0.23000000
   17.09000015   73.24500275    0.05000000    0.23000000
   17.09333420   76.03780365    0.05000000    0.23000000
   17.09666824   70.42269897    0.05000000    0.23000000
   17.09805679   72.25240326    0.05000000    0.23000000
   17.10000038   74.20890045    0.05000000    0.23000000
   17.10333443   75.38919830    0.05000000    0.23000000
   17.10666656   74.21040344    0.05000000    0.23000000
   17.10972214   75.22859955    0.05000000    0.23000000
   17.11305618   72.93699646    0.05000000    0.23000000
   17.11638832   72.59110260    0.05000000    0.23000000
   17.12111092   72.59110260    0.05000000    0.23000000
   17.12500000   74.21669769    0.05000000    0.23000000
   17.12833405   71.20279694    0.05000000    0.23000000
   17.13166618   72.35780334    0.05000000    0.23000000
   17.13472176   75.86830139    0.05000000    0.23000000
   17.13805580   73.35639954    0.05000000    0.23000000
   17.14138794   73.15049744    0.05000000    0.23000000
   17.14444351   73.89569855    0.05000000    0.23000000
   17.14777756   73.61239624    0.05000000    0.23000000
   17.14833260   73.00029755    0.05000000    0.23000000
   17.15138817   78.57929993    0.05000000    0.23000000
   17.15472221   73.50119781    0.05000000    0.23000000
   17.15805435   73.67330170    0.05000000    0.23000000
   17.16110992   70.15650177    0.05000000    0.23000000
   17.16444397   72.90630341    0.05000000    0.23000000
   17.16777802   74.69200134    0.05000000    0.23000000
   17.17222214   74.69200134    0.05000000    0.23000000
   17.17638779   77.81490326    0.05000000    0.23000000
   17.17944336   83.22270203    0.05000000    0.23000000
   17.18277740   79.61239624    0.05000000    0.23000000
   17.18610954   71.39910126    0.05000000    0.23000000
   17.18916512   75.44249725    0.05000000    0.23000000
   17.19249916   76.56130219    0.05000000    0.23000000
   17.19583321   76.01010132    0.05000000    0.23000000
   17.21277809   75.54979706    0.05000000    0.23000000
   17.21555710   74.48419952    0.05000000    0.23000000
   17.21861076   76.97709656    0.05000000    0.23000000
   17.22361183   76.97709656    0.05000000    0.23000000
   17.22777748   74.12039948    0.05000000    0.23000000
   17.23083305   73.77189636    0.05000000    0.23000000
   17.23416710   74.75129700    0.05000000    0.23000000
   17.23750114   77.09020233    0.05000000    0.23000000
   17.24055672   72.19680023    0.05000000    0.23000000
   17.24388885   72.03150177    0.05000000    0.23000000
   17.24722290   75.82579803    0.05000000    0.23000000
   17.25027847   74.51509857    0.05000000    0.23000000
   17.25361061   73.85739899    0.05000000    0.23000000
   17.25666618   74.32589722    0.05000000    0.23000000
   17.26000023   73.25479889    0.05000000    0.23000000
   17.26250076   73.10310364    0.05000000    0.23000000
   17.26361084   74.08409882    0.05000000    0.23000000
   17.26694489   72.18879700    0.05000000    0.23000000
   17.27000046   73.35099792    0.05000000    0.23000000
   17.27472115   73.35099792    0.05000000    0.23000000
   17.27888870   76.19450378    0.05000000    0.23000000
   17.28222275   76.05789948    0.05000000    0.23000000
   17.28555489   72.58830261    0.05000000    0.23000000
   17.28861046   76.17209625    0.05000000    0.23000000
   17.29194450   80.07270050    0.05000000    0.23000000
   17.29500008   74.87640381    0.05000000    0.23000000
   17.29833221   74.89070129    0.05000000    0.23000000
   17.30166626   75.73860168    0.05000000    0.23000000
   17.30472183   75.07679749    0.05000000    0.23000000
   17.30805397   73.53320313    0.05000000    0.23000000
   17.31138802   75.95899963    0.05000000    0.23000000
   17.31277657   73.06320190    0.05000000    0.23000000
   17.31472206   74.72329712    0.05000000    0.23000000
   17.31805611   76.92299652    0.05000000    0.23000000
   17.32111168   75.08959961    0.05000000    0.23000000
   17.32583427   75.08959961    0.05000000    0.23000000
   17.33000183   73.51450348    0.05000000    0.23000000
   17.33333397   74.27760315    0.05000000    0.23000000
   17.33666801   74.27989960    0.05000000    0.23000000
   17.33972359   74.05419922    0.05000000    0.23000000
   17.34305573   73.80519867    0.05000000    0.23000000
   17.34611130   76.45110321    0.05000000    0.23000000
   17.34944534   74.07569885    0.05000000    0.23000000
   17.35277748   77.38159943    0.05000000    0.23000000
   17.35583305   75.23210144    0.05000000    0.23000000
   17.35916710   73.81359863    0.05000000    0.23000000
   17.36250114   72.05590057    0.05000000    0.23000000
   17.36277771   73.74510193    0.05000000    0.23000000
   17.36611176   76.43489838    0.05000000    0.23000000
   17.36944389   74.70989990    0.05000000    0.23000000
   17.37277794   73.20880127    0.05000000    0.23000000
   17.37722206   73.20880127    0.05000000    0.23000000
   17.38111115   73.96389771    0.05000000    0.23000000
   17.38444519   73.47730255    0.05000000    0.23000000
   17.38777733   75.67800140    0.05000000    0.23000000
   17.39083290   78.93479919    0.05000000    0.23000000
   17.39416695   78.05519867    0.05000000    0.23000000
   17.39749908   75.61250305    0.05000000    0.23000000
   17.40055466   72.44429779    0.05000000    0.23000000
   17.40388870   73.94969940    0.05000000    0.23000000
   17.40722275   74.70570374    0.05000000    0.23000000
   17.41027832   71.43720245    0.05000000    0.23000000
   17.41277695   74.26580048    0.05000000    0.23000000
   17.41388893   73.59269714    0.05000000    0.23000000
   17.41722107   75.82659912    0.05000000    0.23000000
   17.42027664   74.88960266    0.05000000    0.23000000
   17.42361069   72.52819824    0.05000000    0.23000000
   17.42833328   72.52819824    0.05000000    0.23000000
   17.43249893   75.53420258    0.05000000    0.23000000
   17.43555450   76.49469757    0.05000000    0.23000000
   17.43888855   73.62879944    0.05000000    0.23000000
   17.44222069   72.83619690    0.05000000    0.23000000
   17.44527626   72.13220215    0.05000000    0.23000000
   17.44861031   72.41660309    0.05000000    0.23000000
   17.45166779   71.37259674    0.05000000    0.23000000
   17.45499992   74.57109833    0.05000000    0.23000000
   17.45833397   74.43779755    0.05000000    0.23000000
   17.46138954   72.03299713    0.05000000    0.23000000
   17.46277809   74.72180176    0.05000000    0.23000000
   17.46500015   73.05560303    0.05000000    0.23000000
   17.46833420   75.81220245    0.05000000    0.23000000
   17.47138977   75.38390350    0.05000000    0.23000000
   17.47472191   73.96690369    0.05000000    0.23000000
   17.47944450   73.96690369    0.05000000    0.23000000
   17.48361206   76.57099915    0.05000000    0.23000000
   17.48694420   73.15450287    0.05000000    0.23000000
   17.48999977   78.47769928    0.05000000    0.23000000
   17.49333382   79.14089966    0.05000000    0.23000000
   17.49666786   76.09369659    0.05000000    0.23000000
   17.49972153   75.81220245    0.05000000    0.23000000
   17.50305557   81.13430023    0.05000000    0.23000000
   17.50611115   75.41149902    0.05000000    0.23000000
   17.50944519   76.85970306    0.05000000    0.23000000
   17.51277733   73.92680359    0.05000000    0.23000000
   17.51333427   75.84010315    0.05000000    0.23000000
   17.51638794   77.58570099    0.05000000    0.23000000
   17.51972198   74.73410034    0.05000000    0.23000000
   17.52305603   73.08850098    0.05000000    0.23000000
   17.52611160   73.57219696    0.05000000    0.23000000
   17.53055573   73.57219696    0.05000000    0.23000000
   17.53472137   76.61460114    0.05000000    0.23000000
   17.53805542   73.57869720    0.05000000    0.23000000
   17.54138756   79.54560089    0.05000000    0.23000000
   17.54444313   76.72679901    0.05000000    0.23000000
   17.54777718   77.15280151    0.05000000    0.23000000
   17.55083275   75.67780304    0.05000000    0.23000000
   17.55416679   78.48609924    0.05000000    0.23000000
   17.55749893   72.78900146    0.05000000    0.23000000
   17.56055450   74.85469818    0.05000000    0.23000000
   17.56333351   72.34439850    0.05000000    0.23000000
   17.56416512   73.18129730    0.05000000    0.23000000
   17.56750107   76.12010193    0.05000000    0.23000000
   17.57083511   75.03440094    0.05000000    0.23000000
   17.57389069   75.38179779    0.05000000    0.23000000
   17.57722282   75.62429810    0.05000000    0.23000000
   17.58194542   75.62429810    0.05000000    0.23000000
   17.58583450   74.03489685    0.05000000    0.23000000
   17.58916664   73.31710052    0.05000000    0.23000000
   17.59250069   73.03589630    0.05000000    0.23000000
   17.59555626   76.43750000    0.05000000    0.23000000
   17.59889030   74.98090363    0.05000000    0.23000000
   17.60222244   75.60669708    0.05000000    0.23000000
   17.60527802   77.13430023    0.05000000    0.23000000
   17.60861206   81.33309937    0.05000000    0.23000000
   17.61194420   74.08499908    0.05000000    0.23000000
   17.61333466   76.42729950    0.05000000    0.23000000
   17.61527824   71.18599701    0.05000000    0.23000000
   17.61861038   74.31690216    0.05000000    0.23000000
   17.62194443   77.70140076    0.05000000    0.23000000
   17.62500000   75.11499786    0.05000000    0.23000000
   17.62833405   73.69020081    0.05000000    0.23000000
   17.63305473   73.69020081    0.05000000    0.23000000
   17.63722229   74.70099640    0.05000000    0.23000000
   17.64027786   74.64669800    0.05000000    0.23000000
   17.64361191   74.09230042    0.05000000    0.23000000
   17.64694405   75.70980072    0.05000000    0.23000000
   17.64999962   73.27400208    0.05000000    0.23000000
   17.65333366   76.87400055    0.05000000    0.23000000
   17.65638924   74.24720001    0.05000000    0.23000000
   17.65972137   74.32910156    0.05000000    0.23000000
   17.66305542   76.66239929    0.05000000    0.23000000
   17.66388893   72.32460022    0.05000000    0.23000000
   17.66694450   74.68550110    0.05000000    0.23000000
   17.67027664   74.13089752    0.05000000    0.23000000
   17.67361069   75.45359802    0.05000000    0.23000000
   17.67666626   71.36769867    0.05000000    0.23000000
   17.68000031   74.36699677    0.05000000    0.23000000
   17.68416595   74.36699677    0.05000000    0.23000000
   17.68833160   76.57990265    0.05000000    0.23000000
   17.69138718   72.58609772    0.05000000    0.23000000
   17.69472122   76.18260193    0.05000000    0.23000000
   17.69805527   72.93199921    0.05000000    0.23000000
   17.70111275   74.43129730    0.05000000    0.23000000
   17.70444489   78.53140259    0.05000000    0.23000000
   17.70777893   72.60729980    0.05000000    0.23000000
   17.71083450   71.36080170    0.05000000    0.23000000
   17.71361160   74.42089844    0.05000000    0.23000000
   17.71444511   74.14260101    0.05000000    0.23000000
   17.71777916   76.41979980    0.05000000    0.23000000
   17.72111130   74.88539886    0.05000000    0.23000000
   17.72416687   73.10520172    0.05000000    0.23000000
   17.72750092   77.78070068    0.05000000    0.23000000
   17.73055649   72.72190094    0.05000000    0.23000000
   17.73527718   72.72190094    0.05000000    0.23000000
   17.73944473   74.78900146    0.05000000    0.23000000
   17.74277878   80.45749664    0.05000000    0.23000000
   17.74583435   72.78479767    0.05000000    0.23000000
   17.74916649   73.47699738    0.05000000    0.23000000
   17.75250053   70.48789978    0.05000000    0.23000000
   17.75555611   72.25389862    0.05000000    0.23000000
   17.75888824   75.01959991    0.05000000    0.23000000
   17.76194382   73.77010345    0.05000000    0.23000000
   17.76361084   72.76840210    0.05000000    0.23000000
   17.76555634   74.19699860    0.05000000    0.23000000
   17.76888847   73.23380280    0.05000000    0.23000000
   17.77222252   73.33830261    0.05000000    0.23000000
   17.77527809   73.79149628    0.05000000    0.23000000
   17.77861023   73.00849915    0.05000000    0.23000000
   17.78194427   72.48609924    0.05000000    0.23000000
   17.78666687   72.48609924    0.05000000    0.23000000
   17.79055595   76.32689667    0.05000000    0.23000000
   17.79388809   70.77130127    0.05000000    0.23000000
   17.79722214   69.77790070    0.05000000    0.23000000
   17.80027771   72.40589905    0.05000000    0.23000000
   17.80360985   71.93329620    0.05000000    0.23000000
   17.80666542   73.04910278    0.05000000    0.23000000
   17.80999947   71.51190186    0.05000000    0.23000000
   17.81333351   71.68769836    0.05000000    0.23000000
   17.81388855   75.27780151    0.05000000    0.23000000
   17.81694603   72.39440155    0.05000000    0.23000000
   17.82027817   76.40270233    0.05000000    0.23000000
   17.82361221   72.47139740    0.05000000    0.23000000
   17.82666779   77.30829620    0.05000000    0.23000000
   17.83000183   71.97550201    0.05000000    0.23000000
   17.83305550   73.40869904    0.05000000    0.23000000
   17.83777809   73.40869904    0.05000000    0.23000000
   17.84194565   75.30310059    0.05000000    0.23000000
   17.84500122   72.13590240    0.05000000    0.23000000
   17.84833336   73.98880005    0.05000000    0.23000000
   17.85138893   71.20549774    0.05000000    0.23000000
   17.85472298   75.23200226    0.05000000    0.23000000
   17.85805511   73.31459808    0.05000000    0.23000000
   17.86111069   73.03379822    0.05000000    0.23000000
   17.86388969   73.32730103    0.05000000    0.23000000
   17.86472321   72.33129883    0.05000000    0.23000000
   17.86805534   72.61430359    0.05000000    0.23000000
   17.87138939   72.89160156    0.05000000    0.23000000
   17.87444496   71.41449738    0.05000000    0.23000000
   17.87777710   71.84020233    0.05000000    0.23000000
   17.88083267   73.25260162    0.05000000    0.23000000
   17.88416672   74.59709930    0.05000000    0.23000000
   17.88888931   74.59709930    0.05000000    0.23000000
   17.89305496   73.20320129    0.05000000    0.23000000
   17.89611053   72.31390381    0.05000000    0.23000000
   17.89944458   75.57399750    0.05000000    0.23000000
   17.90277672   79.37120056    0.05000000    0.23000000
   17.90583229   74.12329865    0.05000000    0.23000000
   17.90916634   75.54149628    0.05000000    0.23000000
   17.91250038   74.32550049    0.05000000    0.23000000
   17.91388893   74.12629700    0.05000000    0.23000000
   17.91583252   73.04560089    0.05000000    0.23000000
   17.91916656   78.10910034    0.05000000    0.23000000
   17.92249870   71.60540009    0.05000000    0.23000000
   17.92555428   70.83809662    0.05000000    0.23000000
   17.92888832   72.44740295    0.05000000    0.23000000
   17.93194389   74.60340118    0.05000000    0.23000000
   17.93527603   73.98809814    0.05000000    0.23000000
   17.93999863   73.98809814    0.05000000    0.23000000
   17.94416618   76.46649933    0.05000000    0.23000000
   17.94749832   74.25219727    0.05000000    0.23000000
   17.95055580   73.69930267    0.05000000    0.23000000
   17.95388985   75.58699799    0.05000000    0.23000000
   17.95722389   73.81330109    0.05000000    0.23000000
   17.96027946   74.60690308    0.05000000    0.23000000
   17.96361160   76.19090271    0.05000000    0.23000000
   17.96416664   72.61009979    0.05000000    0.23000000
   17.96750069   73.16449738    0.05000000    0.23000000
   17.97055626   78.58589935    0.05000000    0.23000000
   17.97389030   73.46929932    0.05000000    0.23000000
   17.97722244   74.61650085    0.05000000    0.23000000
   17.98027802   72.70410156    0.05000000    0.23000000
   17.98361206   75.63919830    0.05000000    0.23000000
   17.98666763   71.80159760    0.05000000    0.23000000
   17.99138832   71.80159760    0.05000000    0.23000000
   17.99527740   74.53710175    0.05000000    0.23000000
   17.99861145   72.15910339    0.05000000    0.23000000
