    HOUR (UT)   FLARE FACTOR    SKY TESTER    SUN TESTER
   11.37972260   -1.00000000   -1.00000000   -1.00000000
   11.44166660   77.62079620    4.90999985    2.64000010
   11.44611073   77.09719849    4.90999985    2.64000010
   11.44944477   78.94419861    4.90999985    2.64000010
   11.45249939   77.10530090    4.90999985    2.66000009
   11.45583344   79.06459808    4.90999985    2.64000010
   11.45888901   75.45909882    4.90999985    2.64000010
   11.46222210   74.21309662    4.90999985    2.61999989
   11.46527767   75.89060211    4.90999985    2.64000010
   11.46861076   77.32879639    4.90999985    2.64000010
   11.47166634   75.23020172    4.90999985    2.64000010
   11.47499943   79.59140015    4.90999985    2.66000009
   11.47527695   78.45510101    4.90999985    2.66000009
   11.47833252   75.59880066    4.90999985    2.66000009
   11.48166656   79.73359680    4.90999985    2.64000010
   11.48472214   77.18119812    4.90999985    2.64000010
   11.48805618   75.61879730    4.90999985    2.64000010
   11.49111176   79.90070343    4.90999985    2.64000010
   11.49444485   74.73349762    4.90999985    2.64000010
   11.49750042   79.76080322    4.90999985    2.64000010
   11.50083351   77.46060181    4.90999985    2.64000010
   11.50388908   76.79840088    4.90999985    2.66000009
   11.50722218   77.37319946    4.90999985    2.66000009
   11.51027775   78.44180298    4.90999985    2.66000009
   11.51361084   77.22070313    4.90999985    2.67000008
   11.51666641   75.55660248    4.90999985    2.66000009
   11.51999950   79.21389771    4.90999985    2.66000009
   11.52305508   77.83519745    4.90999985    2.64000010
   11.52499962   78.89320374    4.90999985    2.66000009
   11.52666664   75.27980042    4.90999985    2.64000010
   11.52999973   79.35910034    4.90999985    2.66000009
   11.53305531   76.11569977    4.90999985    2.66000009
   11.53638935   77.97329712    4.90999985    2.66000009
   11.53972244   74.71720123    4.90999985    2.66000009
   11.54277802   78.34660339    4.90999985    2.67000008
   11.54583359   76.69159698    4.90999985    2.67000008
   11.54916668   77.78589630    4.90999985    2.66000009
   11.55222225   75.81710052    4.90999985    2.66000009
   11.55555534   74.74929810    4.90999985    2.66000009
   11.55861092   74.43979645    4.90999985    2.66000009
   11.56194496   76.21450043    4.90999985    2.66000009
   11.56500053   75.51830292    4.90999985    2.67000008
   11.56833363   73.92179871    4.90999985    2.67000008
   11.57138920   76.35700226    4.90999985    2.66000009
   11.57472229   78.36889648    4.90999985    2.66000009
   11.57499981   77.77629852    4.90999985    2.66000009
   11.57833290   73.19719696    4.90999985    2.67000008
   11.58138847   76.84100342    4.90999985    2.67000008
   11.58472157   75.55879974    4.90999985    2.67000008
   11.58777714   75.40679932    4.90999985    2.67000008
   11.59111118   77.90270233    4.90999985    2.67000008
   11.59416676   83.82089996    4.90999985    2.67000008
   11.59749985   76.09349823    4.90999985    2.67000008
   11.60055637   78.83519745    4.90999985    2.67000008
   11.60388947   74.81549835    4.90999985    2.67000008
   11.60694504   75.12419891    4.90999985    2.67000008
   11.61027813   74.65090179    4.90999985    2.67000008
   11.61333370   73.32959747    4.90999985    2.67000008
   11.61666679   78.85710144    4.90999985    2.67000008
   11.61972237   77.01380157    4.90999985    2.67000008
   11.62305546   79.01709747    4.90999985    2.67000008
   11.62500000   77.31929779    4.90999985    2.67000008
   11.62666702   78.52539825    4.90999985    2.67000008
   11.62972260   79.06729889    4.90999985    2.67000008
   11.63305569   76.75599670    4.90999985    2.69000006
   11.63611126   77.81449890    4.90999985    2.67000008
   11.63944435   75.25630188    4.90999985    2.67000008
   11.64249992   76.00440216    4.90999985    2.67000008
   11.64583302   74.37509918    4.90999985    2.67000008
   11.64888859   75.36060333    4.90999985    2.67000008
   11.65222168   75.36840057    4.90999985    2.67000008
   11.65527725   82.89350128    4.90999985    2.67000008
   11.65833282   76.46250153    4.90999985    2.67000008
   11.66166592   77.05809784    4.90999985    2.69000006
   11.66472149   80.42849731    4.90999985    2.69000006
   11.66805553   83.06030273    4.90999985    2.67000008
   11.67111111   76.76789856    4.90999985    2.69000006
   11.67444515   75.11830139    4.90999985    2.67000008
   11.67500019   78.93890381    4.90999985    2.67000008
   11.67777824   76.55470276    4.90999985    2.69000006
   11.68111134   79.41719818    4.90999985    2.69000006
   11.68416691   76.86530304    4.90999985    2.67000008
   11.68722248   78.77290344    4.90999985    2.67000008
   11.69055557   77.56330109    4.90999985    2.69000006
   11.69361115   75.44969940    4.90999985    2.69000006
   11.69694424   80.24520111    4.90999985    2.69000006
   11.69999981   75.15609741    4.90999985    2.69000006
   11.70305538   74.48259735    4.90999985    2.69000006
   11.70638847   78.60910034    4.90999985    2.69000006
   11.70944405   82.16989899    4.90999985    2.69000006
   11.71277714   77.75289917    4.90999985    2.69000006
   11.71583271   77.51029968    4.90999985    2.69000006
   11.71916580   77.38279724    4.90999985    2.69000006
   11.72222137   74.89270020    4.90999985    2.69000006
   11.72527695   76.01049805    4.90999985    2.71000004
   11.72583294   75.56330109    4.90999985    2.71000004
   11.72888851   76.05049896    4.90999985    2.69000006
   11.73222160   76.64109802    4.90999985    2.69000006
   11.73527813   77.43659973    4.90999985    2.69000006
   11.73861122   76.86859894    4.90999985    2.69000006
   11.74166679   81.73979950    4.90999985    2.69000006
   11.74499989   74.21910095    4.90999985    2.71000004
   11.74805546   79.25650024    4.90999985    2.69000006
   11.75138855   79.56839752    4.90999985    2.69000006
   11.75444412   76.31900024    4.90999985    2.71000004
   11.75777817   79.07939911    4.90999985    2.71000004
   11.76083374   75.85269928    4.90999985    2.71000004
   11.76388931   76.50240326    4.90999985    2.71000004
   11.76722240   78.71980286    4.90999985    2.69000006
   11.77027798   78.10489655    4.90999985    2.71000004
   11.77361107   77.11869812    4.90999985    2.71000004
   11.77527714   77.61340332    4.90999985    2.71000004
   11.77722168   78.97339630    4.90999985    2.71000004
   11.78055573   80.11460114    4.90999985    2.71000004
   11.78361130   76.84020233    4.90999985    2.71000004
   11.78666687   75.11550140    4.90999985    2.71000004
   11.79000092   75.56459808    4.90999985    2.71000004
   11.79305553   75.10990143    4.90999985    2.71000004
   11.79638958   77.76740265    4.90999985    2.71000004
   11.79944515   78.51860046    4.90999985    2.71000004
   11.80277824   73.57160187    4.90999985    2.71000004
   11.80583382   77.13410187    4.90999985    2.71000004
   11.80916691   76.58390045    4.90999985    2.73000002
   11.81222248   78.06539917    4.90999985    2.73000002
   11.81555557   78.60479736    4.90999985    2.71000004
   11.81861115   78.02639771    4.90999985    2.71000004
   11.82194424   80.32330322    4.90999985    2.71000004
   11.82527733   77.77909851    4.90999985    2.71000004
   11.82555580   75.55410004    4.90999985    2.71000004
   11.82861137   78.49430084    4.90999985    2.73000002
   11.83194447   76.85910034    4.90999985    2.71000004
   11.83500004   80.31839752    4.90999985    2.71000004
   11.83833313   83.03040314    4.90999985    2.71000004
   11.84138870   79.23989868    4.90999985    2.71000004
   11.84472179   74.49289703    4.90999985    2.71000004
   11.84777737   77.52079773    4.90999985    2.73000002
   11.85111141   75.32129669    4.90999985    2.71000004
   11.85416698   75.22370148    4.90999985    2.71000004
   11.85750008   75.40360260    4.90999985    2.73000002
   11.86055565   76.41850281    4.90999985    2.73000002
   11.86388969   78.57669830    4.90999985    2.73000002
   11.86694431   78.12899780    4.90999985    2.71000004
   11.87027836   75.73429871    4.90999985    2.71000004
   11.87333393   75.96970367    4.90999985    2.71000004
   11.87527752   76.96369934    4.90999985    2.71000004
   11.87694454   75.65740204    4.90999985    2.71000004
   11.88027763   80.37079620    4.90999985    2.71000004
   11.88333321   80.69609833    4.90999985    2.73000002
   11.88638878   76.39640045    4.90999985    2.71000004
   11.88972187   76.24929810    4.90999985    2.73000002
   11.89277744   80.16449738    4.90999985    2.73000002
   11.89611053   77.81120300    4.90999985    2.73000002
   11.89916611   77.88390350    4.90999985    2.73000002
   11.90249920   74.77950287    4.90999985    2.73000002
   11.90555477   75.81089783    4.90999985    2.73000002
   11.90916634   71.74539948    4.90999985    2.73000002
   11.91222191   76.25759888    4.90999985    2.73000002
   11.91527748   75.16110229    4.90999985    2.73000002
   11.91861153   76.30339813    4.90999985    2.75000000
   11.92166710   79.96440125    4.90999985    2.73000002
   11.92500019   77.48210144    4.90999985    2.73000002
   11.92555618   75.05030060    4.90999985    2.73000002
   11.92861176   72.45729828    4.90999985    2.73000002
   11.93194485   75.38300323    4.90999985    2.73000002
   11.93500042   75.29319763    4.90999985    2.71000004
   11.93833351   74.99009705    4.90999985    2.75000000
   11.94138908   75.54029846    4.90999985    2.73000002
   11.94472218   76.10379791    4.90999985    2.73000002
   11.94777775   79.02819824    4.90999985    2.75000000
   11.95111084   76.98449707    4.90999985    2.73000002
   11.95416641   77.30729675    4.90999985    2.73000002
   11.95749950   77.79900360    4.90999985    2.75000000
   11.96055508   76.99990082    4.90999985    2.75000000
   11.96361065   82.07610321    4.90999985    2.75000000
   11.96694374   78.50559998    4.90999985    2.75000000
   11.96999931   76.54209900    4.90999985    2.75000000
   11.97333336   75.53150177    4.90999985    2.75000000
   11.97555542   82.10980225    4.90999985    2.73000002
   11.97694397   77.33809662    4.90999985    2.75000000
   11.97999954   79.16570282    4.90999985    2.75000000
   11.98333359   75.05400085    4.90999985    2.73000002
   11.98638916   78.14260101    4.90999985    2.75000000
   11.98972225   76.06020355    4.90999985    2.75000000
   11.99277782   77.45839691    4.90999985    2.73000002
   11.99611092   78.41059875    4.90999985    2.73000002
   11.99916649   80.02770233    4.90999985    2.75000000
   12.00249958   75.46119690    4.90999985    2.75000000
   12.00583363   79.40029907    4.90999985    2.75000000
   12.00888920   76.41660309    4.90999985    2.73000002
   12.01222229   78.14289856    4.90999985    2.75000000
   12.01527786   78.90429688    4.90999985    2.75000000
   12.01861095   78.27290344    4.90999985    2.73000002
   12.02166653   77.09790039    4.90999985    2.75000000
   12.02499962   76.86910248    4.90999985    2.75000000
   12.02555561   76.26719666    4.90999985    2.75000000
   12.02833271   76.69110107    4.90999985    2.75000000
   12.03166676   74.84059906    4.90999985    2.75000000
   12.03472233   75.85739899    4.90999985    2.76999998
   12.03777790   74.80560303    4.90999985    2.75000000
   12.04111195   77.69180298    4.90999985    2.75000000
   12.04416752   80.79519653    4.90999985    2.73000002
   12.04750061   80.98580170    4.90999985    2.75000000
   12.05055618   77.07240295    4.90999985    2.76999998
   12.05388927   78.07759857    4.90999985    2.75000000
   12.05694485   76.37740326    4.90999985    2.75000000
   12.06000042   76.88449860    4.90999985    2.75000000
   12.06333351   75.89199829    4.90999985    2.75000000
   12.06638908   80.70829773    4.90999985    2.75000000
   12.06972218   80.61920166    4.90999985    2.75000000
   12.07277775   76.19110107    4.90999985    2.75000000
   12.07555580   75.80500031    4.90999985    2.75000000
   12.07638836   77.50309753    4.90999985    2.75000000
   12.07944393   75.65429688    4.90999985    2.76999998
   12.08277798   73.73840332    4.90999985    2.75000000
   12.08583260   75.95760345    4.90999985    2.76999998
   12.08916664   78.51730347    4.90999985    2.76999998
   12.09222221   77.90370178    4.90999985    2.75000000
   12.09555531   75.54419708    4.90999985    2.75000000
   12.09861088   77.91259766    4.90999985    2.76999998
   12.10166740   80.68019867    4.90999985    2.76999998
   12.10500050   76.45069885    4.90999985    2.75000000
   12.10805607   76.00620270    4.90999985    2.76999998
   12.11138916   78.08409882    4.90999985    2.76999998
   12.11444473   74.89630127    4.90999985    2.76999998
   12.11777782   80.79080200    4.90999985    2.75000000
   12.12083340   78.87039948    4.90999985    2.76999998
   12.12388897   74.01300049    4.90999985    2.75000000
   12.12555599   75.89340210    4.90999985    2.76999998
   12.12750053   75.60649872    4.90999985    2.76999998
   12.13083363   75.43219757    4.90999985    2.76999998
   12.13388920   73.50360107    4.90999985    2.78999996
   12.13694477   71.41329956    4.90999985    2.76999998
   12.14027786   76.62599945    4.90999985    2.76999998
   12.14333344   76.62030029    4.90999985    2.75000000
   12.14666653   76.23829651    4.90999985    2.75000000
   12.14972210   76.20760345    4.90999985    2.76999998
   12.15305519   79.14730072    4.90999985    2.75000000
   12.15638828   75.58850098    4.90999985    2.76999998
   12.15944386   76.60199738    4.90999985    2.76999998
   12.16277695   77.37129974    4.90999985    2.75000000
   12.16583252   80.35089874    4.90999985    2.75000000
   12.16888905   76.57420349    4.90999985    2.76999998
   12.17222214   76.96040344    4.90999985    2.76999998
   12.17555618   75.63629913    4.90999985    2.78999996
   12.17583370   76.80590057    4.90999985    2.76999998
   12.17916679   79.21230316    4.90999985    2.76999998
   12.18222237   77.62020111    4.90999985    2.78999996
   12.18555546   78.44850159    4.90999985    2.76999998
   12.18861103   78.39240265    4.90999985    2.76999998
   12.19194412   79.33550262    4.90999985    2.76999998
   12.19499969   78.58740234    4.90999985    2.76999998
   12.19833374   80.86789703    4.90999985    2.76999998
   12.20138836   77.19200134    4.90999985    2.76999998
   12.20472240   78.90260315    4.90999985    2.76999998
   12.20777798   75.31610107    4.90999985    2.76999998
   12.21111107   79.19799805    4.90999985    2.78999996
   12.21416664   73.58010101    4.90999985    2.78999996
   12.21749973   76.19290161    4.90999985    2.78999996
   12.22055531   75.58789825    4.90999985    2.75000000
   12.22388840   76.68160248    4.90999985    2.76999998
   12.22555542   81.88529968    4.90999985    2.78999996
   12.22722149   81.61340332    4.90999985    2.76999998
   12.23055553   87.36150360    4.90999985    2.76999998
   12.23361111   78.98310089    4.90999985    2.75000000
   12.23694515   83.18009949    4.90999985    2.78999996
   12.24000072   80.77380371    4.90999985    2.78999996
   12.24333382   77.56479645    4.90999985    2.76999998
   12.24638939   80.18640137    4.90999985    2.78999996
   12.24972248   80.24960327    4.90999985    2.76999998
   12.25277805   78.77050018    4.90999985    2.78999996
   12.25611115   75.78170013    4.90999985    2.78999996
   12.25916672   81.68779755    4.90999985    2.78999996
   12.26222229   87.62819672    4.90999985    2.76999998
   12.26555538   81.38449860    4.90999985    2.78999996
   12.26861095   82.29989624    4.90999985    2.76999998
   12.27194405   76.90399933    4.90999985    2.76999998
   12.27499962   74.16429901    4.90999985    2.78999996
   12.27555561   78.98390198    4.90999985    2.78999996
   12.27888870   79.21299744    4.90999985    2.78999996
   12.28194427   74.97660065    4.90999985    2.80999994
   12.28527832   72.99140167    4.90999985    2.78999996
   12.28833389   72.43360138    4.90999985    2.78999996
   12.29166698   74.92130280    4.90999985    2.78999996
   12.29472256   82.46690369    4.90999985    2.78999996
   12.29805565   77.10179901    4.90999985    2.78999996
   12.30111122   76.38510132    4.90999985    2.78999996
   12.30444431   77.99710083    4.90999985    2.80999994
   12.30749989   75.19339752    4.90999985    2.78999996
   12.31083393   77.53859711    4.90999985    2.78999996
   12.31388950   75.83660126    4.90999985    2.78999996
   12.31722260   78.92350006    4.90999985    2.78999996
   12.32027817   77.37079620    4.90999985    2.78999996
   12.32361126   75.64890289    4.90999985    2.76999998
   12.32555580   76.87640381    4.90999985    2.78999996
   12.32722187   77.17389679    4.90999985    2.78999996
   12.33027744   75.72869873    4.90999985    2.80999994
   12.33333302   77.99890137    4.90999985    2.78999996
   12.33666611   74.11789703    4.90999985    2.78999996
   12.33972168   74.62740326    4.90999985    2.78999996
   12.34333324   78.26989746    4.90999985    2.80999994
   12.34638882   78.06449890    4.90999985    2.78999996
   12.34944439   77.16320038    4.90999985    2.78999996
   12.35277843   77.84179688    4.90999985    2.78999996
   12.35583401   76.28260040    4.90999985    2.78999996
   12.38833332   77.38059998    4.90999985    2.78999996
   12.39138889   76.09149933    4.90999985    2.78999996
   12.39472198   77.98290253    4.90999985    2.80999994
   12.39777756   77.20339966    4.90999985    2.78999996
   12.40111065   77.81690216    4.90999985    2.80999994
   12.40416622   78.90959930    4.90999985    2.82999992
   12.40749931   77.39029694    4.90999985    2.80999994
   12.41055489   79.35399628    4.90999985    2.80999994
   12.41694450   79.35399628    4.90999985    2.76999998
   12.42083359   79.76550293    4.90999985    2.78999996
   12.42416668   79.20040131    4.90999985    2.82999992
   12.42722225   80.92739868    4.90999985    2.80999994
   12.43055630   81.83570099    4.90999985    2.80999994
   12.43361092   76.49060059    4.90999985    2.80999994
   12.43694496   76.55100250    4.90999985    2.80999994
   12.43833351   75.46690369    4.90999985    2.78999996
   12.44055557   82.20240021    4.90999985    2.80999994
   12.44388866   76.15779877    4.90999985    2.78999996
   12.44694424   76.78099823    4.90999985    2.80999994
   12.44999981   75.61380005    4.90999985    2.80999994
   12.45333290   79.54620361    4.90999985    2.80999994
   12.45638847   79.77580261    4.90999985    2.80999994
   12.45972157   78.00050354    4.90999985    2.80999994
   12.46277714   74.86170197    4.90999985    2.82999992
   12.46805477   74.86170197    4.90999985    2.80999994
   12.47222137   79.29380035    4.90999985    2.80999994
   12.47527695   78.76439667    4.90999985    2.80999994
   12.47861099   74.94300079    4.90999985    2.80999994
   12.48166656   82.99089813    4.90999985    2.80999994
   12.48472214   81.04129791    4.90999985    2.78999996
   12.48805618   76.52829742    4.90999985    2.80999994
   12.48833370   76.07900238    4.90999985    2.80999994
   12.49166679   76.85160065    4.90999985    2.80999994
   12.49472237   79.13760376    4.90999985    2.80999994
   12.49805546   79.10900116    4.90999985    2.80999994
   12.50111103   78.14189911    4.90999985    2.80999994
   12.50444412   75.93399811    4.90999985    2.82999992
   12.50749969   84.97509766    4.90999985    2.82999992
   12.51083374   80.29180145    4.90999985    2.82999992
   12.51388931   78.54409790    4.90999985    2.80999994
   12.51916599   78.54409790    4.90999985    2.80999994
   12.52333355   77.83959961    4.90999985    2.82999992
   12.52638817   72.17579651    4.90999985    2.82999992
   12.52972221   79.58509827    4.90999985    2.82999992
   12.53277779   75.43160248    4.90999985    2.82999992
   12.53611183   92.06559753    4.90999985    2.80999994
   12.53861141   78.38849640    4.90999985    2.80999994
   12.53944492   85.28780365    4.90999985    2.80999994
   12.54250050   76.32440186    4.90999985    2.82999992
   12.54583359   77.34719849    4.90999985    2.80999994
   12.54888916   81.31030273    4.90999985    2.78999996
   12.55222225   76.51909637    4.90999985    2.82999992
   12.55527782   78.73419952    4.90999985    2.84999990
   12.55833340   79.77600098    4.90999985    2.80999994
   12.56166649   81.50129700    4.90999985    2.82999992
   12.56472206   78.42240143    4.90999985    2.82999992
   12.57027817   78.42240143    4.90999985    2.82999992
   12.57444477   79.00430298    4.90999985    2.82999992
   12.57777786   76.95709991    4.90999985    2.82999992
   12.58083344   80.81349945    4.90999985    2.84999990
   12.58388901   72.41639709    4.90999985    2.82999992
   12.58722210   75.87779999    4.90999985    2.82999992
   12.58861065   75.99729919    4.90999985    2.82999992
   12.59055519   78.63480377    4.90999985    2.82999992
   12.59361076   83.70760345    4.90999985    2.82999992
   12.59694386   82.33149719    4.90999985    2.84999990
   12.60000038   77.58489990    4.90999985    2.82999992
   12.60333347   81.44560242    4.90999985    2.84999990
   12.60638905   85.23699951    4.90999985    2.82999992
   12.60944462   79.40329742    4.90999985    2.82999992
   12.61277771   81.23739624    4.90999985    2.82999992
   12.61583328   80.01570129    4.90999985    2.82999992
   12.62166691   80.01570129    4.90999985    2.82999992
   12.62583351   80.32450104    4.90999985    2.82999992
   12.62888908   85.50189972    4.90999985    2.82999992
   12.63194466   80.43650055    4.90999985    2.82999992
   12.63527775   80.11849976    4.90999985    2.82999992
   12.63861084   85.49220276    4.90999985    2.82999992
   12.63888836   81.12129974    4.90999985    2.82999992
   12.64194393   85.95020294    4.90999985    2.82999992
   12.64527798   83.83850098    4.90999985    2.82999992
   12.64833355   78.57980347    4.90999985    2.82999992
   12.65166664   85.02120209    4.90999985    2.82999992
   12.65472221   81.79280090    4.90999985    2.82999992
   12.65805531   78.44380188    4.90999985    2.82999992
   12.66111088   79.18769836    4.90999985    2.82999992
   12.66444397   76.42800140    4.90999985    2.82999992
   12.66750050   84.45800018    4.90999985    2.82999992
   12.67277813   84.45800018    4.90999985    2.84999990
   12.67694473   78.26879883    4.90999985    2.84999990
   12.68027782   81.30740356    4.90999985    2.84999990
   12.68333340   87.82389832    4.90999985    2.82999992
   12.68666649   79.63970184    4.90999985    2.84999990
   12.68861103   83.76689911    4.90999985    2.84999990
   12.69000053   81.45400238    4.90999985    2.84999990
   12.69333363   81.57790375    4.90999985    2.84999990
   12.69638920   82.04340363    4.90999985    2.82999992
   12.69972229   82.95040131    4.90999985    2.84999990
   12.70277786   81.56359863    4.90999985    2.84999990
   12.70611095   79.88439941    4.90999985    2.84999990
   12.70916653   79.10160065    4.90999985    2.82999992
   12.71249962   83.65789795    4.90999985    2.84999990
   12.71555519   83.42620087    4.90999985    2.82999992
   12.71888828   77.21730042    4.90999985    2.82999992
   12.72388840   77.21730042    4.90999985    2.86999989
   12.72805500   85.57579803    4.90999985    2.82999992
   12.73138809   79.55229950    4.90999985    2.84999990
   12.73444462   86.23699951    4.90999985    2.84999990
   12.73777771   80.72029877    4.90999985    2.84999990
   12.73861122   86.01380157    4.90999985    2.84999990
   12.74138927   82.84600067    4.90999985    2.84999990
   12.74444485   78.54519653    4.90999985    2.84999990
   12.74777794   82.79399872    4.90999985    2.84999990
   12.75083351   76.49420166    4.90999985    2.84999990
   12.75416660   82.80229950    4.90999985    2.84999990
   12.75722218   79.02449799    4.90999985    2.84999990
   12.76055527   83.11170197    4.90999985    2.84999990
   12.76361084   84.76940155    4.90999985    2.82999992
   12.76694393   80.96600342    4.90999985    2.84999990
   12.76999950   78.19629669    4.90999985    2.84999990
   12.77527714   78.19629669    4.90999985    2.84999990
   12.77916622   78.25160217    4.90999985    2.82999992
   12.78249931   83.42590332    4.90999985    2.82999992
   12.78555584   80.16079712    4.90999985    2.80999994
   12.78861141   79.38269806    4.90999985    2.84999990
   12.78944492   86.64569855    4.90999985    2.84999990
   12.79250050   80.47360229    4.90999985    2.84999990
   12.79583359   86.38500214    4.90999985    2.82999992
   12.79916668   78.76180267    4.90999985    2.82999992
   12.80222225   82.52989960    4.90999985    2.80999994
   12.80527782   83.13929749    4.90999985    2.82999992
   12.80861092   79.33740234    4.90999985    2.84999990
   12.81166649   80.02069855    4.90999985    2.84999990
   12.81500053   87.71900177    4.90999985    2.82999992
   12.81805515   82.70390320    4.90999985    2.82999992
   12.82138920   79.69380188    4.90999985    2.82999992
   12.82638836   79.69380188    4.90999985    2.86999989
   12.83055592   76.22779846    4.90999985    2.84999990
   12.83361053   81.44940186    4.90999985    2.84999990
   12.83694458   74.87390137    4.90999985    2.84999990
   12.83861065   83.33319855    4.90999985    2.86999989
   12.84055519   82.18679810    4.90999985    2.86999989
   12.84361076   76.36540222    4.90999985    2.86999989
   12.84694386   81.51989746    4.90999985    2.86999989
   12.85000038   88.14720154    4.90999985    2.86999989
   12.85333347   81.43530273    4.90999985    2.84999990
   12.85638905   76.09449768    4.90999985    2.84999990
   12.85972214   81.83830261    4.90999985    2.84999990
   12.86277771   78.37149811    4.90999985    2.82999992
   12.86611176   82.34449768    4.90999985    2.84999990
   12.86916637   77.81079865    4.90999985    2.84999990
   12.87250042   75.02619934    4.90999985    2.84999990
   12.87750053   75.02619934    4.90999985    2.84999990
   12.88166714   77.77860260    4.90999985    2.86999989
   12.88472176   85.31120300    4.90999985    2.86999989
   12.88805580   78.45020294    4.90999985    2.84999990
   12.88861084   74.78929901    4.90999985    2.84999990
   12.89166641   81.57830048    4.90999985    2.86999989
   12.89472198   74.99629974    4.90999985    2.84999990
   12.89805508   74.35299683    4.90999985    2.86999989
   12.90111065   76.35489655    4.90999985    2.86999989
   12.90444374   80.64450073    4.90999985    2.84999990
   12.90749931   77.11430359    4.90999985    2.86999989
   12.91083336   76.03869629    4.90999985    2.86999989
   12.91388893   75.69400024    4.90999985    2.84999990
   12.91722298   75.10130310    4.90999985    2.86999989
   12.92027855   75.50499725    4.90999985    2.84999990
   12.92361164   76.92800140    4.90999985    2.84999990
   12.92861176   76.92800140    4.90999985    2.84999990
   12.93277836   77.07849884    4.90999985    2.86999989
   12.93611145   83.41709900    4.90999985    2.86999989
   12.93861103   84.57360077    4.90999985    2.84999990
   12.93972206   82.69760132    4.90999985    2.86999989
   12.94277763   81.30020142    4.90999985    2.86999989
   12.94611073   83.87519836    4.90999985    2.86999989
   12.94916630   79.04479980    4.90999985    2.84999990
   12.95249939   83.58709717    4.90999985    2.86999989
   12.95555496   81.72170258    4.90999985    2.86999989
   12.95888901   76.79409790    4.90999985    2.84999990
   12.96194458   77.61730194    4.90999985    2.84999990
   12.96527767   83.28130341    4.90999985    2.84999990
   12.96833324   79.08380127    4.90999985    2.84999990
   12.97166634   81.52330017    4.90999985    2.86999989
   12.97472191   77.53469849    4.90999985    2.89000010
   12.97999954   77.53469849    4.90999985    2.86999989
   12.98388958   82.24189758    4.90999985    2.84999990
   12.98722267   86.35880280    4.90999985    2.86999989
   12.98861122   81.98680115    4.90999985    2.86999989
   12.99083328   75.75959778    4.90999985    2.86999989
   12.99388885   76.41320038    4.90999985    2.86999989
   12.99722290   76.75440216    4.90999985    2.86999989
   13.00027752   77.73130035    4.90999985    2.86999989
   13.00361156   78.15000153    4.90999985    2.89000010
   13.00666714   74.09719849    4.90999985    2.86999989
   13.01000023   81.12220001    4.90999985    2.86999989
   13.01305580   81.39920044    4.90999985    2.86999989
   13.01638889   78.93530273    4.90999985    2.86999989
   13.01944447   76.49019623    4.90999985    2.86999989
   13.02277756   79.60720062    4.90999985    2.86999989
   13.02583313   79.27339935    4.90999985    2.86999989
   13.03111076   79.27339935    4.90999985    2.86999989
   13.03527832   78.99310303    4.90999985    2.86999989
   13.03833389   78.41290283    4.90999985    2.89000010
   13.03888893   77.21350098    4.90999985    2.89000010
   13.04222298   82.40319824    4.90999985    2.86999989
   13.04527855   81.41390228    4.90999985    2.86999989
   13.04861164   79.62419891    4.90999985    2.86999989
   13.05166721   83.77919769    4.90999985    2.86999989
   13.05500031   76.40249634    4.90999985    2.86999989
   13.05805588   80.87090302    4.90999985    2.86999989
   13.06138897   77.99819946    4.90999985    2.86999989
   13.06444454   80.23419952    4.90999985    2.86999989
   13.06777763   79.32350159    4.90999985    2.86999989
   13.07083321   80.20290375    4.90999985    2.86999989
   13.07416630   75.10250092    4.90999985    2.86999989
   13.07722187   76.07540131    4.90999985    2.86999989
   13.08222198   76.07540131    4.90999985    2.86999989
   13.08638859   81.78639984    4.90999985    2.86999989
   13.08888817   82.58350372    4.90999985    2.86999989
   13.08972168   81.48500061    4.90999985    2.86999989
   13.09305477   81.77670288    4.90999985    2.86999989
   13.09611034   81.11940002    4.90999985    2.86999989
   13.09944439   79.04869843    4.90999985    2.86999989
   13.10249996   78.81240082    4.90999985    2.86999989
   13.10583401   77.21080017    4.90999985    2.86999989
   13.10888958   83.05269623    4.90999985    2.86999989
   13.11222267   77.64009857    4.90999985    2.86999989
   13.11527824   72.37640381    4.90999985    2.86999989
   13.11861134   73.33229828    4.90999985    2.86999989
   13.12194443   78.71690369    4.90999985    2.86999989
   13.12500000   78.82769775    4.90999985    2.86999989
   13.12833309   81.00370026    4.90999985    2.86999989
   13.13333321   81.00370026    4.90999985    2.86999989
   13.13749981   76.44709778    4.90999985    2.89000010
   13.13888836   81.95549774    4.90999985    2.86999989
   13.14111137   78.21369934    4.90999985    2.89000010
   13.14416695   76.85199738    4.90999985    2.89000010
   13.14750004   84.59519958    4.90999985    2.86999989
   13.15055561   80.69339752    4.90999985    2.84999990
   13.15388870   79.99859619    4.90999985    2.84999990
   13.15694427   77.89409637    4.90999985    2.82999992
   13.16027737   82.35739899    4.90999985    2.86999989
   13.16333294   82.76059723    4.90999985    2.84999990
   13.16666698   81.02780151    4.90999985    2.82999992
   13.16972256   75.59709930    4.90999985    2.86999989
   13.17305565   76.98329926    4.90999985    2.84999990
   13.17611122   78.80660248    4.90999985    2.86999989
   13.17944431   76.71499634    4.90999985    2.89000010
   13.18472195   76.71499634    4.90999985    2.89000010
   13.18861103   79.24259949    4.90999985    2.86999989
   13.18916702   80.40110016    4.90999985    2.86999989
   13.19250011   77.34120178    4.90999985    2.86999989
   13.19555569   82.29489899    4.90999985    2.89000010
   13.19888878   84.96510315    4.90999985    2.86999989
   13.20194435   84.98110199    4.90999985    2.89000010
   13.20527744   79.06900024    4.90999985    2.89000010
   13.20833302   84.09239960    4.90999985    2.89000010
   13.21166611   86.86129761    4.90999985    2.89000010
   13.21472168   84.48120117    4.90999985    2.89000010
   13.21805477   84.25399780    4.90999985    2.86999989
   13.22111034   88.15869904    4.90999985    2.89000010
   13.22444439   85.02850342    4.90999985    2.89000010
   13.22749996   81.80090332    4.90999985    2.89000010
   13.23083305   87.00839996    4.90999985    2.89000010
   13.23583317   87.00839996    4.90999985    2.89000010
   13.24000072   94.53060150    4.90999985    2.86999989
   13.24305534   88.07499695    4.90999985    2.89000010
   13.24638939   87.24729919    4.90999985    2.89000010
   13.24944496   80.14759827    4.90999985    2.86999989
   13.25277805   85.74279785    4.90999985    2.86999989
   13.25583363   87.10520172    4.90999985    2.86999989
   13.25916672   80.63719940    4.90999985    2.89000010
   13.26222229   89.55850220    4.90999985    2.89000010
   13.26555538   84.29989624    4.90999985    2.89000010
   13.26861095   89.60710144    4.90999985    2.89000010
   13.27194405   89.02459717    4.90999985    2.91000009
   13.27499962   82.00070190    4.90999985    2.89000010
   13.27833271   83.92269897    4.90999985    2.89000010
   13.28138828   81.12400055    4.90999985    2.89000010
   13.28694534   81.12400055    4.90999985    2.86999989
   13.29111195   77.79460144    4.90999985    2.89000010
   13.29416752   79.32939911    4.90999985    2.89000010
   13.29750061   81.41079712    4.90999985    2.89000010
   13.30055618   82.62840271    4.90999985    2.86999989
   13.30388927   81.00060272    4.90999985    2.91000009
   13.30694485   86.33499908    4.90999985    2.89000010
   13.31027794   77.03739929    4.90999985    2.89000010
   13.31333351   82.31150055    4.90999985    2.89000010
   13.31666660   82.31719971    4.90999985    2.89000010
   13.31972218   79.71880341    4.90999985    2.89000010
   13.32305527   79.75730133    4.90999985    2.89000010
   13.32611084   84.48709869    4.90999985    2.89000010
   13.32944393   85.27390289    4.90999985    2.89000010
   13.33249950   82.38770294    4.90999985    2.89000010
   13.33805561   82.38770294    4.90999985    2.91000009
   13.34222221   80.74620056    4.90999985    2.91000009
   13.34555531   75.92510223    4.90999985    2.89000010
   13.34861088   81.97769928    4.90999985    2.91000009
   13.35194492   78.73020172    4.90999985    2.89000010
   13.35500050   80.32679749    4.90999985    2.89000010
   13.35833359   76.21510315    4.90999985    2.89000010
   13.36138916   74.32669830    4.90999985    2.91000009
   13.36472225   75.23470306    4.90999985    2.89000010
   13.36777782   81.51899719    4.90999985    2.91000009
   13.37111092   79.24069977    4.90999985    2.91000009
   13.37416649   75.63800049    4.90999985    2.91000009
   13.37750053   78.43280029    4.90999985    2.91000009
   13.38055611   81.02359772    4.90999985    2.91000009
   13.38388920   80.27120209    4.90999985    2.91000009
   13.40555477   83.30750275    4.90999985    2.91000009
   13.40583324   74.14579773    4.90999985    2.91000009
   13.40916634   82.18990326    4.90999985    2.91000009
   13.41222191   78.15830231    4.90999985    2.91000009
   13.41555500   80.62819672    4.90999985    2.89000010
   13.41861153   76.87609863    4.90999985    2.89000010
   13.42194462   80.28600311    4.90999985    2.89000010
   13.42500019   76.57830048    4.90999985    2.91000009
   13.42833328   83.22560120    4.90999985    2.91000009
   13.43138885   78.55719757    4.90999985    2.91000009
   13.43472195   77.24710083    4.90999985    2.91000009
   13.44055557   77.24710083    4.90999985    2.91000009
   13.44472218   80.60769653    4.90999985    2.91000009
   13.44777775   80.41829681    4.90999985    2.91000009
   13.45111084   79.06479645    4.90999985    2.91000009
   13.45416641   83.49230194    4.90999985    2.89000010
   13.45527744   76.48650360    4.90999985    2.91000009
   13.45777798   80.57099915    4.90999985    2.91000009
   13.46111107   74.91609955    4.90999985    2.91000009
   13.46416664   77.79910278    4.90999985    2.91000009
   13.46749973   75.27149963    4.90999985    2.93000007
   13.47055531   78.81430054    4.90999985    2.91000009
   13.47388840   79.70680237    4.90999985    2.91000009
   13.47694397   83.90720367    4.90999985    2.91000009
   13.48027706   85.90309906    4.90999985    2.91000009
   13.48333359   80.37220001    4.90999985    2.91000009
   13.48666668   80.50759888    4.90999985    2.93000007
   13.49166679   80.50759888    4.90999985    2.91000009
   13.49583340   79.85790253    4.90999985    2.91000009
   13.49916649   78.30740356    4.90999985    2.89000010
   13.50222206   74.95369720    4.90999985    2.91000009
   13.50527763   77.77760315    4.90999985    2.89000010
   13.50555515   80.72650146    4.90999985    2.89000010
   13.50888920   75.90010071    4.90999985    2.91000009
   13.51194477   77.76270294    4.90999985    2.91000009
   13.51527786   78.57890320    4.90999985    2.93000007
   13.51861095   72.90200043    4.90999985    2.93000007
   13.66027737   -1.00000000   -1.00000000   -1.00000000
   13.75888920   -1.00000000   -1.00000000   -1.00000000
   13.86138916   -1.00000000   -1.00000000   -1.00000000
   13.96111107   -1.00000000   -1.00000000   -1.00000000
   14.07777786   -1.00000000   -1.00000000   -1.00000000
   14.18722248   -1.00000000   -1.00000000   -1.00000000
   14.29166698   -1.00000000   -1.00000000   -1.00000000
   14.43472195   -1.00000000   -1.00000000   -1.00000000
   14.53555584   -1.00000000   -1.00000000   -1.00000000
   14.62222195   63.79959869    4.90999985    2.94000006
   14.62555599   80.68049622    4.90999985    2.94000006
   14.62888908   73.87870026    4.90999985    2.96000004
   14.63194466   76.95749664    4.90999985    2.96000004
   14.63527775   73.52179718    4.90999985    2.96000004
   14.63833332   72.30480194    4.90999985    2.94000006
   14.64166641   76.29239655    4.90999985    2.94000006
   14.64472198   74.08100128    4.90999985    2.96000004
   14.65083313   74.08100128    4.90999985    2.94000006
   14.65499973   75.97789764    4.90999985    2.96000004
   14.65833282   79.97650146    4.90999985    2.96000004
   14.66138840   73.81909943    4.90999985    2.94000006
   14.66444397   76.30909729    4.90999985    2.94000006
   14.66777802   78.16660309    4.90999985    2.96000004
   14.67083359   77.14749908    4.90999985    2.94000006
   14.67222214   80.10900116    4.90999985    2.96000004
   14.67444515   76.65440369    4.90999985    2.94000006
   14.67750072   78.21759796    4.90999985    2.96000004
   14.68083382   76.00980377    4.90999985    2.96000004
   14.68388939   74.04910278    4.90999985    2.94000006
   14.68722248   80.57980347    4.90999985    2.94000006
   14.69027805   77.77870178    4.90999985    2.94000006
   14.69333363   77.85420227    4.90999985    2.96000004
   14.69666672   76.42620087    4.90999985    2.96000004
   14.70222187   76.42620087    4.90999985    2.94000006
   14.70611095   78.98059845    4.90999985    2.94000006
   14.70944405   78.19979858    4.90999985    2.93000007
   14.71249962   78.53050232    4.90999985    2.89000010
   14.71583271   77.38950348    4.90999985    2.89000010
   14.71888828   80.89520264    4.90999985    2.78999996
   14.72222137   80.87259674    4.90999985    2.61999989
   14.72249985   80.56620026    4.90999985    2.61999989
   14.72583294   75.29579926    4.90999985    2.86999989
   14.72888851   74.20300293    4.90999985    2.91000009
   14.73222160   76.44819641    4.90999985    2.94000006
   14.73527813   75.32129669    4.90999985    2.94000006
   14.73861122   75.45770264    4.90999985    2.96000004
   14.74166679   78.17819977    4.90999985    2.96000004
   14.74499989   75.34120178    4.90999985    2.96000004
   14.74805546   76.38619995    4.90999985    2.96000004
   14.75333309   76.38619995    4.90999985    2.94000006
   14.75749969   77.14849854    4.90999985    2.96000004
   14.76055527   75.29039764    4.90999985    2.94000006
   14.76388931   79.09359741    4.90999985    2.96000004
   14.76694393   75.58779907    4.90999985    2.96000004
   14.77027798   77.29940033    4.90999985    2.96000004
   14.77250004   74.75749969    4.90999985    2.94000006
   14.77361107   74.83059692    4.90999985    2.94000006
   14.77666664   78.13220215    4.90999985    2.94000006
   14.77999973   78.32420349    4.90999985    2.96000004
   14.78305531   77.27749634    4.90999985    2.96000004
   14.78638935   78.13839722    4.90999985    2.96000004
   14.78944492   76.98789978    4.90999985    2.96000004
   14.79277802   76.81569672    4.90999985    2.96000004
   14.79583359   74.93229675    4.90999985    2.96000004
   14.79916668   75.47190094    4.90999985    2.96000004
   14.80444431   75.47190094    4.90999985    2.96000004
   14.80861092   80.10620117    4.90999985    2.94000006
   14.81166649   76.81179810    4.90999985    2.96000004
   14.81500053   80.92420197    4.90999985    2.96000004
   14.81805515   80.40989685    4.90999985    2.96000004
   14.82138920   78.33419800    4.90999985    2.96000004
   14.82250023   76.85679626    4.90999985    2.94000006
   14.82499981   84.43769836    4.90999985    2.96000004
   14.82805538   80.25240326    4.90999985    2.93000007
   14.83138847   88.29209900    4.90999985    2.84999990
   14.83444405   78.29989624    4.90999985    2.80999994
   14.83777714   80.58280182    4.90999985    2.89000010
   14.84083271   76.88539886    4.90999985    2.91000009
   14.84416676   86.01080322    4.90999985    2.96000004
   14.84722233   80.29010010    4.90999985    2.78999996
   14.85055637   80.85160065    4.90999985    2.94000006
   14.85555553   80.85160065    4.90999985    2.96000004
   14.85972214   73.85220337    4.90999985    2.96000004
   14.86305618   81.29660034    4.90999985    2.96000004
   14.86611176   82.67590332    4.90999985    2.96000004
   14.86944485   83.06400299    4.90999985    2.89000010
   14.87250042   75.85900116    4.90999985    2.94000006
   14.87305546   74.80789948    4.90999985    2.94000006
   14.87638855   78.14759827    4.90999985    2.96000004
   14.87944412   71.68579865    4.90999985    2.96000004
   14.88249969   82.70449829    4.90999985    2.96000004
   14.88583279   79.88819885    4.90999985    2.96000004
   14.88888836   79.17079926    4.90999985    2.86999989
   14.89222240   75.28549957    4.90999985    2.96000004
   14.89527798   75.48829651    4.90999985    2.96000004
   14.89861107   79.04360199    4.90999985    2.96000004
   14.90166664   78.17250061    4.90999985    2.96000004
   14.90694427   78.17250061    4.90999985    2.96000004
   14.91083336   75.38390350    4.90999985    2.96000004
   14.91416645   78.82319641    4.90999985    2.94000006
   14.91722298   74.07409668    4.90999985    2.96000004
   14.92055607   75.41230011    4.90999985    2.96000004
   14.92305565   76.24379730    4.90999985    2.94000006
   14.92388916   74.42520142    4.90999985    2.94000006
   14.92722225   72.54830170    4.90999985    2.94000006
   14.93027782   74.52799988    4.90999985    2.94000006
   14.93361092   72.59739685    4.90999985    2.96000004
   14.93666649   74.66179657    4.90999985    2.94000006
   14.94000053   74.55020142    4.90999985    2.96000004
   14.94305515   76.47959900    4.90999985    2.96000004
   14.94638920   73.58129883    4.90999985    2.96000004
   14.94944477   74.88439941    4.90999985    2.96000004
   14.95277786   74.63339996    4.90999985    2.96000004
   14.95805550   74.63339996    4.90999985    2.96000004
   14.96222210   77.33899689    4.90999985    2.94000006
   14.96527767   80.51100159    4.90999985    2.96000004
   14.96861076   77.52619934    4.90999985    2.94000006
   14.97166634   73.21849823    4.90999985    2.94000006
   14.97333336   79.68710327    4.90999985    2.96000004
   14.97527695   80.59709930    4.90999985    2.96000004
   14.97861099   74.41760254    4.90999985    2.96000004
   14.98166656   77.57900238    4.90999985    2.96000004
   14.98500061   78.86100006    4.90999985    2.96000004
   14.98805618   75.60330200    4.90999985    2.96000004
   14.99138927   75.15360260    4.90999985    2.96000004
   14.99444485   75.13490295    4.90999985    2.96000004
   14.99777794   78.59770203    4.90999985    2.96000004
   15.00083351   79.98500061    4.90999985    2.96000004
   15.00416660   79.08329773    4.90999985    2.96000004
   15.00916672   79.08329773    4.90999985    2.96000004
   15.01333332   76.58139801    4.90999985    2.94000006
   15.01638889   76.94210052    4.90999985    2.96000004
   15.01972198   83.11380005    4.90999985    2.94000006
   15.02277756   74.91840363    4.90999985    2.94000006
   15.02361107   81.95459747    4.90999985    2.94000006
   15.02638817   75.57969666    4.90999985    2.94000006
   15.02972221   78.77089691    4.90999985    2.96000004
   15.03277779   76.25939941    4.90999985    2.94000006
   15.03611183   73.86589813    4.90999985    2.94000006
   15.03916740   72.50189972    4.90999985    2.94000006
   15.04250050   76.49490356    4.90999985    2.96000004
   15.04555607   74.58350372    4.90999985    2.94000006
   15.04888916   77.76799774    4.90999985    2.94000006
   15.05194473   77.28309631    4.90999985    2.93000007
   15.05527782   74.04149628    4.90999985    2.94000006
   15.06027794   74.04149628    4.90999985    2.94000006
   15.06444454   78.05319977    4.90999985    2.94000006
   15.06777763   78.21219635    4.90999985    2.94000006
   15.07083321   75.13150024    4.90999985    2.94000006
   15.07361126   74.92479706    4.90999985    2.94000006
   15.07444477   76.11350250    4.90999985    2.94000006
   15.07777786   74.38230133    4.90999985    2.94000006
   15.08083344   79.45400238    4.90999985    2.94000006
   15.08416653   83.01540375    4.90999985    2.82999992
   15.08722210  188.27099609    4.90999985    2.69000006
   15.09055519  162.41499329    4.90999985    2.21000004
   15.09361076  103.97299957    4.90999985    1.98000002
   15.09694386   91.42269897    4.90999985    2.26999998
   15.10000038   77.46959686    4.90999985    2.94000006
   15.10333347   81.91429901    4.90999985    2.93000007
   15.10638905   80.08309937    4.90999985    2.94000006
   15.11166668   80.08309937    4.90999985    2.96000004
   15.11555576   84.80120087    4.90999985    2.96000004
   15.11888885   79.73629761    4.90999985    2.96000004
   15.12194443   81.74970245    4.90999985    2.96000004
   15.12361145   74.55480194    4.90999985    2.96000004
   15.12555599   82.58969879    4.90999985    2.98000002
   15.12888908   79.78060150    4.90999985    2.96000004
   15.13194466   80.57740021    4.90999985    2.96000004
   15.13527775   80.15110016    4.90999985    2.96000004
   15.13833332   79.25270081    4.90999985    2.96000004
   15.14166641   75.05169678    4.90999985    2.98000002
   15.14472198   77.12590027    4.90999985    2.98000002
   15.14805508   78.64730072    4.90999985    2.98000002
   15.15111065   76.05269623    4.90999985    2.96000004
   15.15444374   74.76760101    4.90999985    2.96000004
   15.15749931   76.20249939    4.90999985    2.96000004
   15.16277695   76.20249939    4.90999985    2.96000004
   15.16666698   76.46489716    4.90999985    2.96000004
   15.17000008   75.38110352    4.90999985    2.96000004
   15.17305565   72.70960236    4.90999985    2.98000002
   15.17361164   76.70210266    4.90999985    2.96000004
   15.17666721   78.78389740    4.90999985    2.96000004
   15.17972279   73.63289642    4.90999985    2.94000006
   15.18305588   81.72280121    4.90999985    2.94000006
   15.18611145   76.31310272    4.90999985    2.96000004
   15.18944454   80.34600067    4.90999985    2.94000006
   15.19250011   78.65750122    4.90999985    2.96000004
   15.19583321   75.05329895    4.90999985    2.96000004
   15.19888878   74.74340057    4.90999985    2.96000004
   15.20222187   75.71710205    4.90999985    2.94000006
   15.20527744   73.40360260    4.90999985    2.94000006
   15.20861053   81.62729645    4.90999985    2.96000004
   15.21388912   81.62729645    4.90999985    2.94000006
   15.21805477   75.06079865    4.90999985    2.96000004
   15.22111034   78.53739929    4.90999985    2.82999992
   15.22361088   79.20729828    4.90999985    2.86999989
   15.22472191   78.29329681    4.90999985    2.93000007
   15.22777748   76.53289795    4.90999985    2.93000007
   15.23111057   76.54250336    4.90999985    2.96000004
   15.23416710   77.73870087    4.90999985    2.94000006
   15.23750019   78.08820343    4.90999985    2.98000002
   15.24055576   75.45130157    4.90999985    2.96000004
   15.24388885   77.34929657    4.90999985    2.98000002
   15.24694443   76.58599854    4.90999985    2.96000004
   15.25027752   76.10649872    4.90999985    2.96000004
   15.25333309   79.32730103    4.90999985    2.96000004
   15.25666714   80.63849640    4.90999985    2.94000006
   15.25972176   78.87940216    4.90999985    2.96000004
   15.26500034   78.87940216    4.90999985    2.94000006
   15.26916599   79.49800110    4.90999985    2.98000002
   15.27222157   78.35150146    4.90999985    2.98000002
   15.27361107   73.12210083    4.90999985    2.98000002
   15.27583313   77.21459961    4.90999985    2.98000002
   15.27888870   80.13289642    4.90999985    2.94000006
   15.28222179   83.47720337    4.90999985    2.96000004
   15.28527832   77.56140137    4.90999985    2.98000002
   15.28861141   79.63970184    4.90999985    2.96000004
   15.29166698   77.65609741    4.90999985    2.98000002
   15.29500008   74.88559723    4.90999985    2.98000002
   15.29805565   78.31050110    4.90999985    2.98000002
   15.30138874   73.67870331    4.90999985    2.96000004
   15.30444431   79.55069733    4.90999985    2.96000004
   15.30777836   82.14050293    4.90999985    2.98000002
   15.31083393   75.57559967    4.90999985    2.98000002
   15.31638908   75.57559967    4.90999985    2.98000002
   15.32027817   75.41590118    4.90999985    2.96000004
   15.32361126   82.21959686    4.90999985    2.98000002
   15.32388878   75.66819763    4.90999985    2.98000002
   15.32722187   75.36070251    4.90999985    2.96000004
   15.33027744   81.98040009    4.90999985    2.98000002
   15.33361053   78.81980133    4.90999985    2.98000002
   15.33666611   77.85890198    4.90999985    2.96000004
   15.34000015   79.40899658    4.90999985    2.98000002
   15.34305477   82.10009766    4.90999985    2.98000002
   15.34638882   76.19660187    4.90999985    2.98000002
   15.34944439   75.20320129    4.90999985    2.94000006
   15.35277843   77.65480042    4.90999985    2.96000004
   15.35583401   87.45670319    4.90999985    2.98000002
   15.35916710   77.76339722    4.90999985    2.98000002
   15.36222267   83.65540314    4.90999985    2.98000002
   15.36750031   83.65540314    4.90999985    2.98000002
   15.37138939   79.21939850    4.90999985    2.96000004
   15.37388897   82.35739899    4.90999985    2.94000006
   15.37500000   79.34140015    4.90999985    2.96000004
   15.37805557   80.81970215    4.90999985    2.98000002
   15.38138866   81.50039673    4.90999985    2.98000002
   15.38444424   76.15380096    4.90999985    2.98000002
   15.38777733   81.88950348    4.90999985    2.98000002
   15.39083290   77.34649658    4.90999985    2.98000002
   15.39416695   79.45130157    4.90999985    2.98000002
   15.39722252   80.17749786    4.90999985    2.98000002
   15.40055561   83.51020050    4.90999985    2.96000004
   15.40361118   78.05319977    4.90999985    2.98000002
   15.40694427   78.53949738    4.90999985    2.96000004
   15.40999985   82.96620178    4.90999985    2.98000002
   15.41333294   78.48970032    4.90999985    2.96000004
   15.41861153   78.48970032    4.90999985    2.98000002
   15.42277813   84.44329834    4.90999985    2.98000002
   15.42388916   84.48780060    4.90999985    2.98000002
   15.42611122   87.83209991    4.90999985    2.98000002
   15.42916679   87.50499725    4.90999985    2.98000002
   15.43249989   87.43419647    4.90999985    2.98000002
   15.43555546   79.06120300    4.90999985    2.98000002
   15.43888855   73.14019775    4.90999985    2.98000002
   15.44194412   83.25170135    4.90999985    2.98000002
   15.44527817   84.24819946    4.90999985    3.00000000
   15.44833374   76.90630341    4.90999985    3.00000000
   15.45166683   75.59629822    4.90999985    3.00000000
   15.45472240   76.79000092    4.90999985    2.98000002
   15.45805550   73.13050079    4.90999985    3.00000000
   15.46111107   76.70960236    4.90999985    2.98000002
   15.46444416   75.13449860    4.90999985    2.98000002
   15.46972179   75.13449860    4.90999985    2.98000002
   15.47388840   79.44819641    4.90999985    3.00000000
   15.47444439   82.00409698    4.90999985    3.00000000
   15.47749996   78.39630127    4.90999985    2.98000002
   15.48083305   82.08999634    4.90999985    3.00000000
   15.48388958   78.90029907    4.90999985    2.98000002
   15.48722267   76.62120056    4.90999985    3.00000000
   15.49027824   72.86129761    4.90999985    2.98000002
   15.49361134   76.26300049    4.90999985    2.98000002
   15.49666691   79.26860046    4.90999985    2.98000002
   15.50000000   80.61519623    4.90999985    2.98000002
   15.50305557   80.35310364    4.90999985    2.98000002
   15.50638866   78.50710297    4.90999985    2.98000002
   15.50944424   81.54989624    4.90999985    2.98000002
   15.51277733   79.30380249    4.90999985    2.98000002
   15.51583290   75.71179962    4.90999985    2.98000002
   15.52111053   75.71179962    4.90999985    2.98000002
   15.52499962   83.78179932    4.90999985    2.98000002
   15.52833271   77.40409851    4.90999985    2.98000002
   15.53138828   79.49150085    4.90999985    2.98000002
   15.53472233   78.39240265    4.90999985    2.94000006
   15.53777790   86.53990173    4.90999985    2.98000002
   15.54111195   78.08540344    4.90999985    2.98000002
   15.54416752   76.25360107    4.90999985    2.98000002
   15.54750061   82.67079926    4.90999985    2.98000002
   15.55055618   83.58950043    4.90999985    2.98000002
   15.55388927   84.25710297    4.90999985    2.96000004
   15.55694485   77.45510101    4.90999985    2.91000009
   15.56027794   76.16809845    4.90999985    2.96000004
   15.56333351   80.10230255    4.90999985    2.96000004
   15.56666660   77.29679871    4.90999985    2.98000002
   15.57222176   77.29679871    4.90999985    2.98000002
   15.57611084   77.82749939    4.90999985    2.96000004
   15.57944393   84.14299774    4.90999985    2.94000006
   15.58249950   82.13480377    4.90999985    2.94000006
   15.58583260   81.28739929    4.90999985    2.98000002
   15.58888817   87.50260162    4.90999985    2.96000004
   15.59222221   73.15260315    4.90999985    2.98000002
   15.59527779   86.41699982    4.90999985    2.98000002
   15.59861088   82.17919922    4.90999985    2.98000002
   15.60166740   81.53820038    4.90999985    3.00000000
   15.60500050   81.41940308    4.90999985    2.98000002
   15.60805607   78.85679626    4.90999985    2.98000002
   15.61138916   82.64469910    4.90999985    2.98000002
   15.61444473   84.74169922    4.90999985    2.98000002
   15.61777782   83.69750214    4.90999985    2.98000002
   15.63944435   80.35690308    4.90999985    2.98000002
   15.63972187   83.94940186    4.90999985    2.98000002
   15.64305496   83.40599823    4.90999985    2.98000002
   15.64611053   77.38050079    4.90999985    2.98000002
   15.64944458   84.67330170    4.90999985    2.98000002
   15.65249920   90.88359833    4.90999985    2.98000002
   15.65583324   80.71920013    4.90999985    3.00000000
   15.65916634   84.88410187    4.90999985    2.98000002
   15.66222191   81.99359894    4.90999985    2.98000002
   15.66555500   80.50080109    4.90999985    2.98000002
   15.66861153   88.57460022    4.90999985    2.96000004
   15.67472267   88.57460022    4.90999985    2.98000002
   15.67861176   82.05879974    4.90999985    2.98000002
   15.68194485   87.34230042    4.90999985    2.93000007
   15.68500042   84.29589844    4.90999985    2.94000006
   15.68833351   83.45909882    4.90999985    2.96000004
   15.68916702   76.48970032    4.90999985    2.98000002
   15.69194412   83.86640167    4.90999985    2.98000002
   15.69499969   86.03430176    4.90999985    2.98000002
   15.69833374   87.12950134    4.90999985    2.98000002
   15.70138836   84.71849823    4.90999985    2.98000002
   15.70472240   77.23600006    4.90999985    2.98000002
   15.70777798   79.64240265    4.90999985    2.98000002
   15.71111107   78.56439972    4.90999985    2.98000002
   15.71416664   75.57209778    4.90999985    2.98000002
   15.71749973   77.07379913    4.90999985    2.98000002
   15.72055531   80.49279785    4.90999985    2.98000002
   15.72583294   80.49279785    4.90999985    2.98000002
   15.72999954   83.75949860    4.90999985    3.00000000
   15.73305511   79.62470245    4.90999985    2.98000002
   15.73638916   80.99919891    4.90999985    2.98000002
   15.73916721   77.24700165    4.90999985    2.98000002
   15.74000072   80.51210022    4.90999985    2.98000002
   15.74305534   76.65049744    4.90999985    2.98000002
   15.74638939   77.25650024    4.90999985    2.98000002
   15.74944496   88.75589752    4.90999985    2.98000002
   15.75277805   79.34799957    4.90999985    2.98000002
   15.75583363   79.78369904    4.90999985    2.96000004
   15.75916672   82.80470276    4.90999985    2.98000002
   15.76222229   83.20069885    4.90999985    3.00000000
   15.76555538   83.19380188    4.90999985    2.98000002
   15.76861095   77.11550140    4.90999985    3.00000000
   15.77194405   83.86910248    4.90999985    2.98000002
   15.77694416   83.86910248    4.90999985    3.00000000
   15.78111076   82.28420258    4.90999985    2.98000002
   15.78416729   83.96690369    4.90999985    2.98000002
   15.78750038   77.81990051    4.90999985    3.00000000
   15.78916740   74.63150024    4.90999985    3.00000000
   15.79111195   77.86170197    4.90999985    3.00000000
   15.79416752   81.56829834    4.90999985    3.00000000
   15.79750061   79.24279785    4.90999985    3.00000000
   15.80055618   80.54930115    4.90999985    3.00000000
   15.80388927   82.64739990    4.90999985    3.00000000
   15.80694485   80.06950378    4.90999985    3.00000000
   15.81027794   80.27510071    4.90999985    2.98000002
   15.81333351   81.10310364    4.90999985    2.98000002
   15.81666660   79.02330017    4.90999985    3.00000000
   15.81972218   77.09660339    4.90999985    3.00000000
   15.82305527   78.24790192    4.90999985    3.00000000
   15.82805538   78.24790192    4.90999985    3.00000000
   15.83222198   77.91609955    4.90999985    3.00000000
   15.83555508   80.04989624    4.90999985    2.98000002
   15.83861065   75.22370148    4.90999985    3.00000000
   15.83944416   77.91230011    4.90999985    2.98000002
   15.84222221   76.00540161    4.90999985    3.00000000
   15.84555531   76.82990265    4.90999985    3.00000000
   15.84861088   77.77780151    4.90999985    3.00000000
   15.85194492   76.60430145    4.90999985    2.98000002
   15.85500050   80.01650238    4.90999985    3.00000000
   15.85833359   77.93109894    4.90999985    2.98000002
   15.86138916   74.41580200    4.90999985    2.98000002
   15.86472225   76.08439636    4.90999985    3.00000000
   15.86777782   74.93039703    4.90999985    2.98000002
   15.87111092   79.56220245    4.90999985    3.00000000
   15.87416649   73.95120239    4.90999985    2.98000002
   15.87944412   73.95120239    4.90999985    3.00000000
   15.88333321   75.41300201    4.90999985    2.98000002
   15.88666630   72.49880219    4.90999985    3.00000000
   15.88944435   77.98709869    4.90999985    2.98000002
   15.89027786   80.57640076    4.90999985    3.00000000
   15.89333344   81.57199860    4.90999985    3.00000000
   15.89666653   78.58329773    4.90999985    3.00000000
   15.89972210   81.06710052    4.90999985    3.00000000
   15.90305519   79.81729889    4.90999985    2.98000002
   15.90611076   74.07620239    4.90999985    3.00000000
   15.90944386   78.11830139    4.90999985    2.98000002
   15.91249943   74.18109894    4.90999985    3.00000000
   15.91583252   81.64559937    4.90999985    2.98000002
   15.91888905   72.13240051    4.90999985    2.98000002
   15.92222214   72.96309662    4.90999985    2.98000002
   15.92527771   75.05370331    4.90999985    2.98000002
   15.93055630   75.05370331    4.90999985    2.98000002
   15.93472195   77.06929779    4.90999985    2.98000002
   15.93777752   73.75090027    4.90999985    2.98000002
   15.93944454   80.20240021    4.90999985    3.00000000
   15.94138908   83.08760071    4.90999985    2.98000002
   15.94472218   77.60070038    4.90999985    2.98000002
   15.94777775   88.24639893    4.90999985    2.98000002
   15.95111084   79.22319794    4.90999985    3.00000000
   15.95416641   83.40119934    4.90999985    2.98000002
   15.95749950   78.58879852    4.90999985    3.00000000
   15.96055508   78.41629791    4.90999985    3.00000000
   15.96388912   75.59600067    4.90999985    2.98000002
   15.96694374   76.82119751    4.90999985    2.98000002
   15.97027779   79.32540131    4.90999985    3.00000000
   15.97333336   80.34380341    4.90999985    3.00000000
   15.97666645   79.50959778    4.90999985    2.98000002
   15.98166656   79.50959778    4.90999985    3.00000000
   15.98583317   78.29519653    4.90999985    3.00000000
   15.98888874   78.35690308    4.90999985    3.00000000
   15.98944473   81.04090118    4.90999985    3.00000000
   15.99277782   80.31829834    4.90999985    2.98000002
   15.99583340   79.74469757    4.90999985    2.98000002
   15.99916649   77.71369934    4.90999985    3.00000000
   16.00222206   75.03859711    4.90999985    3.00000000
   16.00527763   79.17790222    4.90999985    2.98000002
   16.00861168   77.15840149    4.90999985    2.98000002
   16.01166725   79.00720215    4.90999985    3.00000000
   16.01499939   75.99050140    4.90999985    2.98000002
   16.01805496   80.46970367    4.90999985    2.98000002
   16.02138901   73.35639954    4.90999985    2.98000002
   16.02444458   75.93499756    4.90999985    2.98000002
   16.02777672   74.18360138    4.90999985    2.98000002
   16.03305435   74.18360138    4.90999985    2.98000002
   16.03694344   78.33390045    4.90999985    2.98000002
   16.03944397   78.49530029    4.90999985    3.00000000
   16.04083252   80.29399872    4.90999985    3.00000000
   16.04388809   74.65670013    4.90999985    3.00000000
   16.04694366   78.86250305    2.34999990    3.00000000
   16.05027771   80.21900177    1.21000004    3.00000000
   16.05333328   77.77290344    0.95999998    3.00000000
   16.05666542   84.67169952    0.64999998    3.00000000
   16.05972099   80.14150238    0.70999998    3.00000000
   16.06305504   78.46620178    1.05999994    3.00000000
   16.06611061   80.52269745    0.94000000    2.98000002
   16.06944466   80.03869629    0.69000000    3.00000000
   16.07250023   81.51419830    0.63000000    3.00000000
   16.07583427   79.83860016    0.58999997    3.00000000
   16.07888985   77.29730225    0.63000000    3.00000000
   16.08416748   77.29730225    0.69000000    3.00000000
   16.08833313   73.65160370    0.55000001    3.01999998
   16.08944511   82.71230316    0.55000001    3.01999998
   16.09194565   80.47149658    0.51999998    3.00000000
   16.09500122   74.14389801    0.50000000    3.00000000
   16.09833336   80.71939850    0.50000000    3.00000000
   16.10138893   81.19550323    0.50000000    3.00000000
   16.10472298   80.71749878    0.50000000    3.00000000
   16.10777855   80.96669769    0.50000000    3.00000000
   16.11111069   86.55940247    0.50000000    3.00000000
   16.11416626   84.91609955    0.50000000    3.00000000
   16.11750031   82.51799774    0.50000000    3.01999998
   16.12055588   79.96640015    0.50000000    3.00000000
   16.12388992   72.06300354    0.50000000    3.00000000
   16.12694550   78.89340210    0.51999998    3.00000000
   16.13027763   82.30599976    0.51999998    3.00000000
   16.13527679   82.30599976    0.51999998    3.00000000
   16.13944435   81.26490021    0.51999998    3.00000000
   16.13999939   76.82409668    0.51999998    3.00000000
   16.14305496   81.23829651    0.51999998    3.00000000
   16.14638901   79.27749634    0.73000002    3.00000000
   16.14944458   77.39720154    0.80000001    2.98000002
   16.15277672   79.79399872    0.58999997    3.00000000
   16.15583229   84.25659943    0.51999998    3.01999998
   16.15916634   77.20429993    0.51999998    3.01999998
   16.16222191   81.18019867    0.51999998    3.00000000
   16.16555595   77.33599854    0.51999998    3.00000000
   16.16860962   85.54019928    0.52999997    3.00000000
   16.17194366   82.24259949    0.51999998    3.00000000
   16.17499924   85.21160126    3.89000010    3.14000010
   16.17833328   78.76409912    0.09000000    0.46000001
   16.18138885   77.37429810    0.03000000    0.23000000
   16.18638802   77.37429810    0.03000000    0.23000000
   16.19055557   84.25720215    0.03000000    0.23000000
   16.19361115   81.16269684    0.03000000    0.23000000
   16.19694328   76.41940308    0.03000000    0.23000000
   16.20000076   76.45490265    0.03000000    0.23000000
   16.20333481   81.40070343    0.03000000    0.23000000
   16.20639038   80.43479919    0.03000000    0.23000000
   16.20972252   78.03050232    0.03000000    0.23000000
   16.21277809   82.43129730    0.03000000    0.23000000
   16.21611214   86.60939789    0.03000000    0.23000000
   16.21916771   74.18579865    0.03000000    0.23000000
   16.22249985   80.88310242    0.03000000    0.23000000
   16.22555542   77.79029846    0.03000000    0.23000000
   16.22888947   79.20749664    0.03000000    0.23000000
   16.23194504   78.19329834    0.03000000    0.23000000
   16.23750114   78.19329834    0.03000000    0.23000000
   16.24166679   80.10659790    0.03000000    0.23000000
   16.24500084   78.83200073    0.03000000    0.23000000
   16.24805641   81.76429749    0.03000000    0.23000000
   16.25138855   78.57579803    0.03000000    0.23000000
   16.25444412   77.24189758    0.03000000    0.23000000
   16.25777817   81.68969727    0.03000000    0.23000000
   16.26083374   82.21099854    0.03000000    0.23000000
   16.26416588   77.10720062    0.03000000    0.23000000
   16.26722145   80.44969940    0.03000000    0.23000000
   16.27055550   73.47910309    0.03000000    0.23000000
   16.27361107   74.34110260    0.03000000    0.23000000
   16.27694511   80.13880157    0.03000000    0.23000000
   16.28000069   82.52819824    0.03000000    0.23000000
   16.28333282   78.96859741    0.03000000    0.23000000
   16.28888893   78.96859741    0.03000000    0.23000000
   16.29305458   83.10939789    0.03000000    0.23000000
   16.29611015   80.04170227    0.03000000    0.23000000
   16.29944420   85.42910004    0.03000000    0.23000000
   16.30249977   84.29599762    0.03000000    0.23000000
   16.30583191   81.10150146    0.03000000    0.23000000
   16.30888748   82.85079956    0.03000000    0.23000000
   16.31222153   79.69029999    0.03000000    0.23000000
   16.31527710   86.38529968    0.03000000    0.23000000
   16.31861115   86.37010193    0.03000000    0.23000000
   16.32166672   84.78890228    0.03000000    0.23000000
   16.32500076   72.81759644    0.03000000    0.23000000
   16.32805634   80.36820221    0.03000000    0.23000000
   16.33139038   88.02770233    0.03000000    0.23000000
   16.33444595   83.25180054    0.03000000    0.23000000
   16.34000015   83.25180054    0.03000000    0.23000000
   16.34416771   86.80200195    0.03000000    0.23000000
   16.34722328   77.59700012    0.03000000    0.23000000
   16.35055542   85.90769958    0.03000000    0.23000000
   16.35361099   78.94139862    0.03000000    0.23000000
   16.35694504   80.61399841    0.03000000    0.23000000
   16.36000061   80.76550293    0.03000000    0.23000000
   16.36333466   79.50550079    0.03000000    0.23000000
   16.36638832   78.25420380    0.03000000    0.23000000
   16.36972237   78.41010284    0.03000000    0.23000000
   16.37277794   77.27970123    0.03000000    0.23000000
   16.37611198   78.12229919    0.03000000    0.23000000
   16.37916756   83.60179901    0.03000000    0.23000000
   16.38249969   82.38700104    0.03000000    0.23000000
   16.38555527   83.90270233    0.03000000    0.23000000
   16.39111137   83.90270233    0.03000000    0.23000000
   16.39527702   85.57299805    0.03000000    0.23000000
   16.39833260   88.16670227    0.03000000    0.23000000
   16.40166664   75.79429626    0.03000000    0.23000000
   16.40472221   74.37590027    0.03000000    0.23000000
   16.40805435   83.91400146    0.03000000    0.23000000
   16.41110992   75.54640198    0.03000000    0.23000000
   16.41444397   74.03910065    0.03000000    0.23000000
   16.41749954   80.74479675    0.03000000    0.23000000
   16.42083359   87.47619629    0.03000000    0.23000000
   16.42388916   82.77339935    0.03000000    0.23000000
   16.42722130   77.08999634    0.03000000    0.23000000
   16.43027687   88.40080261    0.03000000    0.23000000
   16.43361092   74.71080017    0.03000000    0.23000000
   16.43666649   76.99690247    0.03000000    0.23000000
   16.44222069   76.99690247    0.03000000    0.23000000
   16.44638824   85.68550110    0.03000000    0.23000000
   16.44972038   81.41439819    0.03000000    0.23000000
   16.45277786   75.26300049    0.03000000    0.23000000
   16.45611191   74.03839874    0.03000000    0.23000000
   16.45916748   74.00579834    0.03000000    0.23000000
   16.46250153   76.53179932    0.03000000    0.23000000
   16.46555710   80.91449738    0.03000000    0.23000000
   16.46888924   77.72720337    0.03000000    0.23000000
   16.47194481   78.61530304    0.03000000    0.23000000
   16.47527885   86.39179993    0.03000000    0.23000000
   16.47833443   83.18289948    0.03000000    0.23000000
   16.48166656   80.25779724    0.03000000    0.23000000
   16.48472214   84.68910217    0.03000000    0.23000000
   16.48805618   77.52700043    0.03000000    0.23000000
   16.49361229   77.52700043    0.03000000    0.23000000
   16.49749947   78.07800293    0.03000000    0.23000000
   16.50083351   80.83860016    0.03000000    0.23000000
   16.50388908   75.62169647    0.03000000    0.23000000
   16.50722313   79.38120270    0.03000000    0.23000000
   16.51027870   77.80619812    0.03000000    0.23000000
   16.51361084   80.27390289    0.03000000    0.23000000
   16.51666641   80.12030029    0.03000000    0.23000000
   16.52000046   80.23329926    0.03000000    0.23000000
   16.52305603   82.25759888    0.03000000    0.23000000
   16.52638817   79.63079834    0.03000000    0.23000000
   16.52944374   81.78189850    0.03000000    0.23000000
   16.53277779   80.79270172    0.03000000    0.23000000
   16.53583336   77.19629669    0.03000000    0.23000000
   16.53916550   82.41609955    0.03000000    0.23000000
   16.54472160   82.41609955    0.03000000    0.23000000
   16.54888916   83.11440277    0.03000000    0.23000000
   16.55194283   80.29250336    0.03000000    0.23000000
   16.55527687   83.29170227    0.03000000    0.23000000
   16.55833244   82.64720154    0.03000000    0.23000000
   16.56166649   80.51069641    0.03000000    0.23000000
   16.56472206   86.56279755    0.03000000    0.23000000
   16.56805611   78.44770050    0.03000000    0.23000000
   16.57111168   79.44799805    0.03000000    0.23000000
   16.57444572   82.75610352    0.03000000    0.23000000
   16.57750130   77.46320343    0.03000000    0.23000000
   16.58083344   75.25599670    0.03000000    0.23000000
   16.58388901   79.67700195    0.03000000    0.23000000
   16.58722305   77.41300201    0.03000000    0.23000000
   16.59027863   78.80290222    0.03000000    0.23000000
   16.59583473   78.80290222    0.03000000    0.23000000
   16.60000038   79.41570282    0.03000000    0.23000000
   16.60305595   88.06999969    0.03000000    0.23000000
   16.60639000   89.16790009    0.03000000    0.23000000
   16.60944557   87.76270294    0.03000000    0.23000000
   16.61277771   83.31749725    0.03000000    0.23000000
   16.61583328   85.02950287    0.03000000    0.23000000
   16.61916733   83.17729950    0.03000000    0.23000000
   16.62222290   89.89109802    0.03000000    0.23000000
   16.62555504   81.78459930    0.03000000    0.23000000
   16.62861061   79.05120087    0.03000000    0.23000000
   16.63194466   81.21829987    0.03000000    0.23000000
   16.63500023   76.10590363    0.03000000    0.23000000
   16.63833237   76.54679871    0.03000000    0.23000000
   16.65972137   76.54679871    0.03000000    0.23000000
   16.66388893   76.30329895    0.03000000    0.23000000
   16.66694450   79.64990234    0.03000000    0.23000000
   16.67027664   82.23660278    0.03000000    0.23000000
   16.67333221   82.02359772    0.03000000    0.23000000
   16.67666626   78.77709961    0.03000000    0.23000000
   16.67972183   84.21260071    0.03000000    0.23000000
   16.68305397   75.45670319    0.03000000    0.23000000
   16.68610954   85.31030273    0.03000000    0.23000000
   16.68944359   79.69010162    0.03000000    0.23000000
   16.69249916   80.64679718    0.03000000    0.23000000
   16.69583321   79.70539856    0.03000000    0.23000000
   16.69888878   82.91369629    0.03000000    0.23000000
   16.70222282   76.80059814    0.03000000    0.23000000
   16.70527840   82.28140259    0.03000000    0.23000000
   16.70722389   80.40959930    0.03000000    0.23000000
   16.71138954   80.40959930    0.03000000    0.23000000
   16.71527863   79.30970001    0.03000000    0.23000000
   16.71861076   81.52660370    0.03000000    0.23000000
   16.72166634   77.18209839    0.03000000    0.23000000
   16.72500038   74.95490265    0.03000000    0.23000000
   16.72805595   78.59619904    0.03000000    0.23000000
   16.73139000   77.78309631    0.03000000    0.23000000
   16.73444557   74.75640106    0.03000000    0.23000000
   16.73777771   81.50789642    0.03000000    0.23000000
   16.74083328   78.91380310    0.03000000    0.23000000
   16.74416733   77.84829712    0.03000000    0.23000000
   16.74722290   84.98020172    0.03000000    0.23000000
   16.75055504   78.36080170    0.03000000    0.23000000
   16.75361061   76.12950134    0.03000000    0.23000000
   16.75694466   81.56880188    0.03000000    0.23000000
   16.75722313   78.83170319    0.03000000    0.23000000
   16.76250076   78.83170319    0.03000000    0.23000000
   16.76638794   75.42849731    0.03000000    0.23000000
   16.76972198   72.90229797    0.03000000    0.23000000
   16.77277756   79.55979919    0.03000000    0.23000000
   16.77611160   84.72380066    0.03000000    0.23000000
   16.77916718   87.89730072    0.03000000    0.23000000
   16.78249931   76.75199890    0.03000000    0.23000000
   16.78555489   85.16519928    0.03000000    0.23000000
   16.78888893   81.08219910    0.03000000    0.23000000
   16.79194450   84.33499908    0.03000000    0.23000000
   16.79527664   82.56749725    0.03000000    0.23000000
   16.79833221   87.77989960    0.03000000    0.23000000
   16.80166626   78.52799988    0.03000000    0.23000000
   16.80472183   81.45030212    0.03000000    0.23000000
   16.80749893   83.18589783    0.03000000    0.23000000
   16.80833244   86.46549988    0.03000000    0.23000000
   16.81361008   86.46549988    0.03000000    0.23000000
   16.81777954   86.21869659    0.03000000    0.23000000
   16.82083511   83.91739655    0.03000000    0.23000000
   16.82416725   77.47720337    0.03000000    0.23000000
   16.82722282   78.24320221    0.03000000    0.23000000
   16.83055687   80.66089630    0.03000000    0.23000000
   16.83361244   90.84390259    0.03000000    0.23000000
   16.83694458   88.60250092    0.03000000    0.23000000
   16.84000015   84.01940155    0.03000000    0.23000000
   16.84333420   81.48329926    0.03000000    0.23000000
   16.84638977   83.23960114    0.03000000    0.23000000
   16.84972191   82.90660095    0.03000000    0.23000000
   16.85277748   84.44439697    0.03000000    0.23000000
   16.85611153   80.24369812    0.03000000    0.23000000
   16.85750008   81.58789825    0.03000000    0.23000000
   16.85944557   86.38330078    0.03000000    0.23000000
   16.86472321   86.38330078    0.03000000    0.23000000
   16.86888885   89.58329773    0.03000000    0.23000000
   16.87194443   81.81279755    0.03000000    0.23000000
   16.87527847   83.49490356    0.03000000    0.23000000
   16.87833405   84.41919708    0.03000000    0.23000000
   16.88166618   85.18299866    0.03000000    0.23000000
   16.88472176   87.25859833    0.03000000    0.23000000
   16.88805580   88.54260254    0.03000000    0.23000000
   16.89111137   87.47949982    0.03000000    0.23000000
   16.89444351   82.94499969    0.03000000    0.23000000
   16.89749908   85.17520142    0.03000000    0.23000000
   16.90083313   89.61160278    0.03000000    0.23000000
   16.90388870   86.23539734    0.03000000    0.23000000
   16.90722275   81.46640015    0.03000000    0.23000000
   16.90777779   90.10050201    0.03000000    0.23000000
   16.91083336   83.68440247    0.03000000    0.23000000
   16.91611099   83.68440247    0.03000000    0.23000000
   16.92000008   79.60410309    0.03000000    0.23000000
   16.92333221   75.37110138    0.03000000    0.23000000
   16.92638779   76.68460083    0.03000000    0.23000000
   16.92972183   76.05760193    0.03000000    0.23000000
   16.93277740   80.48429871    0.03000000    0.23000000
   16.93610954   78.32279968    0.03000000    0.23000000
   16.93916512   77.33429718    0.03000000    0.23000000
   16.94249916   80.81960297    0.03000000    0.23000000
   16.94555473   78.03610229    0.03000000    0.23000000
   16.94888878   74.68949890    0.03000000    0.23000000
   16.95194435   83.80899811    0.03000000    0.23000000
   16.95527840   80.88379669    0.03000000    0.23000000
   16.95777893   77.29109955    0.03000000    0.23000000
   16.95861244   77.70359802    0.03000000    0.23000000
   16.96194458   83.69249725    0.03000000    0.23000000
   16.96722221   83.69249725    0.03000000    0.23000000
   16.97111130   81.55300140    0.03000000    0.23000000
   16.97444534   81.15170288    0.03000000    0.23000000
   16.97750092   80.60379791    0.03000000    0.23000000
   16.98083305   79.72080231    0.03000000    0.23000000
   16.98388863   84.19650269    0.03000000    0.23000000
   16.98722267   80.20010376    0.03000000    0.23000000
   16.99027824   82.46360016    0.03000000    0.23000000
   16.99361229   82.61100006    0.03000000    0.23000000
   16.99694443   82.66819763    0.03000000    0.23000000
   17.00000000   81.46849823    0.03000000    0.23000000
   17.00305557   87.78559875    0.03000000    0.23000000
   17.00638962   88.24530029    0.03000000    0.23000000
   17.00777817   81.77239990    0.03000000    0.23000000
   17.00972176   90.06349945    0.03000000    0.23000000
   17.01305580   80.67259979    0.03000000    0.23000000
   17.01833344   80.67259979    0.03000000    0.23000000
   17.02249908   78.92520142    0.03000000    0.23000000
   17.02555466   81.33139801    0.03000000    0.23000000
   17.02888870   79.36869812    0.03000000    0.23000000
   17.03194427   82.44049835    0.03000000    0.23000000
   17.03527641   82.53099823    0.03000000    0.23000000
   17.03833199   76.95069885    0.03000000    0.23000000
   17.04166603   78.39769745    0.03000000    0.23000000
   17.04472160   79.87220001    0.03000000    0.23000000
   17.04805565   77.53540039    0.03000000    0.23000000
   17.05111122   83.67269897    0.03000000    0.23000000
   17.05444336   82.49990082    0.03000000    0.23000000
   17.05749893   72.67530060    0.03000000    0.23000000
   17.05805397   77.72799683    0.03000000    0.23000000
   17.06110954   75.15579987    0.03000000    0.23000000
   17.06444359   76.53600311    0.03000000    0.23000000
   17.06944466   76.53600311    0.03000000    0.23000000
   17.07361221   76.07839966    0.03000000    0.23000000
   17.07666779   78.46410370    0.03000000    0.23000000
   17.08000183   79.72200012    0.03000000    0.23000000
   17.08305550   77.34839630    0.03000000    0.23000000
   17.08638954   84.72229767    0.03000000    0.23000000
   17.08944511   83.78749847    0.03000000    0.23000000
   17.09277916   77.60500336    0.03000000    0.23000000
   17.09583473   82.21189880    0.03000000    0.23000000
   17.09916687   82.15789795    0.03000000    0.23000000
   17.10222244   79.47489929    0.03000000    0.23000000
   17.10555649   86.33039856    0.03000000    0.23000000
   17.10805511   87.39299774    0.03000000    0.23000000
   17.10888863   83.97499847    0.03000000    0.23000000
   17.11222267   82.60900116    0.03000000    0.23000000
   17.11527824   80.02380371    0.03000000    0.23000000
   17.12083435   80.02380371    0.03000000    0.23000000
   17.12472153   83.04589844    0.03000000    0.23000000
   17.12805557   87.51110077    0.03000000    0.23000000
   17.13111115   81.06770325    0.03000000    0.23000000
   17.13444519   80.30729675    0.03000000    0.23000000
   17.13750076   77.87580109    0.03000000    0.23000000
   17.14083290   78.44460297    0.03000000    0.23000000
   17.14388847   79.51629639    0.03000000    0.23000000
   17.14722252   81.57109833    0.03000000    0.23000000
   17.15027809   84.57219696    0.03000000    0.23000000
   17.15361023   89.26899719    0.03000000    0.23000000
   17.15666580   81.42469788    0.03000000    0.23000000
   17.15805435   79.05940247    0.03000000    0.23000000
   17.15999985   76.36699677    0.03000000    0.23000000
   17.16333389   77.82489777    0.03000000    0.23000000
   17.16638756   83.23580170    0.03000000    0.23000000
   17.17194366   83.23580170    0.03000000    0.23000000
   17.17583275   81.19519806    0.03000000    0.23000000
   17.17916679   81.59010315    0.03000000    0.23000000
   17.18222237   84.85890198    0.03000000    0.23000000
   17.18555450   95.37989807    0.03000000    0.23000000
   17.18861008   97.79100037    0.03000000    0.23000000
   17.19194412   80.47319794    0.03000000    0.23000000
   17.19527626   80.68139648    0.03000000    0.23000000
   17.19833183   78.41439819    0.03000000    0.23000000
   17.20138931   76.99069977    0.03000000    0.23000000
   17.20472336   74.87470245    0.03000000    0.23000000
   17.20777893   77.17050171    0.03000000    0.23000000
   17.20833397   77.34970093    0.03000000    0.23000000
   17.21166801   75.75260162    0.03000000    0.23000000
   17.21472359   76.47319794    0.03000000    0.23000000
   17.21805573   76.81719971    0.03000000    0.23000000
   17.22305679   76.81719971    0.03000000    0.23000000
   17.22722244   78.44069672    0.03000000    0.23000000
   17.23027802   79.77899933    0.03000000    0.23000000
   17.23361206   81.37729645    0.03000000    0.23000000
   17.23666763   83.67199707    0.03000000    0.23000000
   17.23999977   86.58910370    0.03000000    0.23000000
   17.24305534   78.10040283    0.03000000    0.23000000
   17.24638939   80.90989685    0.03000000    0.23000000
   17.24944496   83.00409698    0.03000000    0.23000000
   17.25277710   76.33869934    0.03000000    0.23000000
   17.25583267   83.59799957    0.03000000    0.23000000
   17.25833321   82.93190002    0.03000000    0.23000000
   17.25944519   82.54270172    0.03000000    0.23000000
   17.26250076   84.21029663    0.03000000    0.23000000
   17.26583290   80.78489685    0.03000000    0.23000000
   17.26888847   82.62390137    0.03000000    0.23000000
   17.27416611   82.62390137    0.03000000    0.23000000
   17.27833366   95.27590179    0.03000000    0.23000000
   17.28138924   84.60549927    0.03000000    0.23000000
   17.28472137   85.67910004    0.03000000    0.23000000
   17.28777695   95.66339874    0.03000000    0.23000000
   17.29111099   83.84549713    0.03000000    0.23000000
   17.29416656   83.01930237    0.03000000    0.23000000
   17.29749870   78.97049713    0.03000000    0.23000000
   17.30055428   80.03330231    0.03000000    0.23000000
   17.30388832   81.64260101    0.03000000    0.23000000
   17.30694389   91.25170135    0.03000000    0.23000000
   17.30833244   86.22049713    0.03000000    0.23000000
   17.31055450   87.96970367    0.03000000    0.23000000
   17.31361008   89.99680328    0.03000000    0.23000000
   17.31694603   87.13860321    0.03000000    0.23000000
   17.32000160   80.70580292    0.03000000    0.23000000
   17.32527924   80.70580292    0.03000000    0.23000000
   17.32944489   83.97489929    0.03000000    0.23000000
   17.33277893   83.11049652    0.03000000    0.23000000
   17.33583450   80.67800140    0.03000000    0.23000000
   17.33916664   81.77989960    0.03000000    0.23000000
   17.34222221   81.99600220    0.03000000    0.23000000
   17.34555626   80.10420227    0.03000000    0.23000000
   17.34861183   81.30879974    0.03000000    0.23000000
   17.35194397   83.12500000    0.03000000    0.23000000
   17.35499954   76.79340363    0.03000000    0.23000000
   17.35833359   79.69580078    0.03000000    0.23000000
   17.35861206   82.46289825    0.03000000    0.23000000
   17.36194420   79.87390137    0.03000000    0.23000000
   17.36499977   79.85179901    0.03000000    0.23000000
   17.36833382   82.86479950    0.03000000    0.23000000
   17.37138939   76.59639740    0.03000000    0.23000000
   17.37666702   76.59639740    0.03000000    0.23000000
   17.38055611   79.11460114    0.03000000    0.23000000
   17.38388824   76.02480316    0.03000000    0.23000000
   17.38694382   73.40100098    0.03000000    0.23000000
   17.39027786   79.25920105    0.03000000    0.23000000
   17.39333344   80.75630188    0.03000000    0.23000000
   17.39666748   77.71420288    0.03000000    0.23000000
   17.39972115   81.71510315    0.03000000    0.23000000
   17.40305519   76.51370239    0.03000000    0.23000000
   17.40611076   77.61440277    0.03000000    0.23000000
   17.40861130   80.60870361    0.03000000    0.23000000
   17.40972137   74.79070282    0.03000000    0.23000000
   17.41277695   77.37809753    0.03000000    0.23000000
   17.41611099   81.63369751    0.03000000    0.23000000
   17.41916656   75.74279785    0.03000000    0.23000000
   17.42249870   83.51370239    0.03000000    0.23000000
   17.42777634   83.51370239    0.03000000    0.23000000
   17.43194389   80.88639832    0.03000000    0.23000000
   17.43499947   80.41049957    0.03000000    0.23000000
   17.43833160   82.46820068    0.03000000    0.23000000
   17.44138718   89.90679932    0.03000000    0.23000000
   17.44472122   91.40309906    0.03000000    0.23000000
   17.44777679   80.87680054    0.03000000    0.23000000
   17.45111275   99.10140228    0.03000000    0.23000000
   17.45416832   90.38079834    0.03000000    0.23000000
   17.45750046   82.49849701    0.03000000    0.23000000
   17.45888901   81.06950378    0.03000000    0.23000000
   17.46083450   84.11509705    0.03000000    0.23000000
   17.46389008   84.60949707    0.03000000    0.23000000
   17.46722221   93.18769836    0.03000000    0.23000000
   17.47027779   84.63420105    0.03000000    0.23000000
   17.47361183   82.58879852    0.03000000    0.23000000
   17.47888947   82.58879852    0.03000000    0.23000000
   17.48305511   83.08830261    0.03000000    0.23000000
   17.48611069   95.09709930    0.03000000    0.23000000
   17.48944473   86.12950134    0.03000000    0.23000000
   17.49250031   81.87039948    0.03000000    0.23000000
   17.49583435   81.20999908    0.03000000    0.23000000
   17.49888992   82.85289764    0.03000000    0.23000000
   17.50222206   81.84580231    0.03000000    0.23000000
   17.50527763   90.34960175    0.03000000    0.23000000
   17.50861168   81.67379761    0.03000000    0.23000000
   17.50916672   84.81569672    0.03000000    0.23000000
   17.51222229   94.76709747    0.03000000    0.23000000
   17.51555634   98.98310089    0.03000000    0.23000000
   17.51861000   85.65339661    0.03000000    0.23000000
   17.52194405   84.93779755    0.03000000    0.23000000
   17.52499962   87.77760315    0.03000000    0.23000000
   17.53000069   87.77760315    0.03000000    0.23000000
   17.53416634   89.36750031    0.03000000    0.23000000
   17.53750038   90.57659912    0.03000000    0.23000000
   17.54055595   81.12969971    0.03000000    0.23000000
