    HOUR (UT)   FLARE FACTOR    SKY TESTER    SUN TESTER
   11.21055508   -1.00000000   -1.00000000   -1.00000000
   11.23333359   86.18779755    3.64000010    2.34999990
   11.23861122   89.24019623    3.61999989    2.34999990
   11.24194431   84.35209656    3.59999990    2.32999992
   11.24499989   83.96839905    3.59999990    2.34999990
   11.24833393   87.06189728    3.59999990    2.34999990
   11.25138855   85.14050293    3.59999990    2.34999990
   11.25472260   95.70649719    3.59999990    2.34999990
   11.25777817   85.28829956    3.57999992    2.34999990
   11.26111126   88.39980316    3.57999992    2.36999989
   11.26416683   93.70619965    3.57999992    2.36999989
   11.26666641   89.83999634    3.57999992    2.36999989
   11.26777744   91.55729675    3.57999992    2.36999989
   11.27083302   88.02369690    3.57999992    2.36999989
   11.27416611   92.00050354    3.55999994    2.36999989
   11.27805519   87.69429779    3.53999996    2.36999989
   11.28111076   83.42279816    3.55999994    2.39000010
   11.28444481   87.36920166    3.55999994    2.36999989
   11.28750038   87.99169922    3.55999994    2.36999989
   11.29083347   83.04229736    3.53999996    2.36999989
   11.29388905   88.10939789    3.55999994    2.36999989
   11.29722309   86.08029938    3.55999994    2.39000010
   11.30027771   85.81469727    3.55999994    2.39000010
   11.30361176   83.95040131    3.55999994    2.36999989
   11.30666733   85.97570038    3.53999996    2.36999989
   11.31000042   85.31490326    3.53999996    2.36999989
   11.31305599   91.29989624    3.51999998    2.36999989
   11.31638908   88.42250061    3.50000000    2.36999989
   11.31694412   84.10359955    3.50000000    2.36999989
   11.31972218   86.94599915    3.48000002    2.39000010
   11.32277775   88.93630219    3.46000004    2.36999989
   11.32611084   88.55059814    3.46000004    2.39000010
   11.32916641   83.27860260    3.46000004    2.39000010
   11.33249950   86.63269806    3.46000004    2.39000010
   11.33555508   85.55259705    3.46000004    2.36999989
   11.33888817   86.00910187    3.45000005    2.36999989
   11.34194374   97.26159668    3.45000005    2.39000010
   11.34527779   85.70349884    3.45000005    2.39000010
   11.34833336   90.04409790    3.43000007    2.39000010
   11.35166740   88.97850037    3.39000010    2.39000010
   11.35472298   86.35959625    3.39000010    2.39000010
   11.35805607   88.20410156    3.36999989    2.40000010
   11.36111164   85.76529694    3.36999989    2.39000010
   11.36444473   90.78800201    3.36999989    2.39000010
   11.36694431   87.03320313    3.36999989    2.39000010
   11.36805534   89.36869812    3.39000010    2.40000010
   11.37111092   85.95240021    3.36999989    2.40000010
   11.37444496   88.41089630    3.36999989    2.40000010
   11.37750053   85.17810059    3.39000010    2.40000010
   11.38083363   86.30319977    3.39000010    2.40000010
   11.38388920   84.99289703    3.41000009    2.39000010
   11.38722229   86.86550140    3.41000009    2.39000010
   11.39027786   83.82360077    3.43000007    2.39000010
   11.39361095   88.04699707    3.43000007    2.39000010
   11.39666653   88.86109924    3.43000007    2.39000010
   11.39999962   89.45010376    3.43000007    2.39000010
   11.40305519   88.64910126    3.43000007    2.39000010
   11.40638828   91.84220123    3.43000007    2.39000010
   11.40944386   86.31800079    3.45000005    2.39000010
   11.41277695   89.16899872    3.46000004    2.39000010
   11.41583252   88.14330292    3.46000004    2.39000010
   11.41694450   84.15859985    3.46000004    2.39000010
   11.41944504   93.67389679    3.48000002    2.39000010
   11.42277813   86.25370026    3.48000002    2.39000010
   11.42583370   86.14230347    3.48000002    2.39000010
   11.42916679   91.04070282    3.50000000    2.39000010
   11.43222237   88.92060089    3.50000000    2.39000010
   11.43555546   86.32099915    3.50000000    2.39000010
   11.43861103   87.51860046    3.48000002    2.39000010
   11.44194412   87.41110229    3.48000002    2.39000010
   11.44499969   88.24600220    3.48000002    2.40000010
   11.44833374   88.93949890    3.50000000    2.39000010
   11.45138836   93.77420044    3.50000000    2.40000010
   11.45472240   93.49600220    3.51999998    2.40000010
   11.45777798   85.34249878    3.51999998    2.39000010
   11.46111107   91.91600037    3.51999998    2.39000010
   11.46416664   84.44770050    3.51999998    2.39000010
   11.46694374   83.58670044    3.50000000    2.39000010
   11.46777725   84.51679993    3.50000000    2.39000010
   11.47083282   82.05410004    3.51999998    2.39000010
   11.47416592   91.34609985    3.51999998    2.39000010
   11.47722149   96.42880249    3.51999998    2.39000010
   11.48055553   88.31629944    3.51999998    2.40000010
   11.48361111   86.68360138    3.53999996    2.39000010
   11.48694515   88.31310272    3.55999994    2.39000010
   11.49000072   86.38249969    3.53999996    2.39000010
   11.49333382   85.85030365    3.55999994    2.36999989
   11.49638939   90.29479980    3.55999994    2.36999989
   11.49972248   84.35939789    3.57999992    2.39000010
   11.50277805   98.07510376    3.57999992    2.39000010
   11.50611115   91.58110046    3.57999992    2.36999989
   11.50916672   93.06970215    3.57999992    2.36999989
   11.51249981   96.28710175    3.59999990    2.36999989
   11.51555538   85.37200165    3.61999989    2.36999989
   11.51694393   87.14479828    3.61999989    2.36999989
   11.51916599   85.39230347    3.64000010    2.36999989
   11.52250004   89.12719727    3.70000005    2.34999990
   11.52555561   86.32849884    3.72000003    2.34999990
   11.52888870   90.27719879    3.73000002    2.34999990
   11.53194427   86.67579651    3.82999992    2.34999990
   11.53527832   89.37809753    4.00000000    2.36999989
   11.53833389   90.82649994    4.36999989    2.36999989
   11.54166698   89.54840088    4.86999989    2.39000010
   11.54472256   93.59179688    4.90999985    2.36999989
   11.54805565   92.39489746    4.90999985    2.36999989
   11.55111122   90.29930115    4.90999985    2.30999994
   11.55444431   95.33679962    4.90999985    2.21000004
   11.55749989  100.00000000    4.90999985    2.26999998
   11.56083393  120.37300110    4.90999985    2.17000008
   11.56388950   88.19509888    4.90999985    2.05999994
   11.56694412   93.52120209    4.88999987    2.25000000
   11.56750011   89.05159760    4.88999987    2.25000000
   11.57055569   95.19930267    4.67999983    2.32999992
   11.57388878   90.58769989    4.28999996    2.36999989
   11.57694435   93.37049866    4.00000000    2.39000010
   11.58027744   91.71549988    3.91000009    2.36999989
   11.58333302   89.47609711    3.80999994    2.39000010
   11.58666611   89.67350006    3.73000002    2.36999989
   11.58972168   86.92160034    3.70000005    2.36999989
   11.59305477   93.04530334    3.66000009    2.36999989
   11.59611034   92.06120300    3.66000009    2.36999989
   11.59944439   93.21150208    3.64000010    2.34999990
   11.60249996   91.54380035    3.64000010    2.36999989
   11.60583401   87.00489807    3.66000009    2.36999989
   11.60888958   92.62349701    3.70000005    2.36999989
   11.61222267   89.54820251    3.72000003    2.36999989
   11.61527824   97.11920166    3.70000005    2.36999989
   11.61694431   97.92060089    3.70000005    2.36999989
   11.61888885   84.79260254    3.78999996    2.39000010
   11.62222195   91.63410187    4.32999992    2.36999989
   11.62527752   89.12909698    4.90999985    2.39000010
   11.62861156   85.83789825    4.90999985    2.39000010
   11.63166714   88.15129852    4.90999985    2.36999989
   11.63500023   89.99330139    4.90999985    2.36999989
   11.63805580   99.95089722    4.90999985    2.36999989
   11.64138889   93.46379852    4.90999985    2.36999989
   11.64444447   97.80529785    4.90999985    2.32999992
   11.64777756  138.18099976    4.90999985    2.17000008
   11.65083313  200.84199524    4.90999985    1.75000000
   11.65416622  223.17399597    4.90999985    1.53999996
   11.65722179  159.05099487    4.90999985    1.36000001
   11.66055489   -1.00000000    4.90999985    1.13000000
   11.66361046   -1.00000000    4.90999985    0.83999997
   11.66666698   98.46430206    4.90999985    0.69000000
   11.66722298   58.21870041    4.90999985    0.69000000
   11.67055607  164.70700073    4.90999985    1.01999998
   11.67361164  251.95100403    4.90999985    1.38000000
   11.67694473   -1.00000000    4.90999985    1.16999996
   11.68000031   -1.00000000    4.90999985    0.88000000
   11.68305588   -1.00000000    4.90999985    0.47999999
   11.68638897   -1.00000000    4.90999985    0.52999997
   11.68944454  127.05200195    4.90999985    1.36000001
   11.69277763   93.66799927    4.90999985    2.23000002
   11.69583321   88.87180328    4.90999985    2.36999989
   11.69916630  101.90799713    4.90999985    2.39000010
   11.70222187   89.15170288    4.90999985    2.34999990
   11.70555496  101.88600159    4.90999985    2.36999989
   11.70861053   93.69210052    4.90999985    2.26999998
   11.71194458   87.80269623    4.90999985    2.34999990
   11.71500015   94.96170044    4.90999985    2.40000010
   11.71722221   83.91729736    4.90999985    2.40000010
   11.71861076   86.07620239    4.90999985    2.40000010
   11.72166634   89.71630096    4.90999985    2.42000008
   11.72472191   91.30960083    4.90999985    2.44000006
   11.72805500   85.88639832    4.67999983    2.44000006
   11.73138809   83.49559784    4.05999994    2.44000006
   11.73444462   83.95500183    3.73000002    2.46000004
   11.73777771   85.66699982    3.66000009    2.46000004
   11.74083328   86.59089661    3.48000002    2.48000002
   11.74416733   97.84490204    3.39000010    2.48000002
   11.74722290   84.69249725    3.32999992    2.48000002
   11.75055599   84.35489655    3.36999989    2.48000002
   11.75361156   87.45570374    3.41000009    2.48000002
   11.75694466   83.44979858    3.36999989    2.50000000
   11.76000023   88.03099823    3.26999998    2.50000000
   11.76333332   85.52670288    3.20000005    2.48000002
   11.76638889   84.94789886    3.18000007    2.48000002
   11.76722240   86.17510223    3.18000007    2.48000002
   11.76999950   87.70929718    3.18000007    2.48000002
   11.77305508   85.52899933    3.16000009    2.48000002
   11.77638817   84.73400116    3.16000009    2.50000000
   11.77944374   87.30789948    3.14000010    2.50000000
   11.78277779   83.60070038    3.16000009    2.50000000
   11.78583336   85.45330048    3.18000007    2.50000000
   11.78916740   82.19809723    3.18000007    2.48000002
   11.79222298   84.28929901    3.18000007    2.50000000
   11.79555607   82.66539764    3.18000007    2.48000002
   11.79861164   83.38839722    3.14000010    2.50000000
   11.80194473   82.37760162    3.14000010    2.50000000
   11.80500031   82.89209747    3.09999990    2.50000000
   11.80833340   86.61519623    3.09999990    2.50000000
   11.81138897   84.40499878    3.09999990    2.51999998
   11.81472206   80.51850128    3.11999989    2.51999998
   11.81722260   86.85980225    3.11999989    2.51999998
   11.81833363   87.74939728    3.11999989    2.51999998
   11.82138920   84.11699677    3.14000010    2.51999998
   11.82472229   94.22229767    3.14000010    2.51999998
   11.82777786   84.43280029    3.16000009    2.51999998
   11.83111095   86.03150177    3.14000010    2.51999998
   11.83416653   84.35289764    3.16000009    2.51999998
   11.83749962   81.29290009    3.18000007    2.51999998
   11.84055519   87.66220093    3.20000005    2.51999998
   11.84388828   84.93730164    3.23000002    2.50000000
   11.84694386   88.26699829    3.26999998    2.50000000
   11.85027790   86.31130219    3.30999994    2.48000002
   11.85333347   92.01540375    3.32999992    2.48000002
   11.85666752   85.89510345    3.39000010    2.48000002
   11.85972214   83.03160095    3.46000004    2.46000004
   11.86305618   90.09390259    3.64000010    2.46000004
   11.86611176   89.19699860    4.36999989    2.46000004
   11.86722279   87.24510193    4.80000019    2.48000002
   11.86972237   92.58450317    4.90999985    2.46000004
   11.87277794   89.15499878    4.90999985    2.46000004
   11.87611103   99.91819763    4.90999985    2.44000006
   11.87916660   93.06439972    4.90999985    2.40000010
   11.88249969  102.51499939    4.90999985    2.36999989
   11.88555527  105.37000275    4.90999985    2.15000010
   11.88888836   98.91739655    4.90999985    2.30999994
   11.89194393  137.35299683    4.90999985    2.11999989
   11.89527798   91.08840179    4.90999985    2.17000008
   11.89833355  150.25599670    4.90999985    2.42000008
   11.90166664  107.12999725    4.90999985    2.19000006
   11.90472221   92.89679718    4.90999985    2.28999996
   11.90805531  102.48899841    4.90999985    2.40000010
   11.91111088   85.29340363    4.90999985    2.30999994
   11.91444397   84.84300232    4.90999985    2.48000002
   11.91722298   84.30580139    4.61999989    2.50000000
   11.91805553   87.18609619    4.61999989    2.50000000
   11.92111111   84.03859711    3.26999998    2.50000000
   11.92444515   85.53050232    3.20000005    2.50000000
   11.92750072   80.85269928    3.16000009    2.51999998
   11.93083382   83.67330170    3.09999990    2.51999998
   11.93388939   86.56150055    3.07999992    2.51999998
   11.93722248   87.68640137    3.05999994    2.53999996
   11.94027805   85.35350037    3.03999996    2.53999996
   11.94361115   95.84729767    3.03999996    2.53999996
   11.94666672   85.87580109    3.01999998    2.51999998
   11.94999981   83.93900299    3.00000000    2.53999996
   11.95305538   81.26280212    2.98000002    2.53999996
   11.95638847   82.65489960    2.96000004    2.53999996
   11.95944405   79.21600342    2.94000006    2.53999996
   11.96277714   85.42970276    2.94000006    2.53999996
   11.96583271   80.80239868    2.93000007    2.55999994
   11.96722221   80.10130310    2.93000007    2.55999994
   11.96944427   88.60019684    2.91000009    2.55999994
   11.97249985   81.02239990    2.89000010    2.57999992
   11.97583294   81.55570221    2.86999989    2.57999992
   11.97888851   84.58599854    2.84999990    2.57999992
   11.98222160   82.22440338    2.82999992    2.57999992
   11.98527813   78.75969696    2.80999994    2.57999992
   11.98861122   81.22789764    2.80999994    2.57999992
   11.99166679   84.10070038    2.80999994    2.57999992
   11.99499989   88.41249847    2.80999994    2.59999990
   11.99805546   82.88120270    2.82999992    2.59999990
   12.00138855   85.42720032    2.80999994    2.57999992
   12.00444412   84.28500366    2.78999996    2.59999990
   12.00777817   80.90869904    2.78999996    2.59999990
   12.01083374   79.71990204    2.78999996    2.61999989
   12.01416683   78.76679993    2.78999996    2.57999992
   12.01722240   77.50319672    2.76999998    2.59999990
   12.01777744   82.89060211    2.76999998    2.59999990
   12.02083302   81.86820221    2.75000000    2.59999990
   12.02416611   82.51029968    2.75000000    2.59999990
   12.02777767   82.42549896    2.73000002    2.59999990
   12.03194427   85.58090210    2.71000004    2.61999989
   12.03527832   79.68890381    2.69000006    2.59999990
   12.03833389   79.97280121    2.67000008    2.61999989
   12.04166698   82.08219910    2.67000008    2.61999989
   12.04500008   81.07340240    2.67000008    2.61999989
   12.04805565   84.09750366    2.66000009    2.61999989
   12.05138874   80.33290100    2.64000010    2.61999989
   12.05444431   84.28179932    2.61999989    2.61999989
   12.05777836   82.04969788    2.61999989    2.61999989
   12.06083393   87.67620087    2.61999989    2.61999989
   12.06416702   81.73960114    2.64000010    2.59999990
   12.06722260   82.98229980    2.66000009    2.61999989
   12.06777763   83.17900085    2.66000009    2.59999990
   12.07083321   85.21890259    2.67000008    2.61999989
   12.07416630   80.68029785    2.69000006    2.61999989
   12.07722187   83.05049896    2.71000004    2.61999989
   12.08055592   82.70130157    2.71000004    2.61999989
   12.08361053   82.44390106    2.71000004    2.59999990
   12.08694458   83.69470215    2.71000004    2.59999990
   12.09000015   82.86119843    2.71000004    2.59999990
   12.09333324   79.85030365    2.69000006    2.61999989
   12.09638882   85.49700165    2.69000006    2.59999990
   12.09972191   81.09619904    2.69000006    2.59999990
   12.10277843   79.61889648    2.71000004    2.59999990
   12.10611153   86.18759918    2.73000002    2.61999989
   12.10916710   81.87349701    2.73000002    2.61999989
   12.11250019   82.04679871    2.75000000    2.61999989
   12.11555576   84.05329895    2.73000002    2.61999989
   12.11722279   79.38500214    2.71000004    2.64000010
   12.11916637   83.56479645    2.73000002    2.64000010
   12.12222195   85.23870087    2.75000000    2.61999989
   12.12555599   81.20089722    2.76999998    2.61999989
   12.12861156   88.70600128    2.75000000    2.64000010
   12.13194466   79.44210052    2.73000002    2.61999989
   12.13500023   84.03839874    2.71000004    2.64000010
   12.13833332   82.93659973    2.69000006    2.64000010
   12.14138889   82.36759949    2.66000009    2.64000010
   12.14472198   79.78820038    2.66000009    2.64000010
   12.14777756   84.03109741    2.66000009    2.64000010
   12.15111065   88.93309784    2.64000010    2.66000009
   12.15416622   84.76349640    2.59999990    2.64000010
   12.15749931   84.60150146    2.57999992    2.64000010
   12.16055489   88.12079620    2.55999994    2.66000009
   12.16388893   84.85659790    2.55999994    2.64000010
   12.16694450   80.04530334    2.53999996    2.67000008
   12.16750050   79.66359711    2.51999998    2.66000009
   12.17083359   83.95880127    2.51999998    2.64000010
   12.17444515   85.88710022    2.48000002    2.66000009
   12.17777824   78.18820190    2.46000004    2.66000009
   12.18083382   83.03070068    2.46000004    2.66000009
   12.18416691   89.91960144    2.44000006    2.66000009
   12.18722248   84.48699951    2.46000004    2.66000009
   12.19055557   84.55940247    2.46000004    2.67000008
   12.19361115   89.21250153    2.44000006    2.66000009
   12.19694424   86.41220093    2.42000008    2.66000009
   12.19999981   89.43340302    2.42000008    2.67000008
   12.20333290   85.20030212    2.39000010    2.66000009
   12.20638847   80.18759918    2.36999989    2.64000010
   12.20972157   83.50520325    2.36999989    2.66000009
   12.21277714   82.56559753    2.36999989    2.67000008
   12.21611118   83.86190033    2.39000010    2.67000008
   12.21749973   77.74060059    2.36999989    2.67000008
   12.21972179   78.90910339    2.36999989    2.67000008
   12.22277737   83.43430328    2.34999990    2.66000009
   12.22611046   83.99579620    2.32999992    2.67000008
   12.22916603   81.99030304    2.30999994    2.67000008
   12.23249912   83.80590057    2.30999994    2.67000008
   12.25194454   80.63950348    2.32999992    2.67000008
   12.25527763   80.83920288    2.32999992    2.67000008
   12.25833321   81.71060181    2.34999990    2.67000008
   12.26166630   83.30590057    2.36999989    2.67000008
   12.26472187   79.94180298    2.36999989    2.67000008
   12.26777744   88.47579956    2.36999989    2.67000008
   12.26805496   78.80840302    2.36999989    2.67000008
   12.27138901   79.30549622    2.39000010    2.67000008
   12.27444458   83.52210236    2.39000010    2.66000009
   12.27777767   92.07019806    2.39000010    2.67000008
   12.28083324   79.28119659    2.34999990    2.67000008
   12.28416729   87.07649994    2.32999992    2.67000008
   12.28722286   84.67070007    2.32999992    2.69000006
   12.29055595   80.10420227    2.30999994    2.67000008
   12.29361153   88.11830139    2.30999994    2.67000008
   12.29694462   83.94149780    2.30999994    2.66000009
   12.30000019   89.55180359    2.28999996    2.67000008
   12.30333328   79.41539764    2.26999998    2.69000006
   12.30638885   86.63230133    2.26999998    2.69000006
   12.30972195   83.27539825    2.26999998    2.69000006
   12.31277752   85.70010376    2.26999998    2.67000008
   12.31611156   81.26730347    2.28999996    2.69000006
   12.31777763   79.12190247    2.28999996    2.69000006
   12.31944466   90.15080261    2.28999996    2.67000008
   12.32277775   88.50340271    2.30999994    2.67000008
   12.32583332   84.13359833    2.30999994    2.67000008
   12.32916641   81.22850037    2.32999992    2.69000006
   12.33222198   87.99220276    2.30999994    2.69000006
   12.33555508   76.69400024    2.32999992    2.67000008
   12.33861065   87.70480347    2.32999992    2.69000006
   12.34194374   90.27870178    2.32999992    2.69000006
   12.34499931   79.34089661    2.34999990    2.67000008
   12.34833336   77.71219635    2.36999989    2.67000008
   12.35138893   83.08920288    2.40000010    2.69000006
   12.35472298   83.60970306    2.42000008    2.69000006
   12.35777855   81.79270172    2.44000006    2.69000006
   12.36111164   87.19850159    2.44000006    2.67000008
   12.36416721   84.39309692    2.46000004    2.69000006
   12.36750031   81.23819733    2.44000006    2.67000008
   12.36805534   80.46459961    2.44000006    2.67000008
   12.37111092   91.16979980    2.42000008    2.67000008
   12.37444496   81.05650330    2.39000010    2.69000006
   12.37750053   86.68049622    2.36999989    2.69000006
   12.38083363   76.63849640    2.34999990    2.67000008
   12.38388920   77.98169708    2.30999994    2.69000006
   12.38722229   82.61869812    2.26999998    2.71000004
   12.39027786   80.25430298    2.21000004    2.71000004
   12.39361095   81.78260040    2.21000004    2.71000004
   12.39666653   78.61380005    2.21000004    2.71000004
   12.39999962   84.06770325    2.21000004    2.71000004
   12.40305519   84.33070374    2.21000004    2.71000004
   12.40638828   77.94110107    2.19000006    2.71000004
   12.40944386   83.62290192    2.19000006    2.71000004
   12.41277695   79.20200348    2.19000006    2.71000004
   12.41583252   78.25080109    2.19000006    2.69000006
   12.41805553   79.52880096    2.19000006    2.73000002
   12.41944504   79.19670105    2.21000004    2.71000004
   12.42277813   79.36759949    2.21000004    2.73000002
   12.42583370   83.67079926    2.21000004    2.71000004
   12.42916679   88.16130066    2.23000002    2.73000002
   12.43222237   78.06169891    2.23000002    2.73000002
   12.43555546   74.75569916    2.21000004    2.71000004
   12.43861103   79.89270020    2.21000004    2.69000006
   12.44194412   79.00820160    2.23000002    2.71000004
   12.44499969   86.33020020    2.25000000    2.71000004
   12.44833374   81.07959747    2.28999996    2.71000004
   12.45138836   87.49349976    2.25000000    2.71000004
   12.45472240   85.66300201    2.21000004    2.73000002
   12.45777798   83.23780060    2.21000004    2.71000004
   12.46111107   85.98059845    2.21000004    2.71000004
   12.46416664   82.50119781    2.19000006    2.73000002
   12.46749973   79.26809692    2.19000006    2.71000004
   12.46805477   79.01619720    2.19000006    2.71000004
   12.47083282   83.68930054    2.17000008    2.71000004
   12.47416592   79.34999847    2.15000010    2.73000002
   12.47722149   82.76850128    2.13000011    2.73000002
   12.48055553   81.50650024    2.11999989    2.71000004
   12.48361111   85.04650116    2.07999992    2.73000002
   12.48694515   79.44170380    2.07999992    2.73000002
   12.49000072   83.47389984    2.05999994    2.73000002
   12.49333382   80.36329651    2.03999996    2.73000002
   12.49638939   81.16929626    2.01999998    2.73000002
   12.49972248   80.53790283    2.01999998    2.73000002
   12.50277805   80.64610291    2.01999998    2.75000000
   12.50611115   80.74310303    2.01999998    2.71000004
   12.50916672   81.12460327    2.01999998    2.75000000
   12.51249981   83.46620178    2.01999998    2.73000002
   12.51555538   82.76010132    2.01999998    2.73000002
   12.51805496   86.57009888    2.01999998    2.71000004
   12.51916599   81.68280029    2.03999996    2.73000002
   12.52250004   82.23950195    2.03999996    2.73000002
   12.52555561   80.71119690    2.05999994    2.75000000
   12.52888870   84.53829956    2.05999994    2.75000000
   12.53194427   81.47689819    2.05999994    2.71000004
   12.53527832   78.36380005    2.05999994    2.75000000
   12.53833389   81.89309692    2.05999994    2.73000002
   12.54166698   87.74019623    2.07999992    2.73000002
   12.54472256   86.18160248    2.07999992    2.73000002
   12.54805565   87.78489685    2.09999990    2.73000002
   12.55111122   81.16069794    2.09999990    2.73000002
   12.55444431   80.56600189    2.11999989    2.73000002
   12.55749989   83.57849884    2.28999996    2.71000004
   12.56083393   84.35649872    3.05999994    2.67000008
   12.56388950  119.58499908    4.90999985    2.67000008
   12.56722260  100.23600006    4.90999985    2.26999998
   12.56805515  143.92700195    4.90999985    2.23000002
   12.57055569   85.43859863    4.90999985    2.32999992
   12.57388878   88.36440277    4.90999985    2.59999990
   12.57694435   77.69719696    3.51999998    2.67000008
   12.58027744   84.26370239    3.84999990    2.75000000
   12.58333302   85.33439636    2.11999989    2.75000000
   12.58666611   85.22339630    2.05999994    2.73000002
   12.58972168   81.98010254    2.03999996    2.75000000
   12.59305477   84.01319885    2.01999998    2.75000000
   12.59611034   80.57589722    1.98000002    2.75000000
   12.59944439   82.53790283    1.96000004    2.75000000
   12.60249996   78.67030334    1.91999996    2.75000000
   12.60583401   82.85359955    1.91999996    2.75000000
   12.60888958   81.19599915    1.94000006    2.75000000
   12.61222267   79.37750244    1.91999996    2.75000000
   12.61527824   78.94629669    1.91999996    2.75000000
   12.61805534   85.45210266    1.91999996    2.75000000
   12.61888885   81.69360352    1.91999996    2.75000000
   12.62222195   80.39859772    1.91999996    2.75000000
   12.62527752   82.81140137    1.91999996    2.75000000
   12.62861156   76.18180084    1.96000004    2.75000000
   12.63166714   84.18489838    1.96000004    2.75000000
   12.63500023   82.73280334    1.98000002    2.75000000
   12.63805580   85.04409790    2.01999998    2.76999998
   12.64138889   81.02809906    2.03999996    2.75000000
   12.64444447   82.25340271    2.01999998    2.75000000
   12.64777756   80.42720032    1.98000002    2.75000000
   12.65083313   83.53430176    1.96000004    2.75000000
   12.65416622   79.04060364    1.96000004    2.75000000
   12.65722179   79.36779785    1.96000004    2.75000000
   12.66055489   83.03639984    1.96000004    2.75000000
   12.66361046   80.75710297    1.98000002    2.75000000
   12.66694450   77.02580261    1.98000002    2.75000000
   12.66805553   79.33899689    1.98000002    2.75000000
   12.67027855   77.17569733    1.98000002    2.75000000
   12.67361164   78.57060242    1.98000002    2.75000000
   12.67666721   79.75279999    2.01999998    2.76999998
   12.68000031   81.59449768    2.00000000    2.75000000
   12.68305588   79.30789948    2.01999998    2.75000000
   12.68638897   83.37920380    2.01999998    2.76999998
   12.68944454   78.80139923    2.07999992    2.76999998
   12.69277763   81.96569824    2.09999990    2.76999998
   12.69583321   82.57489777    2.09999990    2.75000000
   12.69916630   85.01190186    2.07999992    2.76999998
   12.70222187   80.00420380    2.07999992    2.75000000
   12.70555496   84.92350006    2.05999994    2.76999998
   12.70861053   81.71410370    2.01999998    2.75000000
   12.71194458   81.65049744    2.03999996    2.75000000
   12.71500015   80.38249969    2.01999998    2.75000000
   12.71805477   78.79360199    2.00000000    2.76999998
   12.71861076   78.95680237    2.00000000    2.76999998
   12.72194386   77.50219727    1.98000002    2.76999998
   12.72499943   81.39089966    1.96000004    2.76999998
   12.72833252   77.07689667    1.96000004    2.75000000
   12.73138809   83.74210358    1.96000004    2.75000000
   12.73472214   82.90640259    1.96000004    2.75000000
   12.73777771   82.01799774    1.96000004    2.76999998
   12.74111176   92.94419861    1.96000004    2.76999998
   12.74416733   89.05059814    1.96000004    2.76999998
   12.74750042   80.31240082    1.96000004    2.76999998
   12.75055599   81.80069733    1.96000004    2.76999998
   12.75388908   84.01260376    1.98000002    2.76999998
   12.75694466   87.19149780    1.98000002    2.76999998
   12.76027775   81.63459778    2.00000000    2.76999998
   12.76333332   85.69730377    1.98000002    2.78999996
   12.76666641   79.39910126    1.96000004    2.76999998
   12.76805496   85.26989746    1.96000004    2.76999998
   12.76999950   84.59169769    1.98000002    2.76999998
   12.77333355   92.38929749    1.96000004    2.78999996
   12.77638817   81.80059814    1.94000006    2.76999998
   12.77972221   78.70400238    1.96000004    2.76999998
   12.78277779   79.82559967    1.94000006    2.76999998
   12.78611183   82.74310303    1.94000006    2.78999996
   12.78916740   80.37629700    1.94000006    2.76999998
   12.79250050   79.03060150    1.94000006    2.78999996
   12.79555607   81.47570038    1.94000006    2.76999998
   12.79888916   77.46669769    1.91999996    2.76999998
   12.80194473   80.11830139    1.91999996    2.76999998
   12.80527782   86.11660004    1.89999998    2.78999996
   12.80833340   76.80470276    1.91999996    2.76999998
   12.81166649   78.49770355    1.89999998    2.78999996
   12.81472206   82.11579895    1.91999996    2.76999998
   12.81805515   82.30380249    1.91999996    2.78999996
   12.81833363   84.00469971    1.91999996    2.76999998
   12.82166672   77.84429932    1.91999996    2.78999996
   12.82499981   77.03189850    1.89999998    2.76999998
   12.82805538   80.40419769    1.91999996    2.78999996
   12.83138847   78.45709991    1.89999998    2.76999998
   12.83444405   78.52639771    1.91999996    2.78999996
   12.83777714   81.52239990    1.91999996    2.78999996
   12.84083271   80.81320190    1.91999996    2.78999996
   12.84416676   82.47239685    1.91999996    2.76999998
   12.84722233   83.14739990    1.89999998    2.76999998
   12.85055637   81.02960205    1.88000000    2.78999996
   12.85361195   78.51799774    1.88000000    2.78999996
   12.85694504   80.56490326    1.88000000    2.78999996
   12.86000061   79.86849976    1.88000000    2.78999996
   12.86333370   78.25749969    1.83000004    2.78999996
   12.86638927   82.73680115    1.83000004    2.78999996
   12.86805534   81.23999786    1.76999998    2.78999996
   12.86972237   82.00430298    1.76999998    2.80999994
   12.87305546   79.38359833    1.75000000    2.78999996
   12.87611103   81.87190247    1.75000000    2.80999994
   12.87944412   83.56870270    1.73000002    2.78999996
   12.88249969   82.19259644    1.73000002    2.78999996
   12.88583279   81.36650085    1.73000002    2.78999996
   12.88888836   81.28369904    1.73000002    2.78999996
   12.89222240   88.25430298    1.86000001    2.78999996
   12.89527798   80.45829773    1.89999998    2.78999996
   12.89861107   77.67469788    1.88000000    2.76999998
   12.90166664   84.69190216    1.86000001    2.78999996
   12.90499973   77.60359955    1.86000001    2.78999996
   12.90805531   82.24790192    1.86000001    2.78999996
   12.91138840   80.79100037    1.85000002    2.78999996
   12.91444397   80.89990234    1.85000002    2.78999996
   12.91777802   75.46820068    1.83000004    2.78999996
   12.91833401   83.73840332    1.80999994    2.76999998
   12.92138958   77.21029663    1.76999998    2.78999996
   12.92472267   81.81770325    1.75000000    2.78999996
   12.92777824   86.88939667    1.71000004    2.80999994
   12.93111134   79.17949677    1.71000004    2.80999994
   12.93416691   85.07469940    1.71000004    2.80999994
   12.93750000   81.56359863    1.69000006    2.80999994
   12.94055557   78.33190155    1.69000006    2.78999996
   12.94388866   79.69869995    1.69000006    2.80999994
   12.94694424   79.80970001    1.66999996    2.80999994
   12.95027733   82.08560181    1.66999996    2.80999994
   12.95333290   79.12760162    1.64999998    2.80999994
   12.95666695   77.34999847    1.64999998    2.80999994
   12.95972157   80.42050171    1.66999996    2.80999994
   12.96305561   85.73110199    1.66999996    2.82999992
   12.96611118   85.78359985    1.66999996    2.80999994
   12.96833324   78.84649658    1.71000004    2.80999994
   12.96972179   80.08499908    1.71000004    2.80999994
   12.97305489   83.94909668    1.71000004    2.80999994
   12.97611046   82.36119843    1.69000006    2.80999994
   12.97944355   81.09700012    1.66999996    2.80999994
   12.98249912   81.97190094    1.66999996    2.82999992
   12.98583317   80.90370178    1.66999996    2.80999994
   12.98888874   81.98940277    1.66999996    2.80999994
   12.99222279   79.28589630    1.66999996    2.82999992
   12.99527836   82.14250183    1.66999996    2.80999994
   12.99861145   84.80069733    1.63000000    2.80999994
   13.00166702   83.22799683    1.63000000    2.80999994
   13.00500011   84.68800354    1.63000000    2.80999994
   13.00805569   86.06330109    1.63000000    2.80999994
   13.01138878   78.57479858    1.63000000    2.80999994
   13.01444435   79.69560242    1.63000000    2.80999994
   13.01777744   78.65000153    1.63000000    2.80999994
   13.01833344   81.61019897    1.63000000    2.80999994
   13.02111053   83.72949982    1.63000000    2.82999992
   13.02444458   79.72229767    1.63000000    2.80999994
   13.02750015   77.19619751    1.64999998    2.80999994
   13.03083324   77.42610168    1.63000000    2.80999994
   13.03388977   83.28260040    1.63000000    2.80999994
   13.03722286   83.73709869    1.63000000    2.80999994
   13.04027843   74.70929718    1.64999998    2.80999994
   13.04361153   87.65969849    1.64999998    2.80999994
   13.04666710   77.76159668    1.64999998    2.80999994
   13.05000019   80.39250183    1.63000000    2.80999994
   13.05305576   81.44259644    1.64999998    2.80999994
   13.05638885   84.64299774    1.66999996    2.82999992
   13.05944443   81.77819824    1.64999998    2.82999992
   13.06277752   76.98919678    1.64999998    2.80999994
   13.06583309   74.40579987    1.66999996    2.80999994
   13.06833363   80.73419952    1.66999996    2.80999994
   13.06944466   84.11450195    1.66999996    2.80999994
   13.07277775   78.14779663    1.66999996    2.80999994
   13.07583332   77.29389954    1.63000000    2.82999992
   13.07916641   81.13490295    1.63000000    2.82999992
   13.08222198   83.35099792    1.66999996    2.82999992
   13.08555508   81.80079651    1.69000006    2.80999994
   13.08861065   85.20690155    1.69000006    2.80999994
   13.09194374   79.54589844    1.71000004    2.80999994
   13.09499931   83.08139801    1.71000004    2.80999994
   13.09833336   78.32199860    1.73000002    2.80999994
   13.10138893   79.29060364    1.75000000    2.80999994
   13.10472298   79.07939911    1.75000000    2.80999994
   13.10777855   79.85140228    1.76999998    2.82999992
   13.11111164   78.50009918    1.76999998    2.82999992
   13.11416721   76.41739655    1.76999998    2.80999994
   13.11750031   80.94020081    1.76999998    2.80999994
   13.11833382   83.30139923    1.76999998    2.80999994
   13.12083340   82.44049835    1.75000000    2.80999994
   13.12416649   83.18219757    1.71000004    2.80999994
   13.12722206   81.39510345    1.66999996    2.82999992
   13.13055611   77.15260315    1.66999996    2.82999992
   13.13361073   81.24130249    1.66999996    2.82999992
   13.13694477   81.27189636    1.66999996    2.80999994
   13.14000034   78.33730316    1.64999998    2.82999992
   13.14333344   87.38069916    1.64999998    2.82999992
   13.14638901   79.80860138    1.64999998    2.82999992
   13.14972210   82.07749939    1.64999998    2.80999994
   13.15277767   79.73000336    1.64999998    2.82999992
   13.15611076   80.46389771    1.66999996    2.80999994
   13.15916634   78.40940094    1.69000006    2.80999994
   13.16249943   80.51840210    1.69000006    2.82999992
   13.16555500   76.95580292    1.71000004    2.82999992
   13.16833401   84.39800262    1.71000004    2.80999994
   13.16916656   88.39810181    1.71000004    2.80999994
   13.17250061   79.33509827    1.71000004    2.80999994
   13.17555618   80.68129730    1.71000004    2.80999994
   13.17888927   80.99189758    1.71000004    2.80999994
   13.18194485   86.53459930    1.73000002    2.80999994
   13.18527794   83.45069885    1.75000000    2.80999994
   13.18833351   82.37129974    1.75000000    2.80999994
   13.19166660   83.84870148    1.75000000    2.80999994
   13.19472218   83.01100159    1.73000002    2.80999994
   13.19805527   84.79650116    1.73000002    2.80999994
   13.20111084   82.86039734    1.75000000    2.82999992
   13.20444393   89.18979645    1.75000000    2.82999992
   13.20749950   87.38050079    1.75000000    2.82999992
   13.21083355   78.79750061    1.76999998    2.80999994
   13.21388912   79.77660370    1.75000000    2.80999994
   13.21722221   83.29010010    1.76999998    2.80999994
   13.21833324   78.11550140    1.75000000    2.82999992
   13.22055531   80.80909729    1.75000000    2.82999992
   13.22388840   82.86959839    1.75000000    2.80999994
   13.22694397   80.71630096    1.75000000    2.82999992
   13.23027706   80.46399689    1.73000002    2.82999992
   13.23333359   78.36820221    1.73000002    2.82999992
   13.23666668   82.29250336    1.71000004    2.84999990
   13.23972225   79.94650269    1.71000004    2.82999992
   13.24305534   79.34999847    1.69000006    2.82999992
   13.24611092   82.08070374    1.69000006    2.82999992
   13.24944496   84.50900269    1.69000006    2.82999992
   13.26861095   79.55719757    1.71000004    2.84999990
   13.26916599   77.84239960    1.71000004    2.84999990
   13.27250004   82.79309845    1.66999996    2.84999990
   13.27555561   81.77580261    1.69000006    2.82999992
   13.27888870   81.90160370    1.66999996    2.84999990
   13.28194427   81.22010040    1.64999998    2.84999990
   13.28527832   81.87129974    1.64999998    2.84999990
   13.28833389   84.82209778    1.63000000    2.84999990
   13.29166698   81.09870148    1.66999996    2.82999992
   13.29472256   78.79019928    1.69000006    2.82999992
   13.29805565   84.50810242    1.69000006    2.82999992
   13.30111122   81.57369995    1.69000006    2.82999992
   13.30444431   79.49659729    1.66999996    2.84999990
   13.30749989   80.46250153    1.66999996    2.84999990
   13.31083393   82.50029755    1.66999996    2.82999992
   13.31388950   84.81900024    1.64999998    2.84999990
   13.31722260   80.47219849    1.66999996    2.84999990
   13.31833363   81.55829620    1.66999996    2.84999990
   13.32055569   83.58509827    1.69000006    2.84999990
   13.32361126   83.00620270    1.69000006    2.82999992
   13.32694435   85.22609711    1.69000006    2.82999992
   13.32999992   79.47969818    1.69000006    2.84999990
   13.33333302   77.89320374    1.69000006    2.84999990
   13.33638859   82.41600037    1.66999996    2.84999990
   13.33972168   82.02429962    1.69000006    2.84999990
   13.34277725   81.11730194    1.69000006    2.84999990
   13.34611034   76.07489777    1.66999996    2.86999989
   13.34916592   75.69860077    1.66999996    2.86999989
   13.35249996   80.95339966    1.69000006    2.84999990
   13.35555553   79.83429718    1.69000006    2.84999990
   13.35888958   79.98789978    1.71000004    2.84999990
   13.36194515   80.90280151    1.71000004    2.84999990
   13.36527824   85.38970184    1.76999998    2.82999992
   13.36833382   81.33319855    1.76999998    2.82999992
   13.36888885   79.89160156    1.75000000    2.82999992
   13.37194443   84.91269684    1.76999998    2.82999992
   13.37527752   80.33540344    1.78999996    2.82999992
   13.37833309   80.55789948    1.76999998    2.80999994
   13.38166714   77.58560181    1.76999998    2.82999992
   13.38500023   79.42780304    1.75000000    2.82999992
   13.38805580   83.69660187    1.73000002    2.84999990
   13.39138889   83.78639984    1.69000006    2.84999990
   13.39444447   80.60820007    1.66999996    2.84999990
   13.39777756   80.39029694    1.63000000    2.84999990
   13.40083313   84.95449829    1.63000000    2.84999990
   13.40416622   79.78199768    1.63000000    2.86999989
   13.40722179   82.25360107    1.63000000    2.86999989
   13.41055489   81.35679626    1.63000000    2.84999990
   13.41361046   81.15950012    1.61000001    2.84999990
   13.41694450   77.93039703    1.61000001    2.84999990
   13.41833401   80.15339661    1.61000001    2.84999990
   13.42055607   80.09899902    1.61000001    2.84999990
   13.42361164   85.29229736    1.60000002    2.86999989
   13.42694473   81.97679901    1.61000001    2.86999989
   13.43000031   82.06749725    1.61000001    2.84999990
   13.43333340   80.53320313    1.63000000    2.86999989
   13.43638897   81.12670135    1.63000000    2.86999989
   13.43972206   82.78919983    1.63000000    2.86999989
   13.44277763   88.66970062    1.63000000    2.84999990
   13.44611073   80.16970062    1.64999998    2.86999989
   13.44916630   80.80380249    1.66999996    2.84999990
   13.45249939   85.08370209    1.69000006    2.86999989
   13.45555496   80.43890381    1.69000006    2.86999989
   13.45888901   83.54049683    1.66999996    2.86999989
   13.46194458   79.80180359    1.66999996    2.86999989
   13.46527767   80.60140228    1.66999996    2.84999990
   13.46833324   81.65129852    1.71000004    2.84999990
   13.46888828   79.66459656    1.71000004    2.84999990
   13.47194386   82.57790375    1.73000002    2.86999989
   13.47527695   79.04209900    1.73000002    2.86999989
   13.47833252   79.96360016    1.75000000    2.84999990
   13.48166656   82.80740356    1.75000000    2.84999990
   13.48472214   81.38410187    1.75000000    2.84999990
   13.48805618   77.18070221    1.75000000    2.86999989
   13.49111176   83.92500305    1.75000000    2.86999989
   13.49444485   80.33830261    1.75000000    2.86999989
   13.49750042   81.07910156    1.76999998    2.84999990
   13.50083351   80.61150360    1.75000000    2.84999990
   13.50388908   78.27410126    1.75000000    2.84999990
   13.50722218   81.87400055    1.76999998    2.84999990
   13.51027775   77.62729645    1.76999998    2.84999990
   13.51361084   80.35279846    1.73000002    2.84999990
   13.51666641   84.68959808    1.73000002    2.84999990
   13.51833344   80.88870239    1.73000002    2.84999990
   13.52027798   93.71350098    1.71000004    2.84999990
   13.52333355   86.28189850    1.66999996    2.84999990
   13.52666664   83.10669708    1.64999998    2.84999990
   13.52972221   83.47750092    1.63000000    2.86999989
   13.53305531   85.14510345    1.63000000    2.86999989
   13.53638935   83.95639801    1.61000001    2.84999990
   13.53944492   82.29650116    1.60000002    2.86999989
   13.54277802   76.98449707    1.60000002    2.86999989
   13.54583359   81.71649933    1.60000002    2.84999990
   13.54916668   94.01930237    1.55999994    2.86999989
   13.55222225   80.16359711    1.53999996    2.86999989
   13.55555534   85.54869843    1.53999996    2.86999989
   13.55861092   84.61209869    1.53999996    2.86999989
   13.56194496   78.60839844    1.55999994    2.86999989
   13.56500053   81.22840118    1.55999994    2.86999989
   13.56833363   84.51770020    1.55999994    2.86999989
   13.56888866   80.80059814    1.55999994    2.86999989
   13.57194424   80.14299774    1.60000002    2.86999989
   13.57527733   92.96730042    1.60000002    2.86999989
   13.57833290   87.92169952    1.61000001    2.86999989
   13.58166695   88.53510284    1.61000001    2.86999989
   13.58472157   81.65489960    1.64999998    2.86999989
   13.58805561   76.84040070    1.66999996    2.86999989
   13.59111118   77.21700287    1.66999996    2.86999989
   13.59444427   76.53230286    1.71000004    2.84999990
   13.59749985   75.23840332    1.75000000    2.84999990
   13.60083389   82.11499786    1.73000002    2.86999989
   13.60388947   78.34950256    1.71000004    2.89000010
   13.60722256   81.70899963    1.71000004    2.86999989
   13.61027813   85.37870026    1.71000004    2.89000010
   13.61361122   79.64499664    1.73000002    2.86999989
   13.61666679   84.73349762    4.17999983    2.89000010
   13.61888885   76.18479919    4.90999985    2.91000009
   13.62027836   74.48040009    4.90999985    2.91000009
   13.62361145   81.67259979    4.90999985    2.93000007
   13.62666702   80.16529846    4.90999985    2.94000006
   13.63000011   78.31990051    4.90999985    2.93000007
   13.63305569   79.99919891    4.90999985    2.91000009
   13.63638878   81.33670044    4.90999985    2.93000007
   13.63944435   79.64179993    2.93000007    2.91000009
   13.64277744   80.55210114    1.64999998    2.89000010
   13.76805496   -1.00000000   -1.00000000   -1.00000000
   13.86833382   -1.00000000   -1.00000000   -1.00000000
   13.96944427   -1.00000000   -1.00000000   -1.00000000
   14.07499981   64.71060181    1.51999998    2.89000010
   14.07833290   78.06400299    1.50000000    2.89000010
   14.08138847   77.51439667    1.50000000    2.89000010
   14.08472157   78.58779907    1.50000000    2.91000009
   14.08777714   82.63040161    1.50000000    2.91000009
   14.09083271   81.34149933    1.48000002    2.91000009
   14.09416676   80.60060120    1.48000002    2.91000009
   14.09722233   81.91359711    1.46000004    2.91000009
   14.10361195   81.91359711    1.44000006    2.91000009
   14.10777855   79.11170197    1.44000006    2.91000009
   14.11111164   84.83560181    1.44000006    2.91000009
   14.11416721   83.53939819    1.41999996    2.93000007
   14.11750031   86.76760101    1.41999996    2.91000009
   14.12055588   76.46040344    1.41999996    2.91000009
   14.12388897   82.92050171    1.41999996    2.93000007
   14.12500000   78.75659943    1.41999996    2.91000009
   14.12722206   77.56629944    1.41999996    2.93000007
   14.13055611   75.36869812    1.41999996    2.93000007
   14.13361073   79.23390198    1.41999996    2.93000007
   14.13694477   78.19670105    1.39999998    2.91000009
   14.14000034   76.09490204    1.39999998    2.91000009
   14.14333344   81.87680054    1.38000000    2.93000007
   14.14638901   79.58190155    1.36000001    2.93000007
   14.14972210   79.74310303    1.36000001    2.93000007
   14.15472221   79.74310303    1.36000001    2.93000007
   14.15888882   79.48560333    1.34000003    2.93000007
   14.16194439   86.68260193    1.34000003    2.94000006
   14.16527748   81.21790314    1.34000003    2.93000007
   14.16833401   79.17810059    1.34000003    2.93000007
   14.17166710   77.20619965    1.34000003    2.91000009
   14.17472267   77.55149841    1.34000003    2.93000007
   14.17527771   82.51850128    1.34000003    2.93000007
   14.17833328   86.49800110    1.33000004    2.91000009
   14.18166733   84.22360229    1.33000004    2.93000007
   14.18472195   84.03589630    1.30999994    2.93000007
   14.18805599   77.30919647    1.28999996    2.93000007
   14.19138908   77.79470062    1.28999996    2.93000007
   14.19444466   76.42040253    1.28999996    2.93000007
   14.19777775   81.57170105    1.25000000    2.93000007
   14.20083332   81.57969666    1.25000000    2.93000007
   14.20583344   81.57969666    1.25000000    2.93000007
   14.21000004   78.46929932    1.25000000    2.94000006
   14.21333313   82.21929932    1.23000002    2.94000006
   14.21638870   78.62590027    1.21000004    2.93000007
   14.21972179   75.91419983    1.19000006    2.93000007
   14.22277737   78.36889648    1.19000006    2.93000007
   14.22527695   82.75050354    1.16999996    2.93000007
   14.22638798   86.46140289    1.16999996    2.94000006
   14.22972202   84.37770081    1.13000000    2.94000006
   14.23277760   82.55030060    1.13000000    2.94000006
   14.23611164   72.81839752    1.13000000    2.93000007
   14.23916721   79.62500000    1.14999998    2.93000007
   14.24250031   82.28140259    1.16999996    2.93000007
   14.24555588   82.75229645    1.14999998    2.94000006
   14.24888897   89.22619629    1.14999998    2.94000006
   14.25194454   78.85800171    1.16999996    2.94000006
   14.25722218   78.85800171    1.16999996    2.93000007
   14.26138878   82.54309845    1.16999996    2.94000006
   14.26444435   81.32399750    1.16999996    2.94000006
   14.26777744   75.96350098    1.19000006    2.94000006
   14.27083302   81.58319855    1.19000006    2.93000007
   14.27416611   83.95629883    1.21000004    2.93000007
   14.27527714   78.20850372    1.21000004    2.93000007
   14.27777767   86.39309692    1.21000004    2.93000007
   14.28083324   82.16750336    1.23000002    2.93000007
   14.28416729   78.75170135    1.21000004    2.94000006
   14.28722286   82.83239746    1.23000002    2.94000006
   14.29055595   83.73059845    1.23000002    2.93000007
   14.29361153   83.48549652    1.23000002    2.93000007
   14.29694462   78.93319702    1.25000000    2.94000006
   14.30000019   79.95230103    1.23000002    2.93000007
   14.30333328   75.77980042    1.23000002    2.94000006
   14.30833340   75.77980042    1.23000002    2.93000007
   14.31222248   83.86949921    1.23000002    2.94000006
   14.31555557   82.49109650    1.23000002    2.94000006
   14.31861115   85.40460205    1.21000004    2.93000007
   14.32194424   82.77040100    1.21000004    2.93000007
   14.32499981   83.66040039    1.19000006    2.93000007
   14.32555580   82.64620209    1.19000006    2.93000007
   14.32888889   84.70529938    1.19000006    2.93000007
   14.33194447   79.65760040    1.14999998    2.94000006
   14.33527756   81.74710083    1.13000000    2.94000006
   14.33833313   91.27989960    1.13000000    2.94000006
   14.34166622   80.71119690    1.13000000    2.94000006
   14.34472179   83.24210358    1.09000003    2.93000007
   14.34805489   83.03910065    1.09000003    2.94000006
   14.35111141   78.63829803    1.11000001    2.94000006
   14.35444450   78.77349854    1.11000001    2.94000006
   14.35944462   78.77349854    1.11000001    2.94000006
   14.36361122   85.37500000    1.13000000    2.94000006
   14.36666679   76.56060028    1.13000000    2.94000006
   14.36999989   80.61519623    1.13000000    2.94000006
   14.37305546   84.91760254    1.13000000    2.94000006
   14.37555599   78.68199921    1.13000000    2.94000006
   14.37666702   82.27200317    1.13000000    2.93000007
   14.37972260   76.52890015    1.13000000    2.94000006
   14.38277817   75.29039764    1.14999998    2.96000004
   14.38611126   76.17359924    1.14999998    2.94000006
   14.38916683   81.06829834    1.13000000    2.96000004
   14.39249992   79.43669891    1.13000000    2.94000006
   14.39583302   79.86350250    1.13000000    2.94000006
   14.39888859   81.57119751    1.13000000    2.94000006
   14.40194416   82.25499725    1.13000000    2.94000006
   14.40527725   80.28669739    1.13000000    2.94000006
   14.41055489   80.28669739    1.13000000    2.94000006
   14.41472149   76.79949951    1.14999998    2.94000006
   14.41777802   80.92259979    1.14999998    2.94000006
   14.42111111   88.61139679    1.13000000    2.93000007
   14.42416668   85.14759827    1.11000001    2.93000007
   14.42583370   79.78009796    1.11000001    2.94000006
   14.42777824   80.78739929    1.09000003    2.93000007
   14.43083382   83.36090088    1.07000005    2.94000006
   14.43416691   84.33249664    1.07000005    2.94000006
   14.43722248   78.91329956    1.07000005    2.94000006
   14.44055557   80.29959869    1.05999994    2.96000004
   14.44361115   79.59619904    1.03999996    2.93000007
   14.44694424   79.92859650    1.03999996    2.94000006
   14.44999981   81.46499634    1.01999998    2.94000006
   14.45333290   80.13369751    1.00000000    2.94000006
   14.45638847   81.54609680    1.01999998    2.94000006
   14.46194458   81.54609680    1.03999996    2.94000006
   14.46583271   82.44069672    1.03999996    2.96000004
   14.46916580   79.82720184    1.07000005    2.94000006
   14.47222137   80.57849884    1.07000005    2.94000006
   14.47555542   82.30519867    1.07000005    2.94000006
   14.47583294   87.84339905    1.05999994    2.96000004
   14.47888851   77.62719727    1.03999996    2.94000006
   14.48194408   80.73149872    1.03999996    2.96000004
   14.48527813   85.28910065    1.05999994    2.96000004
   14.48833370   87.24690247    1.13000000    2.94000006
   14.49166679   86.51950073    1.11000001    2.94000006
   14.49472237   90.44740295    1.11000001    2.94000006
   14.49805546   82.72399902    1.13000000    2.94000006
   14.50111103   82.86440277    1.21000004    2.94000006
   14.50444412   76.12400055    1.26999998    2.94000006
   14.50749969   84.09850311    1.26999998    2.94000006
   14.51305580   84.09850311    1.38000000    2.93000007
   14.51694393   76.94229889    1.38000000    2.93000007
   14.52027798   79.43399811    1.41999996    2.94000006
   14.52333355   76.69239807    1.44000006    2.93000007
   14.52583313   80.01460266    1.44000006    2.93000007
   14.52694416   80.22299957    1.46000004    2.94000006
   14.52999973   83.98090363    1.60000002    2.93000007
   14.53333378   84.98470306    1.58000004    2.93000007
   14.53638935   78.58100128    1.58000004    2.93000007
   14.53972244   82.65039825    1.60000002    2.94000006
   14.54277802   84.16619873    1.60000002    2.93000007
   14.54611111   88.19699860    1.60000002    2.93000007
   14.54916668   82.50689697    1.60000002    2.93000007
   14.55249977   82.12629700    1.58000004    2.93000007
   14.55555534   86.35279846    1.55999994    2.93000007
   14.55861092   81.59909821    1.51999998    2.93000007
   14.56416702   81.59909821    1.50000000    2.93000007
   14.56833363   80.89340210    1.48000002    2.94000006
   14.57138920   78.98750305    1.48000002    2.94000006
   14.57472229   79.07830048    1.48000002    2.93000007
   14.57611084   84.30039978    1.48000002    2.93000007
   14.57805538   78.28379822    1.48000002    2.93000007
   14.58111095   80.50370026    1.48000002    2.94000006
   14.58444405   82.93730164    1.46000004    2.94000006
   14.58749962   81.81089783    1.44000006    2.94000006
   14.59083271   85.44640350    1.44000006    2.94000006
   14.59388828   78.06130219    1.44000006    2.94000006
   14.59722233   79.65480042    1.44000006    2.93000007
   14.60027790   80.82260132    1.41999996    2.94000006
   14.60361195   81.70069885    1.41999996    2.93000007
   14.60666752   78.64450073    1.44000006    2.94000006
   14.61000061   81.87030029    1.44000006    2.94000006
   14.61527824   81.87030029    1.50000000    2.94000006
   14.61944485   78.13500214    1.50000000    2.93000007
   14.62277794   82.36810303    1.50000000    2.94000006
   14.62583351   82.11519623    1.50000000    2.93000007
   14.62638855   82.01360321    1.50000000    2.93000007
   14.62916660   81.62049866    1.50000000    2.94000006
   14.63249969   77.56780243    1.51999998    2.93000007
   14.63555527   85.28759766    1.53999996    2.94000006
   14.63888836   76.22989655    1.51999998    2.93000007
   14.64194393   79.93479919    1.51999998    2.94000006
   14.64527798   76.35119629    1.51999998    2.93000007
   14.64833355   80.97889709    1.50000000    2.94000006
   14.65138817   77.74990082    1.50000000    2.94000006
   14.65472221   82.61979675    1.44000006    2.94000006
   14.65777779   78.84909821    1.39999998    2.94000006
   14.66111088   83.92970276    1.39999998    2.94000006
   14.66666698   83.92970276    1.36000001    2.94000006
   14.67055607   81.05909729    1.34000003    2.94000006
   14.67388916   84.35320282    1.30999994    2.94000006
   14.67638874   82.74970245    1.28999996    2.93000007
   14.67722225   80.97029877    1.28999996    2.93000007
   14.68055630   82.37539673    1.26999998    2.94000006
   14.68361092   98.10209656    1.26999998    2.96000004
   14.68694496   82.40720367    1.26999998    2.96000004
   14.69000053   82.25800323    1.28999996    2.94000006
   14.69305515   79.06320190    1.28999996    2.96000004
   14.69638920   84.06999969    1.28999996    2.94000006
   14.69972229   80.95899963    1.28999996    2.94000006
   14.70277786   82.75620270    1.26999998    2.94000006
   14.70583344   82.81490326    1.26999998    2.94000006
   14.70916653   82.12979889    1.25000000    2.94000006
   14.71222210   82.41179657    1.25000000    2.94000006
   14.71777725   82.41179657    1.23000002    2.94000006
   14.72194386   81.79679871    1.23000002    2.96000004
   14.72499943   80.63770294    1.23000002    2.96000004
   14.72638798   78.98429871    1.23000002    2.94000006
   14.72888851   85.75129700    1.23000002    2.94000006
   14.73194408   78.25170135    1.21000004    2.96000004
   14.73527813   91.86969757    1.19000006    2.94000006
   14.73833370   82.34149933    1.16999996    2.94000006
   14.74166679   85.02739716    1.19000006    2.94000006
   14.74472237   81.00229645    1.21000004    2.96000004
   14.74805546   88.54350281    1.21000004    2.96000004
   14.75111103   78.92530060    1.21000004    2.96000004
   14.75444412   81.47740173    1.21000004    2.94000006
   14.75749969   78.31109619    1.21000004    2.94000006
   14.76083374   87.73529816    1.21000004    2.94000006
   14.76388931   77.74320221    1.21000004    2.94000006
   14.76888847   77.74320221    1.23000002    2.96000004
   14.77305508   77.44719696    1.25000000    2.94000006
   14.77611065   77.82039642    1.23000002    2.96000004
   14.77666664   80.45110321    1.23000002    2.96000004
   14.77972221   79.37400055    1.23000002    2.94000006
   14.78305531   82.42199707    1.23000002    2.94000006
   14.78611183   86.82209778    1.25000000    2.94000006
   14.78944492   83.01889801    1.26999998    2.94000006
   14.79250050   82.88030243    1.26999998    2.94000006
   14.79583359   81.35469818    1.26999998    2.94000006
   14.79888916   87.14800262    1.25000000    2.94000006
   14.80222225   84.50890350    1.25000000    2.94000006
   14.80527782   81.44539642    1.25000000    2.94000006
   14.80833340   81.02770233    1.23000002    2.94000006
   14.81166649   86.18489838    1.25000000    2.94000006
   14.81472206   95.01509857    1.25000000    2.94000006
   14.81999969   95.01509857    1.25000000    2.94000006
   14.82416630   80.80870056    1.26999998    2.93000007
   14.82666683   78.56390381    1.26999998    2.93000007
   14.82750034   79.41609955    1.26999998    2.93000007
   14.83083344   85.42040253    1.25000000    2.94000006
   14.83388901   78.87059784    1.25000000    2.94000006
   14.83722210   82.69570160    1.25000000    2.94000006
   14.84027767   79.24539948    1.23000002    2.94000006
   14.84361076   78.19940186    1.25000000    2.96000004
   14.84666634   85.32180023    1.25000000    2.96000004
   14.85000038   85.46369934    1.25000000    2.96000004
   14.85305595   84.33190155    1.26999998    2.94000006
   14.85638905   85.08149719    1.28999996    2.94000006
   14.85944462   81.33889771    1.34000003    2.94000006
   14.86277771   82.55609894    1.36000001    2.94000006
   14.86583328   78.57859802    1.38000000    2.94000006
   14.87138939   78.57859802    1.39999998    2.94000006
   14.87527752   78.17389679    1.39999998    2.93000007
   14.87666702   79.99389648    1.38000000    2.94000006
   14.87888908   79.99490356    1.38000000    2.94000006
   14.88222218   80.57460022    1.38000000    2.93000007
   14.88527775   79.19200134    1.38000000    2.94000006
   14.88861084   85.48970032    1.36000001    2.94000006
   14.89166641   86.90550232    1.36000001    2.94000006
   14.89499950   84.49749756    1.36000001    2.94000006
   14.89805508   82.22260284    1.36000001    2.94000006
   14.90138817   86.47630310    1.34000003    2.94000006
   14.90444374   84.32769775    1.33000004    2.94000006
   14.90777779   82.31089783    1.30999994    2.96000004
   14.91083336   87.40000153    1.28999996    2.94000006
   14.91388893   82.86009979    1.28999996    2.94000006
   14.91722298   82.52809906    1.28999996    2.94000006
   14.92250061   82.52809906    1.30999994    2.94000006
   14.92638874   89.45760345    1.28999996    2.94000006
   14.92694473   84.83769989    1.28999996    2.94000006
   14.93027782   75.70439911    1.25000000    2.94000006
   14.93333340   79.75340271    1.23000002    2.94000006
   14.93666649   73.15769958    1.23000002    2.94000006
   14.93972206   82.15910339    1.21000004    2.94000006
   14.94277763   77.07800293    1.21000004    2.96000004
   14.94611073   86.21530151    1.21000004    2.94000006
   14.94916630   77.65180206    1.23000002    2.94000006
   14.95249939   78.91249847    1.21000004    2.94000006
   14.95555496   81.72100067    1.21000004    2.94000006
   14.95888901   90.03459930    1.21000004    2.96000004
   14.96194458   86.76390076    1.19000006    2.94000006
   14.96527767   88.00260162    1.19000006    2.94000006
   14.96833324   87.66639709    1.19000006    2.94000006
   14.97361088   87.66639709    1.19000006    2.96000004
   14.97777748   87.56870270    1.19000006    2.96000004
   14.98083305   79.70839691    1.21000004    2.96000004
   14.98416710   82.83170319    1.25000000    2.96000004
   14.98722267   83.12670135    1.30999994    2.94000006
   14.99055576   79.09829712    1.30999994    2.96000004
   14.99361134   87.84420013    1.33000004    2.94000006
   14.99694443   81.40840149    1.33000004    2.94000006
   15.00000000   80.13559723    1.33000004    2.96000004
   15.00333309   78.94210052    1.33000004    2.94000006
   15.00638866   80.10610199    1.33000004    2.94000006
   15.00944424   86.83070374    1.38000000    2.94000006
   15.01277733   86.29419708    1.36000001    2.94000006
   15.01583290   83.03540039    1.36000001    2.94000006
   15.01916599   82.96029663    1.34000003    2.94000006
   15.02472210   82.96029663    1.34000003    2.94000006
   15.02888870   95.50360107    1.28999996    2.94000006
   15.03194427   87.79840088    1.26999998    2.94000006
   15.03527832   83.78510284    1.26999998    2.94000006
   15.03833389  108.31900024    1.25000000    2.96000004
   15.04166698   92.56819916    1.25000000    2.96000004
   15.04472256  104.09400177    1.25000000    2.96000004
   15.04805565   95.43049622    1.26999998    2.96000004
   15.05111122  107.19200134    1.26999998    2.96000004
   15.05444431   99.07270050    1.23000002    2.96000004
   15.05749989   80.09860229    1.19000006    2.96000004
   15.06083393   84.82499695    1.19000006    2.96000004
   15.06388950   81.04720306    1.23000002    2.94000006
   15.06722260   82.31240082    1.23000002    2.96000004
   15.07027817   90.98719788    1.23000002    2.94000006
   15.09222221  115.08200073    1.28999996    2.96000004
   15.09249973  117.35700226    1.28999996    2.96000004
   15.09555531   90.91580200    1.28999996    2.96000004
   15.09888840   92.82080078    1.28999996    2.96000004
   15.10222244   97.07430267    1.26999998    2.96000004
   15.10527802  106.92099762    1.26999998    2.94000006
   15.10861111   80.20169830    1.26999998    2.94000006
   15.11166668   86.53630066    1.26999998    2.94000006
   15.11500072   98.60839844    1.25000000    2.94000006
   15.11805534   88.14219666    1.25000000    2.94000006
   15.12138939   80.11479950    1.25000000    2.96000004
   15.12722206   80.11479950    1.25000000    2.96000004
   15.13138866   96.56189728    1.25000000    2.96000004
   15.13444424   87.60320282    1.26999998    2.96000004
   15.13777733   77.71549988    1.26999998    2.94000006
   15.14083290   86.81719971    1.28999996    2.96000004
   15.14194393  103.70800018    1.28999996    2.94000006
   15.14444447  111.85600281    1.28999996    2.96000004
   15.14777756   87.07340240    1.33000004    2.94000006
   15.15083313  103.01300049    1.30999994    2.94000006
   15.15416622   99.59439850    1.30999994    2.94000006
   15.15722179  106.42099762    1.28999996    2.96000004
   15.16055489   84.20709991    1.28999996    2.94000006
   15.16361046  115.94699860    1.28999996    2.96000004
   15.16694450  107.94300079    1.26999998    2.94000006
   15.17000008   78.79309845    1.25000000    2.96000004
   15.17333412   99.85009766    1.23000002    2.96000004
   15.17833328   99.85009766    1.23000002    2.94000006
   15.18249989   83.27189636    1.23000002    2.94000006
   15.18583298   83.79570007    1.23000002    2.96000004
   15.18888855   88.10250092    1.26999998    2.94000006
   15.19194412   89.22039795    1.26999998    2.94000006
   15.19277763   94.23709869    1.26999998    2.94000006
   15.19583321   81.88670349    1.26999998    2.94000006
   15.19888878   80.05319977    1.30999994    2.94000006
   15.20222187   76.04479980    1.33000004    2.96000004
   15.20527744   82.38349915    1.30999994    2.94000006
   15.20861053   74.18920135    1.30999994    2.96000004
   15.21166611   78.25219727    1.33000004    2.96000004
   15.21500015   82.33630371    1.33000004    2.96000004
   15.21805477   89.61769867    1.33000004    2.94000006
   15.22138882   80.85939789    1.33000004    2.94000006
   15.22444439  101.06099701    1.33000004    2.94000006
   15.22972202  101.06099701    1.34000003    2.94000006
   15.23361111   91.27600098    1.30999994    2.94000006
   15.23694515   80.56379700    1.30999994    2.94000006
   15.24000072   85.60299683    1.30999994    2.94000006
   15.24194431   83.07779694    1.33000004    2.96000004
   15.24361134   79.24579620    1.33000004    2.96000004
   15.24694443   84.71690369    1.30999994    2.94000006
   15.25000000   95.81610107    1.30999994    2.94000006
   15.25333309   93.96009827    1.30999994    2.96000004
   15.25638866  105.66300201    1.30999994    2.96000004
   15.26000023   82.01799774    1.28999996    2.94000006
   15.26305580   73.16020203    1.25000000    2.96000004
   15.26611137   84.01689911    1.25000000    2.96000004
   15.26944447   81.09420013    1.25000000    2.96000004
   15.27250004   77.42279816    1.25000000    2.96000004
   15.27583313   82.02719879    1.25000000    2.96000004
   15.28083324   82.02719879    1.26999998    2.98000002
   15.28500080   79.64430237    1.30999994    2.94000006
   15.28805637   83.84130096    1.28999996    2.96000004
   15.29138947   99.22619629    1.26999998    2.96000004
   15.29194450   88.79299927    1.26999998    2.96000004
   15.29500008   90.32379913    1.26999998    2.94000006
   15.29805565   77.93569946    1.26999998    2.96000004
   15.30138874   76.61399841    1.26999998    2.98000002
   15.30444431   79.94110107    1.25000000    2.96000004
   15.30777836   77.25710297    1.23000002    2.96000004
   15.31083393   75.14479828    1.25000000    2.96000004
   15.31416702   88.97180176    1.25000000    2.98000002
   15.31722260   77.57550049    1.25000000    2.98000002
   15.32055569   84.55020142    1.25000000    2.96000004
   15.32361126   79.64880371    1.25000000    2.98000002
   15.32694435   84.97910309    1.25000000    2.98000002
   15.33194447   84.97910309    1.28999996    2.96000004
   15.33611107   87.95700073    1.28999996    2.96000004
   15.33916664   79.78910065    1.28999996    2.96000004
   15.34194374   77.40979767    1.28999996    2.96000004
   15.34305477   86.32450104    1.28999996    2.96000004
   15.34611034   84.52120209    1.30999994    2.96000004
   15.34916592   80.89209747    1.26999998    2.96000004
   15.35249996   81.49199677    1.26999998    2.96000004
   15.35555553   80.28710175    1.25000000    2.94000006
   15.35888958   80.01460266    1.23000002    2.96000004
   15.36194515   76.01650238    1.21000004    2.96000004
   15.36527824   80.10829926    1.21000004    2.96000004
   15.36833382   83.23600006    1.21000004    2.96000004
   15.37166691   80.24420166    1.19000006    2.96000004
   15.37472248   87.72239685    1.19000006    2.96000004
   15.37805557   78.61569977    1.19000006    2.96000004
   15.38305569   78.61569977    1.19000006    2.96000004
   15.38722229   75.61350250    1.19000006    2.98000002
   15.39055538   85.76779938    1.19000006    2.98000002
   15.39194393   81.14179993    1.19000006    2.98000002
   15.39416695   80.68319702    1.19000006    2.96000004
   15.39722252   82.02999878    1.19000006    2.98000002
   15.40055561   79.28350067    1.19000006    2.98000002
   15.40361118   83.29730225    1.21000004    2.96000004
   15.40694427   77.81490326    1.21000004    2.96000004
   15.40999985   79.17539978    1.23000002    2.96000004
   15.41333294   82.68540192    1.23000002    2.96000004
   15.41638851   85.36299896    1.23000002    2.96000004
   15.41972256   79.03949738    1.23000002    2.96000004
   15.42277813   80.64209747    1.23000002    2.96000004
   15.42611122   82.55079651    1.25000000    2.98000002
   15.42916679   81.28379822    1.25000000    2.98000002
   15.43444443   81.28379822    1.16999996    2.96000004
   15.43833351   79.02079773    1.16999996    2.96000004
   15.44166660   78.78399658    1.13000000    2.98000002
   15.44222260   75.81289673    1.13000000    2.96000004
   15.44499969   80.68180084    1.09000003    2.96000004
   15.44833374   82.17019653    1.11000001    2.96000004
   15.45138836   79.63369751    1.11000001    2.98000002
   15.45472240   79.57260132    1.11000001    2.96000004
   15.45805550   85.92130280    1.11000001    2.96000004
   15.46111107   78.01020050    1.13000000    2.96000004
   15.46444416   86.10749817    1.11000001    2.96000004
   15.46749973   83.34719849    1.11000001    2.96000004
   15.47083282   79.39929962    1.11000001    2.96000004
   15.47388840   82.11049652    1.11000001    2.98000002
   15.47722149   82.53230286    1.11000001    2.96000004
   15.48027706   85.25730133    1.11000001    2.96000004
   15.48555565   85.25730133    1.11000001    2.98000002
   15.48972225   83.72200012    1.13000000    2.98000002
   15.49222279   84.79409790    1.13000000    2.96000004
   15.49305534   80.50270081    1.13000000    2.96000004
   15.49638939   88.63099670    1.14999998    2.96000004
   15.49944496   83.39129639    1.16999996    2.96000004
   15.50277805   79.47270203    1.16999996    2.96000004
   15.50583363   81.88110352    1.16999996    2.96000004
   15.50916672   86.15390015    1.14999998    2.96000004
   15.51222229   86.51020050    1.14999998    2.96000004
   15.51555538   84.45300293    1.16999996    2.98000002
   15.51861095   80.16069794    1.16999996    2.96000004
   15.52194405   85.72460175    1.16999996    2.96000004
   15.52499962   76.95749664    1.19000006    2.98000002
   15.52805519   83.26930237    1.21000004    2.98000002
   15.53138828   89.37310028    1.19000006    2.96000004
   15.53666687   89.37310028    1.21000004    2.98000002
   15.54083347   81.79689789    1.21000004    2.96000004
   15.54222298   81.93080139    1.21000004    2.96000004
   15.54416752   90.41329956    1.21000004    2.96000004
   15.54750061   80.48149872    1.21000004    2.96000004
   15.55055618   82.91359711    1.19000006    2.96000004
   15.55361176   82.12819672    1.19000006    2.96000004
   15.55694485   85.02970123    1.19000006    2.96000004
   15.56000042   83.81490326    1.14999998    2.96000004
   15.56333351   86.77989960    1.14999998    2.98000002
   15.56638908   86.62909698    1.14999998    2.98000002
   15.56972218   88.35399628    1.14999998    2.98000002
   15.57277775   78.58119965    1.13000000    2.98000002
   15.57611084   81.34069824    1.13000000    2.96000004
   15.57916641   81.65660095    1.13000000    2.96000004
   15.58249950   85.94860077    1.13000000    2.96000004
   15.58777714   85.94860077    1.14999998    2.98000002
   15.59194374   78.91549683    1.13000000    2.98000002
   15.59249973   78.12090302    1.13000000    2.98000002
   15.59555531   78.86380005    1.11000001    2.98000002
   15.59888840   81.49579620    1.11000001    2.98000002
   15.60222244   88.63259888    1.11000001    2.98000002
   15.60527802   93.90609741    1.11000001    2.98000002
   15.60833359   79.29530334    1.11000001    2.98000002
   15.61166668   87.02899933    1.11000001    2.96000004
   15.61472225   82.41159821    1.11000001    2.96000004
   15.61805534   94.14669800    1.11000001    2.96000004
   15.62111092   87.09220123    1.11000001    2.96000004
   15.62444496   91.35099792    1.11000001    2.96000004
   15.62750053   86.80470276    1.09000003    2.96000004
   15.63083363   79.79209900    1.11000001    2.96000004
   15.63388920   85.30030060    1.11000001    2.98000002
   15.63916683   85.30030060    1.11000001    2.98000002
   15.64305496   85.38539886    1.09000003    2.96000004
   15.64638901   90.93460083    1.09000003    2.96000004
   15.64944458   81.96640015    1.09000003    2.98000002
   15.65277767   93.03600311    1.09000003    2.98000002
   15.65583324   83.11329651    1.09000003    2.98000002
   15.65916634   87.75650024    1.09000003    2.96000004
   15.66222191   93.97959900    1.09000003    2.96000004
   15.66527748   87.01450348    1.09000003    2.98000002
   15.66861153   84.58309937    1.09000003    2.98000002
   15.67166710   82.07679749    1.05999994    2.98000002
   15.67500019   85.02880096    1.05999994    2.98000002
   15.67805576  100.49400330    1.03999996    2.98000002
   15.68138885   99.01650238    1.01999998    2.98000002
   15.68444443  121.57800293    1.01999998    2.98000002
   15.69027805  121.57800293    1.01999998    2.96000004
   15.69444466  128.99499512    1.01999998    2.98000002
   15.69750023   92.53610229    1.01999998    2.96000004
   15.70083332  113.42900085    1.00000000    2.98000002
   15.70388889  106.20400238    1.01999998    2.98000002
   15.70722198   91.25409698    1.00000000    2.98000002
   15.71027756  105.86799622    0.98000002    2.98000002
   15.71333313  118.91300201    0.95999998    2.98000002
   15.71666622  100.98799896    0.92000002    2.98000002
   15.71972179   97.20500183    0.92000002    2.98000002
   15.72305489  123.23500061    0.92000002    2.98000002
   15.72611046  114.16300201    0.98000002    2.98000002
   15.72944355  123.79499817    1.01999998    2.98000002
   15.73249912  112.05999756    1.03999996    2.98000002
   15.73583317   84.41819763    1.05999994    2.98000002
   15.74166679   84.41819763    1.07000005    2.98000002
   15.74583340  104.90899658    1.11000001    2.98000002
   15.74888897   85.46630096    1.11000001    2.96000004
   15.75194454  100.48100281    1.13000000    2.98000002
   15.75527763  101.36299896    1.13000000    2.96000004
   15.75833321   99.27660370    1.14999998    2.96000004
   15.76166630   99.63359833    1.14999998    2.98000002
   15.76500034   82.26660156    1.16999996    2.96000004
   15.76805496   80.71640015    1.13000000    2.96000004
   15.77138901  104.62100220    1.13000000    2.96000004
   15.77444458   98.13819885    1.14999998    2.96000004
   15.77777767   92.28299713    1.16999996    2.96000004
   15.78083324   93.48069763    1.19000006    2.96000004
   15.78416729   82.37470245    1.23000002    2.98000002
   15.78722286   76.15329742    1.23000002    2.96000004
   15.79277802   76.15329742    1.25000000    2.98000002
   15.79666710   77.55950165    1.25000000    2.96000004
   15.80000019   80.00949860    1.25000000    2.96000004
   15.80305576   76.28800201    1.23000002    2.96000004
   15.80638885   79.48509979    1.25000000    2.96000004
   15.80944443   89.97760010    1.25000000    2.98000002
   15.81277752  113.36199951    1.23000002    2.96000004
   15.81583309  100.41200256    1.23000002    2.96000004
   15.81888866   86.03749847    1.25000000    2.96000004
   15.82222176   85.78240204    1.23000002    2.98000002
   15.82527733   87.60749817    1.23000002    2.96000004
   15.82861137  106.34999847    1.23000002    2.96000004
   15.83166695  104.15100098    1.23000002    2.96000004
   15.83500004  106.56900024    1.23000002    2.96000004
   15.83805561   95.86869812    1.23000002    2.96000004
   15.84388828   95.86869812    1.19000006    2.96000004
   15.84805489  117.47799683    1.16999996    2.98000002
   15.85111141  122.78600311    1.14999998    2.96000004
   15.85444450  107.66799927    1.14999998    2.98000002
   15.85750008   83.59169769    1.14999998    2.96000004
   15.86083412   91.88999939    1.14999998    2.98000002
   15.86388969   96.21119690    1.14999998    2.96000004
   15.86722279   80.90100098    1.14999998    2.96000004
   15.87027836   94.75910187    1.13000000    2.98000002
   15.87361145  102.80500031    1.13000000    2.98000002
   15.87666702   98.19779968    1.13000000    2.98000002
   15.88000011  103.33300018    1.14999998    2.96000004
   15.88305569  102.55200195    1.13000000    2.96000004
   15.88638878   93.41860199    1.14999998    2.98000002
   15.88944435   88.51779938    1.16999996    2.98000002
   15.89499950   88.51779938    1.16999996    2.96000004
   15.89916611   79.43430328    1.16999996    2.98000002
   15.90222168   98.25279999    1.14999998    2.96000004
   15.90555477   82.34349823    1.14999998    2.96000004
   15.90861034   76.09819794    1.13000000    2.96000004
   15.91166592   98.77519989    1.11000001    2.98000002
   15.91499996   93.82489777    1.11000001    2.98000002
   15.91805553   88.64420319    1.11000001    2.98000002
   15.92138958  100.93000031    1.11000001    2.96000004
   15.92444515   94.99960327    1.11000001    2.98000002
   15.92777824  110.36299896    1.11000001    2.98000002
   15.93083382   97.26689911    1.11000001    2.98000002
   15.93416691   88.33989716    1.09000003    2.98000002
   15.93722248  102.72200012    1.09000003    2.96000004
   15.94027805   86.22550201    1.09000003    2.98000002
   15.94611073   86.22550201    1.07000005    2.96000004
   15.95027733  110.04699707    1.05999994    2.98000002
   15.95333290  117.62300110    1.01999998    2.98000002
   15.95666695  114.94499969    1.01999998    2.98000002
   15.95972157  118.70200348    1.00000000    2.98000002
   15.96305561  108.86900330    1.00000000    2.98000002
   15.96611118   95.94319916    1.00000000    2.98000002
   15.96944427   73.57669830    1.00000000    2.98000002
   15.97249985  107.05400085    1.00000000    2.98000002
   15.97583294   89.58000183    1.00000000    2.98000002
   15.97888851   95.37220001    0.98000002    2.98000002
   15.98222160  120.69599915    1.00000000    2.98000002
   15.98527813   83.70040131    1.00000000    2.98000002
   15.98861122   92.18489838    1.00000000    2.98000002
   15.99166679   97.03730011    1.01999998    2.98000002
   15.99722290   97.03730011    1.01999998    2.98000002
   16.00138855  106.88600159    1.01999998    2.98000002
   16.00472260   98.86869812    1.01999998    2.98000002
   16.00777817   92.20089722    1.01999998    2.98000002
   16.01111031   80.47979736    1.00000000    2.98000002
   16.01416588   91.09950256    1.00000000    2.98000002
   16.01749992  107.17700195    0.95999998    3.00000000
   16.02055550   98.57129669    0.95999998    3.00000000
   16.02388954   84.88909912    0.94000000    2.98000002
   16.02694511  100.26699829    0.95999998    2.98000002
   16.03027725   93.89920044    0.95999998    2.98000002
   16.03333282  112.65499878    0.95999998    2.98000002
   16.03666687  119.63099670    0.95999998    3.00000000
   16.03972244  106.32399750    0.98000002    2.98000002
   16.04305458   77.94480133    1.00000000    2.98000002
   16.04861069   77.94480133    1.03999996    3.00000000
   16.05249977  116.95200348    1.05999994    2.98000002
   16.05583191   84.98149872    1.05999994    2.98000002
   16.05888748   93.82669830    1.05999994    2.96000004
   16.06222153  110.63400269    1.07000005    2.98000002
   16.06527710   97.62729645    1.07000005    2.96000004
   16.06861115  116.35700226    1.05999994    2.98000002
   16.07166672   91.72329712    1.05999994    2.98000002
   16.07500076  101.34300232    1.05999994    2.98000002
   16.07805634  108.78900146    1.09000003    2.98000002
   16.08139038  110.11900330    1.05999994    2.98000002
   16.08444595  102.62000275    1.05999994    2.98000002
   16.08777809  111.96499634    1.05999994    2.96000004
   16.09083366  113.86499786    1.03999996    2.98000002
   16.11250114  113.86499786    1.05999994    2.98000002
   16.11666679   98.96559906    1.05999994    2.98000002
   16.11972237  135.62100220    1.07000005    2.96000004
   16.12305641  143.27499390    1.05999994    2.98000002
   16.12611198  132.13999939    1.07000005    2.98000002
   16.12916756  108.88200378    1.05999994    2.98000002
   16.13249969  129.67199707    1.05999994    2.98000002
   16.13555527  115.85500336    1.03999996    2.98000002
   16.13888931   96.68170166    1.03999996    2.98000002
   16.14194489  122.69799805    1.03999996    2.96000004
   16.14527702  119.27600098    1.03999996    2.98000002
   16.14833260   89.38680267    1.01999998    2.98000002
   16.15166664   98.38600159    1.01999998    2.96000004
   16.15472221  112.31600189    1.01999998    2.98000002
   16.15805435  122.01200104    1.00000000    2.98000002
   16.15999985  116.04199982    1.01999998    2.98000002
   16.16388893  116.04199982    1.01999998    2.98000002
   16.16805458  106.91300201    1.00000000    2.98000002
   16.17138863  128.81799316    1.00000000    2.98000002
   16.17444420  111.85500336    1.00000000    3.00000000
   16.17777634  113.98000336    1.01999998    2.96000004
   16.18083191  134.50999451    1.01999998    2.98000002
   16.18388748  116.60900116    1.05999994    2.98000002
   16.18722153  110.09300232    1.11000001    2.98000002
   16.19027710   89.54419708    1.23000002    2.98000002
   16.19361115  107.68599701    1.36000001    2.98000002
   16.19666672  113.74600220    4.90999985    3.09999990
   16.20000076   96.83619690    0.13000000    0.51999998
   16.20305634   96.21610260    0.07000000    0.30000001
   16.20639038   94.11029816    0.07000000    0.30000001
   16.20944595   93.68219757    0.07000000    0.30000001
   16.21000099   79.30039978    0.07000000    0.30000001
   16.21527863   79.30039978    0.07000000    0.30000001
   16.21916771  108.01999664    0.07000000    0.30000001
   16.22249985  101.27700043    0.07000000    0.30000001
   16.22555542  104.67099762    0.07000000    0.30000001
   16.22888947   93.26110077    0.07000000    0.30000001
   16.23194504   88.82440186    0.07000000    0.30000001
   16.23527718   78.49140167    0.07000000    0.30000001
   16.23833275   90.53410339    0.07000000    0.30000001
   16.24166679   85.08689880    0.07000000    0.30000001
   16.24472237   82.87590027    0.07000000    0.30000001
   16.24805641   79.58110046    0.07000000    0.30000001
   16.25111198   96.90200043    0.07000000    0.30000001
   16.25444412   99.00299835    0.07000000    0.30000001
   16.25749969   93.57659912    0.07000000    0.30000001
   16.26000023   76.08209991    0.07000000    0.30000001
   16.26083374  110.06700134    0.07000000    0.30000001
   16.26638794  110.06700134    0.07000000    0.30000001
   16.27055550   97.52809906    0.07000000    0.30000001
   16.27361107  102.41600037    0.07000000    0.30000001
   16.27694511  113.05799866    0.07000000    0.30000001
   16.28000069   89.19300079    0.07000000    0.30000001
   16.28333282  100.97200012    0.07000000    0.30000001
   16.28638840   85.87180328    0.07000000    0.30000001
   16.28944397  105.87999725    0.07000000    0.30000001
   16.29277802  102.86100006    0.07000000    0.30000001
   16.29583359   88.16670227    0.07000000    0.30000001
   16.29916573  108.10399628    0.07000000    0.30000001
   16.30222130  106.59200287    0.07000000    0.30000001
   16.30555534   96.27970123    0.07000000    0.30000001
   16.30861092   98.90070343    0.07000000    0.30000001
   16.30999947   97.18139648    0.07000000    0.30000001
   16.31222153  104.45400238    0.07000000    0.30000001
   16.31750107  104.45400238    0.07000000    0.30000001
   16.32166672  102.67099762    0.07000000    0.30000001
   16.32472229   93.68879700    0.07000000    0.30000001
   16.32805634   84.76920319    0.07000000    0.30000001
   16.33111191  103.09500122    0.07000000    0.30000001
   16.33444595  102.14299774    0.07000000    0.30000001
   16.33750153   88.92620087    0.07000000    0.30000001
   16.34083366   99.41020203    0.07000000    0.30000001
   16.34388924   84.36190033    0.07000000    0.30000001
   16.34722328   84.95580292    0.07000000    0.30000001
   16.35027885  105.64700317    0.07000000    0.30000001
   16.35333443   85.40409851    0.07000000    0.30000001
   16.35666656   85.48370361    0.07000000    0.30000001
   16.35972214  113.92600250    0.07000000    0.30000001
   16.36027908   89.92929840    0.07000000    0.30000001
   16.36361122   83.10389709    0.07000000    0.30000001
   16.36861038   83.10389709    0.07000000    0.30000001
   16.37277794  100.57599640    0.07000000    0.30000001
   16.37611198   91.58989716    0.07000000    0.30000001
   16.37916756   83.30190277    0.07000000    0.30000001
   16.38222313   83.80159760    0.07000000    0.30000001
   16.38555527   92.36750031    0.07000000    0.30000001
   16.38861084  115.24099731    0.07000000    0.30000001
   16.39194489   88.13749695    0.07000000    0.30000001
   16.39500046   82.25409698    0.07000000    0.30000001
   16.39833260   96.49980164    0.07000000    0.30000001
   16.40138817   84.43229675    0.07000000    0.30000001
   16.40472221   89.25479889    0.07000000    0.30000001
   16.40777779   83.71730042    0.07000000    0.30000001
   16.41027832   95.66459656    0.07000000    0.30000001
   16.41110992   97.22070313    0.07000000    0.30000001
   16.41444397   87.33499908    0.07000000    0.30000001
   16.42000008   87.33499908    0.07000000    0.30000001
   16.42388916   92.22959900    0.07000000    0.30000001
   16.42722130   93.43139648    0.07000000    0.30000001
   16.43027687   80.51940155    0.07000000    0.30000001
   16.43361092   85.93520355    0.07000000    0.30000001
   16.43666649   81.25160217    0.07000000    0.30000001
   16.43999863  106.29199982    0.07000000    0.30000001
   16.44305420   84.34700012    0.07000000    0.30000001
   16.44638824   87.59179688    0.07000000    0.30000001
   16.44944382   79.15229797    0.07000000    0.30000001
   16.45277786   83.58779907    0.07000000    0.30000001
   16.45583344   97.35780334    0.07000000    0.30000001
   16.45916748   89.13590240    0.07000000    0.30000001
   16.46027946   94.57569885    0.07000000    0.30000001
   16.46277809   86.66320038    0.07000000    0.30000001
   16.46583366   89.41059875    0.07000000    0.30000001
   16.47111130   89.41059875    0.07000000    0.30000001
   16.47527885   91.54840088    0.07000000    0.30000001
   16.47833443   75.69819641    0.07000000    0.30000001
   16.48139000   76.29039764    0.07000000    0.30000001
   16.48472214   80.00530243    0.07000000    0.30000001
   16.48777771   92.34020233    0.07000000    0.30000001
   16.49111176   90.22070313    0.07000000    0.30000001
   16.49416733   82.30780029    0.07000000    0.30000001
   16.49749947   95.03240204    0.07000000    0.30000001
   16.50055504   86.13710022    0.07000000    0.30000001
   16.50388908   95.77760315    0.07000000    0.30000001
   16.50694466   80.37729645    0.07000000    0.30000001
   16.51027870   72.17150116    0.07000000    0.30000001
   16.51083374   76.47740173    0.07000000    0.30000001
   16.51388931   71.81410217    0.07000000    0.30000001
   16.51694489   77.73619843    0.07000000    0.30000001
   16.52222252   77.73619843    0.07000000    0.30000001
   16.52638817   79.90989685    0.07000000    0.30000001
   16.52944374   82.12239838    0.07000000    0.30000001
   16.53277779   72.12529755    0.07000000    0.30000001
   16.53583336   85.95330048    0.07000000    0.30000001
   16.53916550   78.36479950    0.07000000    0.30000001
   16.54222107   76.15570068    0.07000000    0.30000001
   16.54555511   78.83580017    0.07000000    0.30000001
   16.54861069   76.18399811    0.07000000    0.30000001
   16.55166626   85.88909912    0.07000000    0.30000001
   16.55499840   79.70240021    0.07000000    0.30000001
   16.55805397   79.15809631    0.07000000    0.30000001
   16.56027794   75.20240021    0.07000000    0.30000001
   16.56166649   87.22699738    0.07000000    0.30000001
   16.56472206   86.33020020    0.07000000    0.30000001
   16.56805611   85.49389648    0.07000000    0.30000001
   16.57333374   85.49389648    0.07000000    0.30000001
   16.57750130   94.01909637    0.07000000    0.30000001
   16.58083344   82.16419983    0.07000000    0.30000001
   16.58388901  102.74700165    0.07000000    0.30000001
   16.58694458   96.50839996    0.07000000    0.30000001
   16.59027863   86.57859802    0.07000000    0.30000001
   16.59333420  100.41100311    0.07000000    0.30000001
   16.59666824   84.30619812    0.07000000    0.30000001
   16.59972191   75.47339630    0.07000000    0.30000001
   16.60305595  113.31400299    0.07000000    0.30000001
   16.60611153   86.86920166    0.07000000    0.30000001
   16.60944557  107.62400055    0.07000000    0.30000001
   16.61027908   94.85310364    0.07000000    0.30000001
   16.61305618   83.25129700    0.07000000    0.30000001
   16.61611176  100.52600098    0.07000000    0.30000001
   16.61944389   90.11209869    0.07000000    0.30000001
   16.62472153   90.11209869    0.07000000    0.30000001
   16.62861061   96.56739807    0.07000000    0.30000001
   16.63194466   93.69619751    0.07000000    0.30000001
   16.63500023   99.64890289    0.07000000    0.30000001
   16.63833237   84.51260376    0.07000000    0.30000001
   16.64138794   97.00109863    0.07000000    0.30000001
   16.64472198   99.30909729    0.07000000    0.30000001
   16.64777756  104.69699860    0.07000000    0.30000001
   16.65083313   94.56670380    0.07000000    0.30000001
   16.65416718   82.01129913    0.07000000    0.30000001
   16.65722275   85.10310364    0.07000000    0.30000001
   16.66027832   86.47550201    0.07000000    0.30000001
   16.66083336  105.31500244    0.07000000    0.30000001
   16.66388893  112.90399933    0.07000000    0.30000001
   16.66722107  100.69200134    0.07000000    0.30000001
   16.67027664   92.42639923    0.07000000    0.30000001
   16.67583275   92.42639923    0.07000000    0.30000001
   16.68000031   94.87650299    0.07000000    0.30000001
   16.68305397   83.42910004    0.07000000    0.30000001
   16.68610954   91.41539764    0.07000000    0.30000001
   16.68944359   83.94180298    0.07000000    0.30000001
   16.69249916   88.88770294    0.07000000    0.30000001
   16.69583321   84.14669800    0.07000000    0.30000001
   16.69888878   79.37000275    0.07000000    0.30000001
   16.70222282   85.91899872    0.07000000    0.30000001
   16.70527840   86.61280060    0.07000000    0.30000001
   16.70861244   87.54830170    0.07000000    0.30000001
   16.71027946  102.83200073    0.07000000    0.30000001
   16.71222305  101.03199768    0.07000000    0.30000001
   16.71527863   97.97930145    0.07000000    0.30000001
   16.71861076   98.73010254    0.07000000    0.30000001
   16.72166634  105.28900146    0.07000000    0.30000001
   16.72694588  105.28900146    0.07000000    0.30000001
   16.73111153  101.27999878    0.07000000    0.30000001
   16.73416710   96.34829712    0.07000000    0.30000001
   16.73750114   93.92790222    0.07000000    0.30000001
   16.74055672  100.50099945    0.07000000    0.30000001
   16.74388885  105.21399689    0.07000000    0.30000001
   16.74694443   89.40640259    0.07000000    0.30000001
   16.75000000   93.55000305    0.07000000    0.30000001
   16.75333405   95.51100159    0.07000000    0.30000001
   16.75638962   98.32029724    0.07000000    0.30000001
   16.75972176   89.29850006    0.07000000    0.30000001
   16.76055527   86.40830231    0.07000000    0.30000001
   16.76333427   89.03289795    0.07000000    0.30000001
   16.76666641   96.01650238    0.07000000    0.30000001
   16.76972198   96.75309753    0.07000000    0.30000001
   16.77277756   88.92569733    0.07000000    0.30000001
   16.77805519   88.92569733    0.07000000    0.30000001
   16.78222275   93.95929718    0.07000000    0.30000001
   16.78555489   95.93830109    0.07000000    0.30000001
   16.78861046   95.58879852    0.07000000    0.30000001
   16.79194450   78.31549835    0.07000000    0.30000001
   16.79500008   92.28260040    0.07000000    0.30000001
   16.79805565   88.14260101    0.07000000    0.30000001
   16.80138779   92.20909882    0.07000000    0.30000001
   16.80444336   82.29039764    0.07000000    0.30000001
   16.80777740   90.87310028    0.07000000    0.30000001
   16.81055450   91.97570038    0.07000000    0.30000001
   16.81110954   81.22949982    0.07000000    0.30000001
   16.81416512   78.13659668    0.07000000    0.30000001
   16.81750107   80.05780029    0.07000000    0.30000001
   16.82055664   89.07659912    0.07000000    0.30000001
   16.82389069   95.95449829    0.07000000    0.30000001
   16.82944489   95.95449829    0.07000000    0.30000001
   16.83333397   85.10569763    0.07000000    0.30000001
   16.83666801   80.70549774    0.07000000    0.30000001
   16.83972359   88.21649933    0.07000000    0.30000001
   16.84305573   98.77590179    0.07000000    0.30000001
   16.84611130   88.35220337    0.07000000    0.30000001
   16.84944534   86.08979797    0.07000000    0.30000001
   16.85250092   98.60299683    0.07000000    0.30000001
   16.85583305  106.31700134    0.07000000    0.30000001
   16.85888863  107.85900116    0.07000000    0.30000001
   16.86055565  106.01200104    0.07000000    0.30000001
   16.86250114  107.82099915    0.07000000    0.30000001
   16.86583328   98.01719666    0.07000000    0.30000001
   16.86888885   96.93740082    0.07000000    0.30000001
   16.87222290   85.29509735    0.07000000    0.30000001
   16.87527847   98.08809662    0.07000000    0.30000001
   16.88055611   98.08809662    0.07000000    0.30000001
   16.88472176   88.10250092    0.07000000    0.30000001
   16.88777733   86.92089844    0.07000000    0.30000001
   16.89111137   92.15139771    0.07000000    0.30000001
   16.89416695   92.43000031    0.07000000    0.30000001
   16.89722252   79.14910126    0.07000000    0.30000001
   16.90055466   84.15570068    0.07000000    0.30000001
   16.90361023   92.16259766    0.07000000    0.30000001
   16.90694427   81.25769806    0.07000000    0.30000001
   16.90999985   79.10579681    0.07000000    0.30000001
   16.91055489   80.49749756    0.07000000    0.30000001
   16.91333389   74.96810150    0.07000000    0.30000001
   16.91666603   76.98410034    0.07000000    0.30000001
   16.91972160   95.83830261    0.07000000    0.30000001
   16.92305565   96.22579956    0.07000000    0.30000001
   16.92611122   93.71160126    0.07000000    0.30000001
   16.93166542   93.71160126    0.07000000    0.30000001
   16.93583298   86.60829926    0.07000000    0.30000001
   16.93888855   96.64369965    0.07000000    0.30000001
   16.94222069   80.77089691    0.07000000    0.30000001
   16.94527626   97.56610107    0.07000000    0.30000001
   16.94833183   85.87930298    0.07000000    0.30000001
   16.95166779   75.08029938    0.07000000    0.30000001
   16.95472336   80.25299835    0.07000000    0.30000001
   16.95805550   78.17790222    0.07000000    0.30000001
   16.96083450   88.59940338    0.07000000    0.30000001
   16.96138954   93.02300262    0.07000000    0.30000001
   16.96472359   95.86419678    0.07000000    0.30000001
   16.96777916   80.48860168    0.07000000    0.30000001
   16.97111130   74.20719910    0.07000000    0.30000001
   16.97416687   78.10939789    0.07000000    0.30000001
   16.97722244   79.21549988    0.07000000    0.30000001
   16.98277855   79.21549988    0.07000000    0.30000001
   16.98694420   79.01399994    0.07000000    0.30000001
   16.99027824   94.51429749    0.07000000    0.30000001
   16.99333382   79.75319672    0.07000000    0.30000001
   16.99638939   92.30500031    0.07000000    0.30000001
   16.99972153   92.90409851    0.07000000    0.30000001
   17.00277710   80.13099670    0.07000000    0.30000001
   17.00611115   85.43669891    0.07000000    0.30000001
   17.00916672   78.85759735    0.07000000    0.30000001
   17.01083374   85.46520233    0.07000000    0.30000001
   17.01277733   84.93560028    0.07000000    0.30000001
   17.01611137   84.83550262    0.07000000    0.30000001
   17.01916695   95.56880188    0.07000000    0.30000001
   17.02249908   98.40859985    0.07000000    0.30000001
   17.02555466   95.86550140    0.07000000    0.30000001
   17.02888870   93.77610016    0.07000000    0.30000001
   17.03416634   93.77610016    0.07000000    0.30000001
   17.03805542  108.41300201    0.07000000    0.30000001
   17.04138756   82.15390015    0.07000000    0.30000001
   17.04444313   97.22769928    0.07000000    0.30000001
   17.04777718  100.90100098    0.07000000    0.30000001
   17.05083275  104.12599945    0.07000000    0.30000001
   17.05416679  124.78399658    0.07000000    0.30000001
   17.05722237  106.66000366    0.07000000    0.30000001
   17.06027794  112.99199677    0.07000000    0.30000001
   17.06083298   85.51319885    0.07000000    0.30000001
   17.06388855   91.35630035    0.07000000    0.30000001
   17.06694603  137.66299438    0.07000000    0.30000001
   17.07027817  100.51899719    0.07000000    0.30000001
   17.07333374  125.92500305    0.07000000    0.30000001
   17.07638931   99.32759857    0.07000000    0.30000001
   17.07972336  101.95899963    0.07000000    0.30000001
   17.08527756  101.95899963    0.07000000    0.30000001
   17.08944511  107.63400269    0.07000000    0.30000001
   17.09250069   93.19589996    0.07000000    0.30000001
   17.09555626   86.86160278    0.07000000    0.30000001
   17.09889030   87.62899780    0.07000000    0.30000001
   17.10194397   83.22589874    0.07000000    0.30000001
   17.10527802   86.01660156    0.07000000    0.30000001
   17.10833359   82.76609802    0.07000000    0.30000001
   17.12583351   81.79090118    0.07000000    0.30000001
   17.12805557   84.14459991    0.07000000    0.30000001
   17.13138962   79.31430054    0.07000000    0.30000001
   17.13666725   79.31430054    0.07000000    0.30000001
   17.14055634  106.25099945    0.07000000    0.30000001
   17.14388847   99.15550232    0.07000000    0.30000001
   17.14694405  103.04599762    0.07000000    0.30000001
   17.15027809  100.62899780    0.07000000    0.30000001
   17.15333366   96.83319855    0.07000000    0.30000001
   17.15666580   79.40840149    0.07000000    0.30000001
   17.15972137   88.81240082    0.07000000    0.30000001
   17.16305542   91.79409790    0.07000000    0.30000001
   17.16611099   89.40670013    0.07000000    0.30000001
   17.16944313   94.17720032    0.07000000    0.30000001
   17.17249870   93.57260132    0.07000000    0.30000001
   17.17555428   93.62339783    0.07000000    0.30000001
   17.17611122  102.70899963    0.07000000    0.30000001
   17.17916679  102.50700378    0.07000000    0.30000001
   17.18249893   96.27989960    0.07000000    0.30000001
   17.18777657   96.27989960    0.07000000    0.30000001
   17.19166565   94.57820129    0.07000000    0.30000001
   17.19499969   90.18720245    0.07000000    0.30000001
   17.19805527   82.10549927    0.07000000    0.30000001
   17.20138931   86.12349701    0.07000000    0.30000001
   17.20444489   94.64610291    0.07000000    0.30000001
   17.20777893   79.52719879    0.07000000    0.30000001
   17.21083450  105.56300354    0.07000000    0.30000001
   17.21416664   90.22010040    0.07000000    0.30000001
   17.21722221   91.06780243    0.07000000    0.30000001
   17.22055626   94.22319794    0.07000000    0.30000001
   17.22361183   94.23719788    0.07000000    0.30000001
   17.22555542   98.87190247    0.07000000    0.30000001
   17.22722244  103.24600220    0.07000000    0.30000001
   17.23027802  106.72599792    0.07000000    0.30000001
   17.23361206   91.82920074    0.07000000    0.30000001
   17.23888969   91.82920074    0.07000000    0.30000001
   17.24305534   91.49620056    0.07000000    0.30000001
   17.24611092   82.67649841    0.07000000    0.30000001
   17.24944496   78.00440216    0.07000000    0.30000001
   17.25250053   92.62509918    0.07000000    0.30000001
   17.25583267   87.04309845    0.07000000    0.30000001
   17.25888824  103.00499725    0.07000000    0.30000001
   17.26222229  102.42299652    0.07000000    0.30000001
   17.26527786  106.68499756    0.07000000    0.30000001
   17.26861000   81.84210205    0.07000000    0.30000001
   17.27166557   91.16079712    0.07000000    0.30000001
   17.27499962   74.13449860    0.07000000    0.30000001
   17.27555466   80.53240204    0.07000000    0.30000001
   17.27861023   83.26360321    0.07000000    0.30000001
   17.28166580   97.36440277    0.07000000    0.30000001
   17.28499985   77.75340271    0.07000000    0.30000001
   17.28999901   77.75340271    0.07000000    0.30000001
   17.29416656   91.22509766    0.07000000    0.30000001
   17.29722214   87.77570343    0.07000000    0.30000001
   17.30055428   78.48979950    0.07000000    0.30000001
   17.30360985   93.30059814    0.07000000    0.30000001
   17.30694389   84.56490326    0.07000000    0.30000001
   17.30999947   91.90589905    0.07000000    0.30000001
   17.31333351   87.05310059    0.07000000    0.30000001
   17.31666756   82.07250214    0.07000000    0.30000001
   17.31972313   87.37349701    0.07000000    0.30000001
   17.32277870   80.62860107    0.07000000    0.30000001
   17.32555580   83.84040070    0.07000000    0.30000001
   17.32638931   77.89980316    0.07000000    0.30000001
   17.32944489   75.66470337    0.07000000    0.30000001
   17.33277893   88.55699921    0.07000000    0.30000001
   17.33583450   78.18640137    0.07000000    0.30000001
   17.34138870   78.18640137    0.07000000    0.30000001
   17.34527779   80.70790100    0.07000000    0.30000001
   17.34861183   84.66919708    0.07000000    0.30000001
   17.35166740   90.44599915    0.07000000    0.30000001
   17.35499954   86.94029999    0.07000000    0.30000001
   17.35805511   86.11849976    0.07000000    0.30000001
   17.36138916   83.23120117    0.07000000    0.30000001
   17.36444473   82.75319672    0.07000000    0.30000001
   17.36777878   90.08879852    0.07000000    0.30000001
   17.37083435   85.03029633    0.07000000    0.30000001
   17.37388992   84.34870148    0.07000000    0.30000001
   17.37555504   81.29799652    0.07000000    0.30000001
   17.37750053   86.17870331    0.07000000    0.30000001
   17.38055611   87.95279694    0.07000000    0.30000001
   17.38388824   81.06739807    0.07000000    0.30000001
   17.38694382   81.82319641    0.07000000    0.30000001
   17.39249992   81.82319641    0.07000000    0.30000001
   17.39638901   85.47209930    0.07000000    0.30000001
   17.39972115   81.38390350    0.07000000    0.30000001
   17.40277672   86.46040344    0.07000000    0.30000001
   17.40611076   87.25579834    0.07000000    0.30000001
   17.40916634   95.90170288    0.07000000    0.30000001
   17.41222191   76.11730194    0.07000000    0.30000001
   17.41555595   90.56629944    0.07000000    0.30000001
   17.41860962   85.57510376    0.07000000    0.30000001
   17.42194366   84.48909760    0.07000000    0.30000001
   17.42499924   88.61190033    0.07000000    0.30000001
   17.42583275   82.11599731    0.07000000    0.30000001
   17.42860985   85.64579773    0.07000000    0.30000001
   17.43166542   85.42610168    0.07000000    0.30000001
   17.43472099   86.92549896    0.07000000    0.30000001
   17.43805504   94.99909973    0.07000000    0.30000001
   17.44361115   94.99909973    0.07000000    0.30000001
   17.44777679   87.23130035    0.07000000    0.30000001
   17.45083427   90.27259827    0.07000000    0.30000001
   17.45388985   79.67720032    0.07000000    0.30000001
   17.45722389   78.93520355    0.07000000    0.30000001
   17.46027946   89.29350281    0.07000000    0.30000001
   17.46361160   85.24569702    0.07000000    0.30000001
   17.46666718   93.69879913    0.07000000    0.30000001
   17.47000122   80.89499664    0.07000000    0.30000001
   17.47305679   88.85089874    0.07000000    0.30000001
   17.47611237   82.69650269    0.07000000    0.30000001
   17.47666740   85.70490265    0.07000000    0.30000001
   17.47972298   80.12519836    0.07000000    0.30000001
   17.48277855   83.52390289    0.07000000    0.30000001
   17.48611069   91.58470154    0.07000000    0.30000001
   17.48916626   82.94409943    0.07000000    0.30000001
   17.49472237   82.94409943    0.07000000    0.30000001
   17.49888992   87.68440247    0.07000000    0.30000001
   17.50194359   80.96600342    0.07000000    0.30000001
   17.50527763   86.08950043    0.07000000    0.30000001
   17.50833321   77.70950317    0.07000000    0.30000001
   17.51166725   85.86450195    0.07000000    0.30000001
   17.51472282   88.43779755    0.07000000    0.30000001
   17.51805496   79.78250122    0.07000000    0.30000001
   17.52111053   77.58260345    0.07000000    0.30000001
   17.52416611   83.92960358    0.07000000    0.30000001
   17.52611160   83.56950378    0.07000000    0.30000001
   17.52777672   87.46389771    0.07000000    0.30000001
   17.53083229   83.43740082    0.07000000    0.30000001
   17.53388786   84.05000305    0.07000000    0.30000001
   17.53722191   77.12870026    0.07000000    0.30000001
   17.54027748   95.38510132    0.07000000    0.30000001
   17.54583359   95.38510132    0.07000000    0.30000001
   17.54999924   88.43029785    0.07000000    0.30000001
   17.55333328   97.15969849    0.07000000    0.30000001
   17.55638885   91.31819916    0.07000000    0.30000001
   17.55944443   97.46980286    0.07000000    0.30000001
   17.56277657  105.52300262    0.07000000    0.30000001
   17.56583214   97.63289642    0.07000000    0.30000001
   17.56916809   73.84380341    0.07000000    0.30000001
   17.57222366   88.62719727    0.07000000    0.30000001
   17.57527924   82.09600067    0.07000000    0.30000001
   17.57611275   79.59790039    0.07000000    0.30000001
   17.57888985   89.07060242    0.07000000    0.30000001
   17.58194542   93.57640076    0.07000000    0.30000001
   17.58527756   92.82089996    0.07000000    0.30000001
   17.58833313   89.72509766    0.07000000    0.30000001
   17.59138870   91.54900360    0.07000000    0.30000001
   17.59722328   91.54900360    0.07000000    0.30000001
   17.60111237   90.92109680    0.07000000    0.30000001
   17.60444450   94.67250061    0.07000000    0.30000001
   17.60750008   95.01339722    0.07000000    0.30000001
   17.61083412   88.74150085    0.07000000    0.30000001
   17.61388969   94.19429779    0.07000000    0.30000001
   17.61694527   92.51930237    0.07000000    0.30000001
   17.62027740   88.70030212    0.07000000    0.30000001
   17.62333298   87.82119751    0.07000000    0.30000001
   17.62611198   86.26470184    0.07000000    0.30000001
   17.62694550   84.74949646    0.07000000    0.30000001
   17.63000107   88.16709900    0.07000000    0.30000001
   17.63333321   92.97209930    0.07000000    0.30000001
   17.63638878   93.74079895    0.07000000    0.30000001
   17.63944435   83.92410278    0.07000000    0.30000001
   17.64277840   89.71150208    0.07000000    0.30000001
   17.64833260   89.71150208    0.07000000    0.30000001
   17.65250015   86.69470215    0.07000000    0.30000001
   17.65555573   80.31449890    0.07000000    0.30000001
   17.65861130   78.27410126    0.07000000    0.30000001
   17.66194344   78.15070343    0.07000000    0.30000001
   17.66499901   81.29260254    0.07000000    0.30000001
   17.66833305   82.92980194    0.07000000    0.30000001
   17.67138863   77.78289795    0.07000000    0.30000001
   17.67444420   79.90840149    0.07000000    0.30000001
   17.67611122   81.60510254    0.07000000    0.30000001
   17.67805481   88.64360046    0.07000000    0.30000001
   17.68111038   80.46109772    0.07000000    0.30000001
   17.68444443   86.55930328    0.07000000    0.30000001
   17.68750000   83.68640137    0.07000000    0.30000001
   17.69083214   83.89530182    0.07000000    0.30000001
   17.69388771   91.30470276    0.07000000    0.30000001
   17.69944382   91.30470276    0.07000000    0.30000001
   17.70361137   88.23829651    0.07000000    0.30000001
   17.70666695   82.38760376    0.07000000    0.30000001
   17.71000099   86.05220032    0.07000000    0.30000001
   17.71305656   86.92710114    0.07000000    0.30000001
   17.71611214   87.25160217    0.07000000    0.30000001
   17.71944427   85.80860138    0.07000000    0.30000001
   17.72277832   80.30470276    0.07000000    0.30000001
   17.72583389   96.36319733    0.07000000    0.30000001
   17.72638893   95.12200165    0.07000000    0.30000001
   17.72916794   91.57119751    0.07000000    0.30000001
   17.73250008   90.69380188    0.07000000    0.30000001
   17.73555565   89.30799866    0.07000000    0.30000001
   17.73861122   92.66089630    0.07000000    0.30000001
   17.74194527   84.50409698    0.07000000    0.30000001
   17.74500084   91.12000275    0.07000000    0.30000001
   17.75055504   91.12000275    0.07000000    0.30000001
   17.75472260   92.13430023    0.07000000    0.30000001
   17.75777817   86.94770050    0.07000000    0.30000001
   17.76111031   87.52790070    0.07000000    0.30000001
   17.76416588   81.41169739    0.07000000    0.30000001
   17.76749992   83.80760193    0.07000000    0.30000001
   17.77055550   88.95459747    0.07000000    0.30000001
   17.77388954   83.87069702    0.07000000    0.30000001
   17.77638817   85.40619659    0.07000000    0.30000001
   17.77722168   81.29940033    0.07000000    0.30000001
   17.78055573   80.92099762    0.07000000    0.30000001
   17.78361130   94.29380035    0.07000000    0.30000001
   17.78666687   86.03649902    0.07000000    0.30000001
   17.78999901   86.74479675    0.07000000    0.30000001
   17.79305458   78.64610291    0.07000000    0.30000001
   17.79638863   86.21219635    0.07000000    0.30000001
   17.80194283   86.21219635    0.07000000    0.30000001
   17.80583191   91.76460266    0.07000000    0.30000001
   17.80916595   86.89289856    0.07000000    0.30000001
   17.81222153   92.04270172    0.07000000    0.30000001
   17.81555557   89.89080048    0.07000000    0.30000001
   17.81861115   92.94309998    0.07000000    0.30000001
   17.82166672   88.51319885    0.07000000    0.30000001
   17.82500076   79.45719910    0.07000000    0.30000001
   17.82638931   88.36470032    0.07000000    0.30000001
   17.82833481   83.58750153    0.07000000    0.30000001
   17.83166695   83.98699951    0.07000000    0.30000001
   17.83472252   89.13169861    0.07000000    0.30000001
   17.83777809   83.17330170    0.07000000    0.30000001
   17.84111214   92.47619629    0.07000000    0.30000001
   17.84416771   93.19339752    0.07000000    0.30000001
   17.84749985   84.17489624    0.07000000    0.30000001
   17.85305595   84.17489624    0.07000000    0.30000001
   17.85722351   81.04689789    0.07000000    0.30000001
   17.86027908   90.79380035    0.07000000    0.30000001
   17.86333466   84.47010040    0.07000000    0.30000001
   17.86666679   91.22589874    0.07000000    0.30000001
   17.86972237   77.00299835    0.07000000    0.30000001
   17.87305641   80.93720245    0.07000000    0.30000001
   17.87638855   96.91419983    0.07000000    0.30000001
   17.87666702   85.48629761    0.07000000    0.30000001
   17.88000107   93.66220093    0.07000000    0.30000001
   17.88305473   85.38760376    0.07000000    0.30000001
   17.88638878   95.97689819    0.07000000    0.30000001
   17.88944435   84.77570343    0.07000000    0.30000001
   17.89277840   88.76940155    0.07000000    0.30000001
   17.89583397   88.50669861    0.07000000    0.30000001
   17.89916611   82.44609833    0.07000000    0.30000001
   17.90416718   82.44609833    0.07000000    0.30000001
   17.90833282   82.27559662    0.07000000    0.30000001
   17.91138840   82.14620209    0.07000000    0.30000001
   17.91472244   89.98670197    0.07000000    0.30000001
   17.91777802   90.63059998    0.07000000    0.30000001
   17.92111015   86.39920044    0.07000000    0.30000001
   17.92416573   98.40319824    0.07000000    0.30000001
   17.92638779   88.62349701    0.07000000    0.30000001
   17.92777634   88.28130341    0.07000000    0.30000001
   17.93111038   85.99849701    0.07000000    0.30000001
   17.93416595   95.80770111    0.07000000    0.30000001
   17.93750000   84.05539703    0.07000000    0.30000001
   17.94055557   96.20010376    0.07000000    0.30000001
   17.94388771   94.17230225    0.07000000    0.30000001
   17.94694328   82.34600067    0.07000000    0.30000001
   17.95027924   91.66100311    0.07000000    0.30000001
   17.95527840   91.66100311    0.07000000    0.30000001
   17.95944595   90.76519775    0.07000000    0.30000001
   17.96277809   91.72899628    0.07000000    0.30000001
   17.96583366   92.08119965    0.07000000    0.30000001
   17.96916771   83.14589691    0.07000000    0.30000001
   17.97222328   84.95449829    0.07000000    0.30000001
   17.97555542   93.01730347    0.07000000    0.30000001
   17.97638893   80.89250183    0.07000000    0.30000001
   17.97888947   78.85759735    0.07000000    0.30000001
   17.98222351   79.25240326    0.07000000    0.30000001
   17.98527718   81.70700073    0.07000000    0.30000001
   17.98861122   85.81620026    0.07000000    0.30000001
   17.99166679   85.39109802    0.07000000    0.30000001
   17.99500084   76.77880096    0.07000000    0.30000001
   17.99805641   91.95709991    0.07000000    0.30000001
   18.00138855   97.82250214    0.07000000    0.30000001
   18.00666618   97.82250214    0.07000000    0.30000001
   18.01055527   88.01159668    0.07000000    0.30000001
   18.01388931   85.61640167    0.07000000    0.30000001
   18.01694489   83.54949951    0.07000000    0.30000001
   18.02027702   83.97370148    0.07000000    0.30000001
   18.02333260   89.08509827    0.07000000    0.30000001
   18.02638817   91.49909973    0.07000000    0.30000001
   18.02694511   82.13050079    0.07000000    0.30000001
   18.03027725   82.20439911    0.07000000    0.30000001
   18.03333282   83.56980133    0.07000000    0.30000001
   18.03666687   77.62640381    0.07000000    0.30000001
   18.03972244   80.69609833    0.07000000    0.30000001
   18.04305458   80.97820282    0.07000000    0.30000001
   18.04611015   79.49269867    0.07000000    0.30000001
   18.04944420   85.32839966    0.07000000    0.30000001
   18.05249977   82.94580078    0.07000000    0.30000001
   18.05777740   82.94580078    0.07000000    0.30000001
   18.06194305   84.56230164    0.07000000    0.30000001
   18.06499863   81.18019867    0.07000000    0.30000001
   18.06833458   85.95610046    0.07000000    0.30000001
   18.07139015   83.66220093    0.07000000    0.30000001
   18.07472229   82.30819702    0.07000000    0.30000001
   18.07638931   79.92949677    0.07000000    0.30000001
   18.07805634   82.96109772    0.07000000    0.30000001
   18.08139038   80.96730042    0.07000000    0.30000001
   18.08444595   77.53019714    0.07000000    0.30000001
   18.08777809   83.41970062    0.07000000    0.30000001
   18.09083366   87.15589905    0.07000000    0.30000001
   18.09416771   79.30750275    0.07000000    0.30000001
   18.09722328   84.42199707    0.07000000    0.30000001
   18.10055542   83.35839844    0.07000000    0.30000001
   18.10361099   84.04900360    0.07000000    0.30000001
   18.10888863   84.04900360    0.07000000    0.30000001
   18.11305618   86.13249969    0.07000000    0.30000001
   18.11611176   87.78479767    0.07000000    0.30000001
   18.11944389   97.44429779    0.07000000    0.30000001
   18.12249947   87.48509979    0.07000000    0.30000001
   18.12583351   83.33580017    0.07000000    0.30000001
   18.14277840   84.84200287    0.07000000    0.30000001
   18.14555550   80.21820068    0.07000000    0.30000001
   18.14888954   87.20429993    0.07000000    0.30000001
   18.15194321   91.83589935    0.07000000    0.30000001
   18.15527725   84.72689819    0.07000000    0.30000001
   18.15999985   84.72689819    0.07000000    0.30000001
   18.16416550   86.82720184    0.07000000    0.30000001
   18.16722107   84.90889740    0.07000000    0.30000001
   18.17055511   80.43730164    0.07000000    0.30000001
   18.17361069   90.87090302    0.07000000    0.30000001
   18.17694473   88.92780304    0.07000000    0.30000001
   18.18000031   84.56230164    0.07000000    0.30000001
   18.18333244   85.29219818    0.07000000    0.30000001
   18.18638802   83.75540161    0.07000000    0.30000001
   18.18972206   83.74019623    0.07000000    0.30000001
   18.19305420   83.56809998    0.07000000    0.30000001
   18.19333267   84.65440369    0.07000000    0.30000001
   18.19638824   81.71140289    0.07000000    0.30000001
   18.19972038   88.13729858    0.07000000    0.30000001
   18.20277786   84.52680206    0.07000000    0.30000001
   18.20611191   78.66069794    0.07000000    0.30000001
   18.21138954   78.66069794    0.07000000    0.30000001
   18.21527863   85.05889893    0.07000000    0.30000001
   18.21861076   86.87870026    0.07000000    0.30000001
   18.22166634   79.91600037    0.07000000    0.30000001
   18.22500038   80.24379730    0.07000000    0.30000001
   18.22805595   80.29080200    0.07000000    0.30000001
   18.23139000   84.57219696    0.07000000    0.30000001
   18.23444557   86.37740326    0.07000000    0.30000001
   18.23777771   84.83699799    0.07000000    0.30000001
   18.24083328   81.53109741    0.07000000    0.30000001
   18.24305534   81.93530273    0.07000000    0.30000001
   18.24444389   75.54389954    0.07000000    0.30000001
   18.24777794   92.27629852    0.07000000    0.30000001
   18.25083351   81.06800079    0.07000000    0.30000001
   18.25416756   95.85690308    0.07000000    0.30000001
   18.25722313   92.69830322    0.07000000    0.30000001
   18.26250076   92.69830322    0.07000000    0.30000001
   18.26666641   81.91320038    0.07000000    0.30000001
   18.26972198   81.57849884    0.07000000    0.30000001
   18.27305603   81.59310150    0.07000000    0.30000001
   18.27611160   82.47229767    0.07000000    0.30000001
   18.27944374   90.70580292    0.07000000    0.30000001
   18.28249931   93.34210205    0.07000000    0.30000001
   18.28583336   93.32009888    0.07000000    0.30000001
   18.28888893   95.55680084    0.07000000    0.30000001
   18.29222107   94.49379730    0.07000000    0.30000001
   18.29305458   84.83100128    0.07000000    0.30000001
   18.29555511   88.57209778    0.07000000    0.30000001
   18.29888916   95.28410339    0.07000000    0.30000001
   18.30194283   89.50009918    0.07000000    0.30000001
   18.30527687   87.29160309    0.07000000    0.30000001
   18.30833244   98.69090271    0.07000000    0.30000001
   18.31361008   98.69090271    0.07000000    0.30000001
   18.31777954   82.98090363    0.07000000    0.30000001
   18.32083511   79.91030121    0.07000000    0.30000001
   18.32416725   88.77220154    0.07000000    0.30000001
   18.32722282   81.37419891    0.07000000    0.30000001
   18.33055687   83.48300171    0.07000000    0.30000001
   18.33361244   81.98040009    0.07000000    0.30000001
   18.33694458   92.82309723    0.07000000    0.30000001
   18.34000015   96.03919983    0.07000000    0.30000001
   18.34305573   87.75129700    0.07000000    0.30000001
   18.34361267   84.90480042    0.07000000    0.30000001
   18.34722328   88.02510071    0.07000000    0.30000001
   18.35027885   95.46269989    0.07000000    0.30000001
   18.35361099   89.82559967    0.07000000    0.30000001
   18.35666656   85.72779846    0.07000000    0.30000001
   18.36000061   91.99949646    0.07000000    0.30000001
   18.36499977   91.99949646    0.07000000    0.30000001
   18.36888885   82.40480042    0.07000000    0.30000001
   18.37222290   80.23600006    0.07000000    0.30000001
   18.37527847   77.43520355    0.07000000    0.30000001
   18.37861061   79.09590149    0.07000000    0.30000001
   18.38166618   82.61669922    0.07000000    0.30000001
   18.38500023   83.67330170    0.07000000    0.30000001
   18.38805580   82.42130280    0.07000000    0.30000001
   18.39138794   81.86409760    0.07000000    0.30000001
   18.39305496   86.84369659    0.07000000    0.30000001
   18.39472198   83.88559723    0.07000000    0.30000001
   18.39805603   83.29769897    0.07000000    0.30000001
   18.40111160   78.33630371    0.07000000    0.30000001
   18.40444374   91.93399811    0.07000000    0.30000001
   18.40749931   78.96769714    0.07000000    0.30000001
   18.41083336   89.04129791    0.07000000    0.30000001
   18.41611099   89.04129791    0.07000000    0.30000001
   18.42000008   76.06359863    0.07000000    0.30000001
   18.42333221   89.26149750    0.07000000    0.30000001
   18.42638779   81.08270264    0.07000000    0.30000001
   18.42972183   96.06739807    0.07000000    0.30000001
   18.43277740   81.83200073    0.07000000    0.30000001
   18.43610954   81.08049774    0.07000000    0.30000001
   18.43916512   86.57170105    0.07000000    0.30000001
   18.44249916   78.16699982    0.07000000    0.30000001
   18.44305420   78.29810333    0.07000000    0.30000001
   18.44610977   97.67530060    0.07000000    0.30000001
   18.44916534   91.91680145    0.07000000    0.30000001
   18.45250130   83.59359741    0.07000000    0.30000001
   18.45555687   96.27480316    0.07000000    0.30000001
   18.45888901   91.36280060    0.07000000    0.30000001
   18.46194458   87.48719788    0.07000000    0.30000001
   18.46722221   87.48719788    0.07000000    0.30000001
   18.47138977   85.74600220    0.07000000    0.30000001
   18.47444534   90.81240082    0.07000000    0.30000001
   18.47777748   87.50250244    0.07000000    0.30000001
   18.48083305   85.57309723    0.07000000    0.30000001
   18.48416710   88.77089691    0.07000000    0.30000001
   18.48722267   79.27549744    0.07000000    0.30000001
   18.49055672   85.13279724    0.07000000    0.30000001
   18.49305534   93.86900330    0.07000000    0.30000001
   18.49416733   96.82379913    0.07000000    0.30000001
   18.49722290   86.15380096    0.07000000    0.30000001
   18.50055504   94.25150299    0.07000000    0.30000001
   18.50361061   80.81729889    0.07000000    0.30000001
   18.50694466   94.31220245    0.07000000    0.30000001
   18.51000023   87.90119934    0.07000000    0.30000001
   18.51333427  102.02700043    0.07000000    0.30000001
   18.51833344  102.02700043    0.07000000    0.30000001
   18.52249908  117.26799774    0.07000000    0.30000001
   18.52555466   84.30259705    0.07000000    0.30000001
   18.52888870   88.26390076    0.07000000    0.30000001
   18.53194427   93.77320099    0.07000000    0.30000001
   18.53527641   95.34010315    0.07000000    0.30000001
   18.53833199   84.23120117    0.07000000    0.30000001
   18.54166603   95.40720367    0.07000000    0.30000001
   18.54305458   90.44770050    0.07000000    0.30000001
   18.54527664   88.94539642    0.07000000    0.30000001
   18.54833221   86.41719818    0.07000000    0.30000001
   18.55166626   91.80020142    0.07000000    0.30000001
   18.55472183   85.20629883    0.07000000    0.30000001
   18.55805397   85.93319702    0.07000000    0.30000001
   18.56110954   92.47570038    0.07000000    0.30000001
   18.56444359   85.25769806    0.07000000    0.30000001
   18.56944466   85.25769806    0.07000000    0.30000001
   18.57361221   85.41809845    0.07000000    0.30000001
   18.57694626   98.49859619    0.07000000    0.30000001
   18.58000183   94.36820221    0.07000000    0.30000001
   18.58333397   98.79380035    0.07000000    0.30000001
   18.58638954   94.14640045    0.07000000    0.30000001
   18.58972359   92.22480011    0.07000000    0.30000001
   18.59277916   82.94349670    0.07000000    0.30000001
   18.59333420   92.87159729    0.07000000    0.30000001
   18.59638977   77.97820282    0.07000000    0.30000001
   18.59972191   98.52089691    0.07000000    0.30000001
   18.60277748   96.79609680    0.07000000    0.30000001
   18.60611153   86.58170319    0.07000000    0.30000001
   18.60916710   89.60459900    0.07000000    0.30000001
   18.61250114   83.92330170    0.07000000    0.30000001
   18.61555672  100.45700073    0.07000000    0.30000001
   18.62083435  100.45700073    0.07000000    0.30000001
   18.62472153   95.74749756    0.07000000    0.30000001
   18.62805557   89.90029907    0.07000000    0.30000001
   18.63111115   98.33979797    0.07000000    0.30000001
   18.63444519  100.79000092    0.07000000    0.30000001
   18.63750076   90.98100281    0.07000000    0.30000001
   18.64083290   94.17420197    0.07000000    0.30000001
   18.64333344   82.95639801    0.07000000    0.30000001
   18.64416695   85.80500031    0.07000000    0.30000001
   18.64749908   92.14649963    0.07000000    0.30000001
   18.65055466   85.48889923    0.07000000    0.30000001
   18.65388870   85.42539978    0.07000000    0.30000001
   18.65694427   89.90850067    0.07000000    0.30000001
   18.66027832  110.10700226    0.07000000    0.30000001
   18.66333389   98.57620239    0.07000000    0.30000001
   18.66666603   85.65820313    0.07000000    0.30000001
   18.67194366   85.65820313    0.07000000    0.30000001
   18.67611122   82.44869995    0.07000000    0.30000001
   18.67916679   93.56320190    0.07000000    0.30000001
   18.68249893   88.07140350    0.07000000    0.30000001
   18.68555450   85.19190216    0.07000000    0.30000001
   18.68888855   83.31919861    0.07000000    0.30000001
   18.69194412   92.12960052    0.07000000    0.30000001
   18.69333267   90.77390289    0.07000000    0.30000001
   18.69555473   85.46630096    0.07000000    0.30000001
   18.69861031   94.38259888    0.07000000    0.30000001
   18.70194435   85.74050140    0.07000000    0.30000001
   18.70499992   83.17829895    0.07000000    0.30000001
   18.70833397   86.68450165    0.07000000    0.30000001
   18.71138954   90.63359833    0.07000000    0.30000001
   18.71472359   82.67330170    0.07000000    0.30000001
   18.71777916   95.09169769    0.07000000    0.30000001
   18.72305679   95.09169769    0.07000000    0.30000001
   18.72722244  104.18000031    0.07000000    0.30000001
   18.73027802   94.24770355    0.07000000    0.30000001
   18.73361206  103.51999664    0.07000000    0.30000001
   18.73666763   87.66120148    0.07000000    0.30000001
   18.73999977   84.80120087    0.07000000    0.30000001
   18.74305534   84.24559784    0.07000000    0.30000001
   18.74361229   81.59310150    0.07000000    0.30000001
   18.74694443   94.03639984    0.07000000    0.30000001
   18.75000000   93.41989899    0.07000000    0.30000001
   18.75333405   85.05310059    0.07000000    0.30000001
   18.75638962   89.48359680    0.07000000    0.30000001
   18.75972176   80.45379639    0.07000000    0.30000001
   18.76277733   88.37760162    0.07000000    0.30000001
   18.76611137   92.68019867    0.07000000    0.30000001
   18.76972198   83.00370026    0.07000000    0.30000001
   18.77416611   83.00370026    0.07000000    0.30000001
   18.77833366   85.97070313    0.07000000    0.30000001
   18.78166580   90.13990021    0.07000000    0.30000001
   18.78472137   98.78500366    0.07000000    0.30000001
   18.78805542   82.77179718    0.07000000    0.30000001
   18.79111099   85.41639709    0.07000000    0.30000001
   18.79361153   88.08589935    0.07000000    0.30000001
   18.79500008   94.40979767    0.07000000    0.30000001
   18.79805565   87.88849640    0.07000000    0.30000001
   18.80138779   83.37290192    0.07000000    0.30000001
   18.80444336   85.40450287    0.07000000    0.30000001
   18.80777740   79.06759644    0.07000000    0.30000001
   18.81083298   74.38880157    0.07000000    0.30000001
   18.81416512   80.69349670    0.07000000    0.30000001
   18.81722260   85.55339813    0.07000000    0.30000001
   18.82055664   88.35729980    0.07000000    0.30000001
   18.82555580   88.35729980    0.07000000    0.30000001
   18.82944489   84.97850037    0.07000000    0.30000001
   18.83277893   86.14579773    0.07000000    0.30000001
   18.83583450   94.84239960    0.07000000    0.30000001
   18.83916664   86.56929779    0.07000000    0.30000001
   18.84222221   85.50859833    0.07000000    0.30000001
   18.84361267   92.04859924    0.07000000    0.30000001
   18.84583473   80.09660339    0.07000000    0.30000001
   18.84889030   98.15139771    0.07000000    0.30000001
   18.85222244   84.66190338    0.07000000    0.30000001
   18.85527802   79.47239685    0.07000000    0.30000001
   18.85861206   91.32769775    0.07000000    0.30000001
   18.86166763   90.62059784    0.07000000    0.30000001
   18.86499977  106.33899689    0.07000000    0.30000001
   18.86805534   87.91300201    0.07000000    0.30000001
   18.87138939   91.73819733    0.07000000    0.30000001
   18.87666702   91.73819733    0.07000000    0.30000001
   18.88083267   87.78170013    0.07000000    0.30000001
   18.88388824   91.98390198    0.07000000    0.30000001
   18.88722229   90.73960114    0.07000000    0.30000001
   18.89027786   85.89219666    0.07000000    0.30000001
   18.89361191   90.36289978    0.07000000    0.30000001
   18.89388847   94.53189850    0.07000000    0.30000001
   18.89722252   85.90029907    0.07000000    0.30000001
   18.90027809   84.80950165    0.07000000    0.30000001
   18.90361023   93.38140106    0.07000000    0.30000001
   18.90666580   77.74369812    0.07000000    0.30000001
   18.90999985  102.44899750    0.07000000    0.30000001
   18.91305542   89.58380127    0.07000000    0.30000001
   18.91638756   82.26380157    0.07000000    0.30000001
   18.91944313  101.81600189    0.07000000    0.30000001
   18.92277718   92.38230133    0.07000000    0.30000001
   18.92777634   92.38230133    0.07000000    0.30000001
   18.93194389   84.20169830    0.07000000    0.30000001
   18.93499947   80.10260010    0.07000000    0.30000001
   18.93833160   76.84980011    0.07000000    0.30000001
   18.94138718   87.39309692    0.07000000    0.30000001
   18.94388771   92.78150177    0.07000000    0.30000001
   18.94499969   86.66280365    0.07000000    0.30000001
   18.94805527   83.35260010    0.07000000    0.30000001
   18.95138931   87.56379700    0.07000000    0.30000001
   18.95444489   84.45719910    0.07000000    0.30000001
   18.95777893   87.97740173    0.07000000    0.30000001
   18.96083450  100.73100281    0.07000000    0.30000001
   18.96416664   90.56189728    0.07000000    0.30000001
   18.96722221   85.57610321    0.07000000    0.30000001
   18.97055626   88.94149780    0.07000000    0.30000001
   18.97361183   83.92269897    0.07000000    0.30000001
   18.97888947   83.92269897    0.07000000    0.30000001
   18.98305511   79.15239716    0.07000000    0.30000001
   18.98638916   83.02629852    0.07000000    0.30000001
   18.98944473   82.86679840    0.07000000    0.30000001
   18.99277878   82.48349762    0.07000000    0.30000001
   18.99416733   82.13310242    0.07000000    0.30000001
   18.99638939   88.57479858    0.07000000    0.30000001
   18.99944496   84.53469849    0.07000000    0.30000001
   19.00277710   83.81279755    0.07000000    0.30000001
   19.00583267   84.15319824    0.07000000    0.30000001
   19.00916672   84.48030090    0.07000000    0.30000001
   19.01222229   87.09719849    0.07000000    0.30000001
   19.01555634   86.33750153    0.07000000    0.30000001
   19.01861000   92.02059937    0.07000000    0.30000001
   19.02194405   89.37750244    0.07000000    0.30000001
   19.02499962   90.97049713    0.07000000    0.30000001
   19.03027725   90.97049713    0.07000000    0.30000001
   19.03416634   82.42790222    0.07000000    0.30000001
   19.03750038   83.97850037    0.07000000    0.30000001
   19.04055595   83.54519653    0.07000000    0.30000001
   19.04388809   79.65260315    0.07000000    0.30000001
   19.04444313   87.29250336    0.07000000    0.30000001
   19.04722214   81.08190155    0.07000000    0.30000001
   19.05055428   87.52380371    0.07000000    0.30000001
   19.05360985   83.55770111    0.07000000    0.30000001
   19.05694389   84.71070099    0.07000000    0.30000001
   19.05999947   89.82089996    0.07000000    0.30000001
   19.06333351   86.16850281    0.07000000    0.30000001
   19.06638718   86.29199982    0.07000000    0.30000001
   19.06972313   94.98889923    0.07000000    0.30000001
   19.07277870  101.45600128    0.07000000    0.30000001
   19.07611275   77.80090332    0.07000000    0.30000001
   19.08139038   77.80090332    0.07000000    0.30000001
   19.08555603   84.80370331    0.07000000    0.30000001
   19.08861160   77.32959747    0.07000000    0.30000001
   19.09194565   84.27159882    0.07000000    0.30000001
   19.09444427   87.07260132    0.07000000    0.30000001
   19.09527779   91.79039764    0.07000000    0.30000001
   19.09833336   92.34480286    0.07000000    0.30000001
   19.10166740   85.76969910    0.07000000    0.30000001
   19.10472298   84.64379883    0.07000000    0.30000001
   19.10805511   77.46070099    0.07000000    0.30000001
   19.11111069   81.59179688    0.07000000    0.30000001
   19.11444473   92.70839691    0.07000000    0.30000001
   19.11750031   91.06500244    0.07000000    0.30000001
   19.12083435   84.82389832    0.07000000    0.30000001
   19.12388992   82.14119720    0.07000000    0.30000001
   19.12722206   85.53869629    0.07000000    0.30000001
   19.13249969   85.53869629    0.07000000    0.30000001
   19.13666725   77.65309906    0.07000000    0.30000001
   19.13972282   87.54509735    0.07000000    0.30000001
   19.14305496   90.03179932    0.07000000    0.30000001
   19.15999985   97.60739899    0.07000000    0.30000001
   19.16277695   95.75469971    0.07000000    0.30000001
   19.16611099   96.63009644    0.07000000    0.30000001
   19.16916656   88.87650299    0.07000000    0.30000001
   19.17249870   85.23840332    0.07000000    0.30000001
   19.17555428   88.47380066    0.07000000    0.30000001
   19.17888832   84.78420258    0.07000000    0.30000001
   19.18388748   84.78420258    0.07000000    0.30000001
   19.18777657   98.34210205    0.07000000    0.30000001
   19.19111061  103.68499756    0.07000000    0.30000001
   19.19416618   95.11949921    0.07000000    0.30000001
   19.19749832   96.30509949    0.07000000    0.30000001
   19.20055580   89.56490326    0.07000000    0.30000001
   19.20388985   88.10559845    0.07000000    0.30000001
   19.20694542   93.09490204    0.07000000    0.30000001
   19.21000099   84.77680206    0.07000000    0.30000001
   19.21055603   84.77539825    0.07000000    0.30000001
   19.21389008   91.35430145    0.07000000    0.30000001
   19.21694565   87.32440186    0.07000000    0.30000001
   19.22027779   82.48639679    0.07000000    0.30000001
   19.22333336   89.12180328    0.07000000    0.30000001
   19.22666740   86.49939728    0.07000000    0.30000001
   19.22972298   93.76619720    0.07000000    0.30000001
   19.23500061   93.76619720    0.07000000    0.30000001
   19.23916626   97.35410309    0.07000000    0.30000001
   19.24222183   86.98799896    0.07000000    0.30000001
   19.24555588   98.86270142    0.07000000    0.30000001
   19.24861145   85.71929932    0.07000000    0.30000001
   19.25194359   87.22519684    0.07000000    0.30000001
   19.25499916   93.60839844    0.07000000    0.30000001
   19.25833321   90.59449768    0.07000000    0.30000001
   19.26000023   91.62079620    0.07000000    0.30000001
   19.26166725   88.82270050    0.07000000    0.30000001
   19.26499939   90.92639923    0.07000000    0.30000001
   19.26805496   82.27189636    0.07000000    0.30000001
   19.27138901   88.50930023    0.07000000    0.30000001
   19.27444458   91.22080231    0.07000000    0.30000001
   19.27777672   85.56719971    0.07000000    0.30000001
   19.28083229   86.66410065    0.07000000    0.30000001
   19.28610992   86.66410065    0.07000000    0.30000001
   19.29027748   98.33799744    0.07000000    0.30000001
   19.29333305   90.91889954    0.07000000    0.30000001
   19.29666710   95.16680145    0.07000000    0.30000001
   19.29972076   98.62989807    0.07000000    0.30000001
   19.30305481   92.29290009    0.07000000    0.30000001
   19.30611038   85.97339630    0.07000000    0.30000001
   19.30944443  100.12599945    0.07000000    0.30000001
   19.30999947   93.84609985    0.07000000    0.30000001
   19.31277657   85.44689941    0.07000000    0.30000001
   19.31611061   87.05750275    0.07000000    0.30000001
   19.31916809   85.97899628    0.07000000    0.30000001
   19.32250023   92.33370209    0.07000000    0.30000001
   19.32555580   93.53099823    0.07000000    0.30000001
   19.32888985   88.80319977    0.07000000    0.30000001
   19.33194542   90.83239746    0.07000000    0.30000001
   19.33722305   90.83239746    0.07000000    0.30000001
   19.34138870   92.16829681    0.07000000    0.30000001
   19.34444427   82.27179718    0.07000000    0.30000001
   19.34777832   93.48190308    0.07000000    0.30000001
   19.35083389   83.85350037    0.07000000    0.30000001
   19.35416794   84.44270325    0.07000000    0.30000001
   19.35722351   86.81330109    0.07000000    0.30000001
   19.36000061   90.20330048    0.07000000    0.30000001
   19.36083412   88.93229675    0.07000000    0.30000001
   19.36416626   92.04640198    0.07000000    0.30000001
   19.36722183   86.49729919    0.07000000    0.30000001
   19.37055588   84.04479980    0.07000000    0.30000001
   19.37361145   94.64399719    0.07000000    0.30000001
   19.37694550   88.47149658    0.07000000    0.30000001
   19.38000107   93.19650269    0.07000000    0.30000001
   19.38333321   91.93180084    0.07000000    0.30000001
   19.38861084   91.93180084    0.07000000    0.30000001
   19.39249992   88.74990082    0.07000000    0.30000001
   19.39583397   98.32009888    0.07000000    0.30000001
   19.39888954   93.19560242    0.07000000    0.30000001
   19.40222168   94.44170380    0.07000000    0.30000001
   19.40527725   89.03050232    0.07000000    0.30000001
   19.40861130   82.56929779    0.07000000    0.30000001
   19.40999985   95.12000275    0.07000000    0.30000001
   19.41194344   81.06379700    0.07000000    0.30000001
   19.41527748   90.53759766    0.07000000    0.30000001
   19.41833305   91.91110229    0.07000000    0.30000001
   19.42166519   84.41510010    0.07000000    0.30000001
   19.42472076   88.37930298    0.07000000    0.30000001
   19.42805481   82.12329865    0.07000000    0.30000001
   19.43111038   95.73850250    0.07000000    0.30000001
   19.43444443   91.96839905    0.07000000    0.30000001
   19.43972206   91.96839905    0.07000000    0.30000001
   19.44361115   90.02719879    0.07000000    0.30000001
   19.44694328   87.28600311    0.07000000    0.30000001
   19.45000076   91.86879730    0.07000000    0.30000001
   19.45333481   93.79869843    0.07000000    0.30000001
   19.45639038   93.28230286    0.07000000    0.30000001
   19.45972252   88.96910095    0.07000000    0.30000001
   19.46027946   91.96340179    0.07000000    0.30000001
   19.46333504   94.29570007    0.07000000    0.30000001
   19.46666718   98.42659760    0.07000000    0.30000001
   19.46972275   93.14589691    0.07000000    0.30000001
   19.47305679   98.06390381    0.07000000    0.30000001
   19.47611237   96.51580048    0.07000000    0.30000001
   19.47944450   95.78869629    0.07000000    0.30000001
   19.48250008   84.58119965    0.07000000    0.30000001
   19.48583412   97.23310089    0.07000000    0.30000001
   19.49083328   97.23310089    0.07000000    0.30000001
   19.49500084   90.54329681    0.07000000    0.30000001
   19.49805641   95.16079712    0.07000000    0.30000001
   19.50138855   87.79779816    0.07000000    0.30000001
   19.50444412   93.92810059    0.07000000    0.30000001
   19.50777817   82.54229736    0.07000000    0.30000001
   19.51027870   82.60070038    0.07000000    0.30000001
   19.51111031   82.68569946    0.07000000    0.30000001
   19.51444435   82.17749786    0.07000000    0.30000001
   19.51749992   90.83450317    0.07000000    0.30000001
   19.52083397   91.34200287    0.07000000    0.30000001
   19.52388954   91.56950378    0.07000000    0.30000001
   19.52722168   94.55650330    0.07000000    0.30000001
   19.53027725   98.98179626    0.07000000    0.30000001
   19.53361130   97.01010132    0.07000000    0.30000001
   19.53666687   91.66280365    0.07000000    0.30000001
   19.54194450   91.66280365    0.07000000    0.30000001
   19.54611015   85.07399750    0.07000000    0.30000001
   19.54916573   91.32510376    0.07000000    0.30000001
   19.55249977   84.53199768    0.07000000    0.30000001
   19.55555534   93.75409698    0.07000000    0.30000001
   19.55888748  100.99400330    0.07000000    0.30000001
   19.56027794   93.82180023    0.07000000    0.30000001
   19.56222153   94.70040131    0.07000000    0.30000001
   19.56555557   96.67620087    0.07000000    0.30000001
   19.56861115   89.91179657    0.07000000    0.30000001
   19.57194519   88.72100067    0.07000000    0.30000001
   19.57500076   84.00720215    0.07000000    0.30000001
   19.57833481   90.64140320    0.07000000    0.30000001
   19.58139038   88.21849823    0.07000000    0.30000001
   19.58472252   85.97850037    0.07000000    0.30000001
   19.58777809   90.78520203    0.07000000    0.30000001
   19.59305573   90.78520203    0.07000000    0.30000001
   19.59722328   86.22669983    0.07000000    0.30000001
   19.60055542   97.42189789    0.07000000    0.30000001
   19.60361099   87.67780304    0.07000000    0.30000001
   19.60694504   93.64640045    0.07000000    0.30000001
   19.61000061   88.59660339    0.07000000    0.30000001
   19.61055565   87.96820068    0.07000000    0.30000001
   19.61361122   88.08689880    0.07000000    0.30000001
   19.61694527   82.47630310    0.07000000    0.30000001
   19.62000084   85.20960236    0.07000000    0.30000001
   19.62333298   88.20870209    0.07000000    0.30000001
   19.62638855   80.84719849    0.07000000    0.30000001
   19.62972260   83.15360260    0.07000000    0.30000001
   19.63277817   88.94539642    0.07000000    0.30000001
   19.63611031   98.25150299    0.07000000    0.30000001
   19.63916588   94.49590302    0.07000000    0.30000001
   19.64444351   94.49590302    0.07000000    0.30000001
   19.64833260   90.63259888    0.07000000    0.30000001
   19.65166664  102.23300171    0.07000000    0.30000001
   19.65472221   98.71810150    0.07000000    0.30000001
   19.65805435   98.05410004    0.07000000    0.30000001
   19.66055489   90.00389862    0.07000000    0.30000001
   19.66138840  105.51100159    0.07000000    0.30000001
   19.66472244   84.28700256    0.07000000    0.30000001
   19.66777802   92.38849640    0.07000000    0.30000001
   19.67111015   95.77909851    0.07000000    0.30000001
   19.67416573   86.50029755    0.07000000    0.30000001
   19.67749977  107.55200195    0.07000000    0.30000001
   19.68055534   84.91870117    0.07000000    0.30000001
   19.68388748   96.80210114    0.07000000    0.30000001
   19.68694305   90.72769928    0.07000000    0.30000001
   19.69027710   83.95420074    0.07000000    0.30000001
   19.69555473   83.95420074    0.07000000    0.30000001
   19.69972038   86.70179749    0.07000000    0.30000001
   19.70277786   92.93139648    0.07000000    0.30000001
   19.70611191   95.11270142    0.07000000    0.30000001
   19.70916748   94.89550018    0.07000000    0.30000001
   19.71083450   99.68830109    0.07000000    0.30000001
   19.71277809   97.75440216    0.07000000    0.30000001
   19.71611214   94.43470001    0.07000000    0.30000001
   19.71916771  106.60900116    0.07000000    0.30000001
   19.72249985   95.42870331    0.07000000    0.30000001
   19.72555542   89.53359985    0.07000000    0.30000001
   19.72888947  101.84899902    0.07000000    0.30000001
   19.73194504   90.40840149    0.07000000    0.30000001
   19.73527718   93.79989624    0.07000000    0.30000001
   19.73833275   89.47840118    0.07000000    0.30000001
   19.74166679   94.97299957    0.07000000    0.30000001
   19.74666786   94.97299957    0.07000000    0.30000001
   19.75083351  101.86699677    0.07000000    0.30000001
   19.75388908  109.91400146    0.07000000    0.30000001
   19.75722313  105.90699768    0.07000000    0.30000001
   19.76027870   96.64540100    0.07000000    0.30000001
   19.76083374   96.74720001    0.07000000    0.30000001
   19.76388931   97.65029907    0.07000000    0.30000001
   19.76694489  109.56300354    0.07000000    0.30000001
   19.77027702   98.07209778    0.07000000    0.30000001
   19.77333260   98.95240021    0.07000000    0.30000001
   19.77666664   96.85910034    0.07000000    0.30000001
   19.77972221   84.87699890    0.07000000    0.30000001
   19.78305435   98.76349640    0.07000000    0.30000001
   19.78610992   89.27899933    0.07000000    0.30000001
   19.78944397   92.70459747    0.07000000    0.30000001
   19.79249954  101.01200104    0.07000000    0.30000001
   19.79777718  101.01200104    0.07000000    0.30000001
   19.80194283  104.13400269    0.07000000    0.30000001
   19.80527687   92.32160187    0.07000000    0.30000001
   19.80833244   99.57589722    0.07000000    0.30000001
   19.81083298   99.78700256    0.07000000    0.30000001
   19.81194305  102.78299713    0.07000000    0.30000001
   19.81499863   96.21520233    0.07000000    0.30000001
   19.81833458  104.02700043    0.07000000    0.30000001
   19.82139015   85.71479797    0.07000000    0.30000001
   19.82472229   91.41850281    0.07000000    0.30000001
   19.82777786   87.47170258    0.07000000    0.30000001
   19.83111191   88.95240021    0.07000000    0.30000001
   19.83416748   96.91069794    0.07000000    0.30000001
   19.83750153   89.59709930    0.07000000    0.30000001
   19.84055710   90.66179657    0.07000000    0.30000001
   19.84388924   87.18669891    0.07000000    0.30000001
   19.84916687   87.18669891    0.07000000    0.30000001
   19.85305595   93.82740021    0.07000000    0.30000001
   19.85639000   89.45189667    0.07000000    0.30000001
   19.85944557   86.79709625    0.07000000    0.30000001
   19.86083412   92.25740051    0.07000000    0.30000001
   19.86305618   90.03230286    0.07000000    0.30000001
   19.86611176   90.77580261    0.07000000    0.30000001
   19.86944389   84.30300140    0.07000000    0.30000001
   19.87249947   85.89980316    0.07000000    0.30000001
   19.87583351   78.91619873    0.07000000    0.30000001
   19.87888908   99.37979889    0.07000000    0.30000001
   19.88222313   98.77559662    0.07000000    0.30000001
   19.88527679   90.51670074    0.07000000    0.30000001
   19.88861084   95.55329895    0.07000000    0.30000001
   19.89166641   99.29579926    0.07000000    0.30000001
   19.89500046   84.77380371    0.07000000    0.30000001
   19.90027809   84.77380371    0.07000000    0.30000001
   19.90444374   99.69300079    0.07000000    0.30000001
   19.90749931   87.88819885    0.07000000    0.30000001
   19.91083336  101.78099823    0.07000000    0.30000001
   19.91110992   99.64569855    0.07000000    0.30000001
   19.91416550   91.86070251    0.07000000    0.30000001
   19.91722107   95.17359924    0.07000000    0.30000001
   19.92055511   98.95040131    0.07000000    0.30000001
   19.92361069   86.90509796    0.07000000    0.30000001
   19.92694473   84.70639801    0.07000000    0.30000001
   19.93000031   98.78430176    0.07000000    0.30000001
   19.93333244  108.61100006    0.07000000    0.30000001
   19.93638802   97.90160370    0.07000000    0.30000001
   19.93972206   94.87470245    0.07000000    0.30000001
   19.94277763   93.70680237    0.07000000    0.30000001
   19.94610977   98.64880371    0.07000000    0.30000001
   19.95138931   98.64880371    0.07000000    0.30000001
   19.95555687   94.40329742    0.07000000    0.30000001
   19.95861244  101.96099854    0.07000000    0.30000001
   19.96111107   88.66120148    0.07000000    0.30000001
   19.96222305   88.96289825    0.07000000    0.30000001
   19.96527863  109.32700348    0.07000000    0.30000001
   19.96861076  104.29599762    0.07000000    0.30000001
   19.97166634   93.59429932    0.07000000    0.30000001
   19.97500038   95.53620148    0.07000000    0.30000001
   19.97805595   99.81430054    0.07000000    0.30000001
   19.98139000   87.61740112    0.07000000    0.30000001
   19.98444557   81.07510376    0.07000000    0.30000001
   19.98777771   92.07759857    0.07000000    0.30000001
   19.99083328   94.23459625    0.07000000    0.30000001
   19.99416733  101.36399841    0.07000000    0.30000001
   19.99722290  101.75099945    0.07000000    0.30000001
   20.00250053  101.75099945    0.07000000    0.30000001
   20.00666618   97.44380188    0.07000000    0.30000001
   20.01000023   94.74819946    0.07000000    0.30000001
   20.01111031   95.92669678    0.07000000    0.30000001
   20.01333427  103.64600372    0.07000000    0.30000001
   20.01638794   94.35150146    0.07000000    0.30000001
   20.01972198  101.51399994    0.07000000    0.30000001
   20.02277756   98.24530029    0.07000000    0.30000001
   20.02611160  105.07299805    0.07000000    0.30000001
   20.02916718   95.91580200    0.07000000    0.30000001
   20.03249931   92.93979645    0.07000000    0.30000001
   20.03555489   98.93219757    0.07000000    0.30000001
   20.03888893  107.39600372    0.07000000    0.30000001
   20.04194450   97.68000031    0.07000000    0.30000001
   20.04527664   99.68560028    0.07000000    0.30000001
   20.04833221   95.52989960    0.07000000    0.30000001
   20.05388832   95.52989960    0.07000000    0.30000001
   20.05777740  107.71800232    0.07000000    0.30000001
   20.06110954  107.83799744    0.07000000    0.30000001
   20.06166649  100.54399872    0.07000000    0.30000001
   20.06472206  100.40299988    0.07000000    0.30000001
   20.06805611  101.81099701    0.07000000    0.30000001
   20.07111168   97.82939911    0.07000000    0.30000001
   20.07444572   96.05110168    0.07000000    0.30000001
   20.07750130  104.80500031    0.07000000    0.30000001
   20.08083344  103.23200226    0.07000000    0.30000001
   20.08388901   93.17759705    0.07000000    0.30000001
   20.08722305   96.68630219    0.07000000    0.30000001
   20.09027863   98.83609772    0.07000000    0.30000001
   20.09361267  106.00900269    0.07000000    0.30000001
   20.09666824  108.21299744    0.07000000    0.30000001
   20.10000038  105.17800140    0.07000000    0.30000001
   20.10499954  105.17800140    0.07000000    0.30000001
   20.10916710   99.19650269    0.07000000    0.30000001
   20.11166763   97.58170319    0.07000000    0.30000001
   20.11250114   90.80650330    0.07000000    0.30000001
   20.11583328   99.56849670    0.07000000    0.30000001
   20.11888885   95.14289856    0.07000000    0.30000001
   20.12222290   95.83940125    0.07000000    0.30000001
   20.12527847   94.03780365    0.07000000    0.30000001
   20.12861061   93.14540100    0.07000000    0.30000001
   20.13166618   89.55429840    0.07000000    0.30000001
   20.13500023   90.06020355    0.07000000    0.30000001
   20.13805580   84.77359772    0.07000000    0.30000001
   20.14138794   97.94689941    0.07000000    0.30000001
   20.14444351  102.84400177    0.07000000    0.30000001
   20.14777756  103.80999756    0.07000000    0.30000001
   20.15083313  103.51300049    0.07000000    0.30000001
   20.15611076  103.51300049    0.07000000    0.30000001
   20.16027832  105.20500183    0.07000000    0.30000001
   20.17749977  103.31999969    0.07000000    0.30000001
