    HOUR (UT)   FLARE FACTOR    SKY TESTER    SUN TESTER
   11.75555515   -1.00000000   -1.00000000   -1.00000000
   11.82444477   73.49230194    0.00000000    0.00000000
   11.82777786   74.12129974    0.00000000    0.00000000
   11.83083344   73.39070129    0.00000000    0.00000000
   11.83388901   73.17500305    0.00000000    0.00000000
   11.83722210   76.49030304    0.00000000    0.00000000
   11.84027767   74.90630341    0.00000000    0.00000000
   11.84361076   75.02449799    0.00000000    0.00000000
   11.84666634   76.03910065    0.00000000    0.00000000
   11.85305595   76.03910065    0.00000000    0.00000000
   11.85722256   75.42980194    0.00000000    0.00000000
   11.86027813   74.70390320    0.00000000    0.00000000
   11.86361122   75.04709625    0.00000000    0.00000000
   11.86666679   75.30619812    0.00000000    0.00000000
   11.86972237   75.97850037    0.00000000    0.00000000
   11.87305546   76.13610077    0.00000000    0.00000000
   11.87444496   77.08799744    0.00000000    0.00000000
   11.87638855   76.71990204    0.00000000    0.00000000
   11.88000011   76.27330017    0.00000000    0.00000000
   11.88444424   75.90889740    0.00000000    0.00000000
   11.88805580   73.91000366    0.00000000    0.00000000
   11.89138889   72.82469940    0.00000000    0.00000000
   11.89972210   80.70639801    0.00000000    0.00000000
   11.91333294   80.70639801    0.00000000    0.00000000
   11.91750050   74.63839722    0.00000000    0.00000000
   11.92083359   76.17649841    0.00000000    0.00000000
   11.92388916   80.39089966    0.00000000    0.00000000
   11.92444515   77.64669800    0.00000000    0.00000000
   11.92750072   79.61589813    0.00000000    0.00000000
   11.93055630   76.98040009    0.00000000    0.00000000
   11.93361092   78.49310303    0.00000000    0.00000000
   11.93694496   77.67839813    0.00000000    0.00000000
   11.94000053   77.12419891    0.00000000    0.00000000
   11.94333363   78.65229797    0.00000000    0.00000000
   11.94638920   75.25990295    0.00000000    0.00000000
   11.94944477   75.00140381    0.00000000    0.00000000
   11.95277786   78.60630035    0.00000000    0.00000000
   11.95583344   76.32800293    0.00000000    0.00000000
   11.95916653   80.37969971    0.00000000    0.00000000
   11.96916580   80.37969971    0.00000000    0.00000000
   11.97333336   74.66310120    0.00000000    0.00000000
   11.97444439   74.21600342    0.00000000    0.00000000
   11.97694397   74.29969788    0.00000000    0.00000000
   11.98416710   76.73860168    0.00000000    0.00000000
   11.98777771   75.53980255    0.00000000    0.00000000
   11.99083328   76.47440338    0.00000000    0.00000000
   11.99416733   74.28189850    0.92000002    2.76999998
   11.99722290   79.36810303    0.94000000    2.76999998
   12.00055599   73.87940216    0.94000000    2.76999998
   12.00388908   76.01210022    0.92000002    2.76999998
   12.01305580   75.78359985    0.95999998    2.78999996
   12.02611065   75.78359985    1.05999994    2.76999998
   12.03027725   73.73059845    1.09000003    2.76999998
   12.03361130   76.35690308    1.11000001    2.76999998
   12.03666687   76.97260284    1.13000000    2.76999998
   12.04000092   74.07009888    1.13000000    2.76999998
   12.04333401   76.93579865    1.13000000    2.76999998
   12.04666710   78.20649719    1.14999998    2.76999998
   12.04972267   77.75630188    1.14999998    2.76999998
   12.05305576   79.28630066    1.16999996    2.76999998
   12.05638885   79.60510254    1.16999996    2.76999998
   12.06027794   76.84310150    1.16999996    2.78999996
   12.06361103   78.78379822    1.16999996    2.76999998
   12.06666660   77.46730042    1.13000000    2.76999998
   12.07166672   77.46730042    1.11000001    2.76999998
   12.07583332   80.18779755    1.11000001    2.76999998
   12.07638836   74.70169830    1.11000001    2.76999998
   12.07944393   75.96720123    1.11000001    2.78999996
   12.08277798   80.86640167    1.11000001    2.78999996
   12.08583260   85.05220032    1.09000003    2.76999998
   12.08916664   76.72689819    1.05999994    2.78999996
   12.09222221   76.18530273    1.01999998    2.78999996
   12.09555531   76.51609802    1.01999998    2.78999996
   12.09861088   75.29309845    1.00000000    2.78999996
   12.10194492   77.24349976    0.95999998    2.78999996
   12.10500050   76.00199890    0.95999998    2.78999996
   12.10833359   84.60710144    0.95999998    2.78999996
   12.11138916   78.19969940    0.95999998    2.78999996
   12.11472225   78.11799622    0.95999998    2.78999996
   12.11777782   75.01119995    0.95999998    2.78999996
   12.12250042   75.01119995    0.98000002    2.78999996
   12.12666702   76.52169800    0.95999998    2.78999996
   12.12972260   77.59230042    0.98000002    2.78999996
   12.13305569   80.00050354    1.01999998    2.78999996
   12.13611126   74.98860168    1.00000000    2.78999996
   12.13944435   77.52570343    1.00000000    2.78999996
   12.14249992   78.06790161    1.00000000    2.78999996
   12.14583302   75.73629761    0.98000002    2.78999996
   12.14888859   74.99500275    0.98000002    2.78999996
   12.15222168   76.04550171    0.95999998    2.78999996
   12.15555477   76.93340302    0.95999998    2.78999996
   12.15861034   76.67520142    0.95999998    2.78999996
   12.16194439   74.85019684    0.98000002    2.78999996
   12.16499996   76.14730072    1.00000000    2.78999996
   12.16805553   75.73459625    1.01999998    2.78999996
   12.17472267   75.73459625    1.00000000    2.78999996
   12.17888927   82.62020111    0.98000002    2.78999996
   12.18194485   75.28679657    0.98000002    2.78999996
   12.18527794   75.78919983    0.98000002    2.78999996
   12.18833351   79.94889832    0.98000002    2.78999996
   12.19166660   81.95999908    0.98000002    2.80999994
   12.19499969   80.57939911    1.01999998    2.78999996
   12.19833374   81.16500092    1.01999998    2.78999996
   12.20138836   76.62799835    1.01999998    2.78999996
   12.20444393   75.36859894    1.01999998    2.78999996
   12.20805550   78.47940063    1.01999998    2.78999996
   12.21111107   78.94840240    1.01999998    2.78999996
   12.21444416   78.23650360    1.01999998    2.78999996
   12.21749973   76.86009979    1.01999998    2.78999996
   12.22083282   80.36409760    1.01999998    2.78999996
   12.22499943   80.36409760    1.01999998    2.78999996
   12.22916603   77.35859680    1.01999998    2.78999996
   12.23222160   76.91770172    1.01999998    2.78999996
   12.23555565   75.32489777    1.01999998    2.78999996
   12.23888874   78.16179657    0.98000002    2.80999994
   12.24194431   80.48739624    0.98000002    2.80999994
   12.24527836   77.09190369    0.98000002    2.80999994
   12.24833393   78.17579651    1.00000000    2.80999994
   12.25166702   79.04270172    1.00000000    2.80999994
   12.25472260   74.60310364    0.98000002    2.80999994
   12.25805569   73.90899658    0.98000002    2.80999994
   12.26111126   81.78790283    1.01999998    2.78999996
   12.26444435   76.07599640    1.01999998    2.80999994
   12.26749992   84.31759644    0.98000002    2.80999994
   12.27083302   77.37920380    0.98000002    2.80999994
   12.27611065   77.37920380    0.94000000    2.80999994
   12.28027725   78.61000061    0.95999998    2.80999994
   12.28361130   75.66619873    0.95999998    2.80999994
   12.28694534   78.72840118    0.95999998    2.80999994
   12.29000092   76.78250122    0.94000000    2.80999994
   12.29333401   82.46549988    0.94000000    2.80999994
   12.29666710   74.55599976    0.94000000    2.80999994
   12.29972267   78.62660217    0.94000000    2.80999994
   12.30305576   76.98000336    0.94000000    2.82999992
   12.30611134   82.85410309    0.94000000    2.80999994
   12.30944443   77.09850311    0.94000000    2.80999994
   12.31277752   79.25559998    0.94000000    2.80999994
   12.31666660   79.96810150    0.94000000    2.80999994
   12.32055569   77.84110260    1.00000000    2.80999994
   12.32722187   77.84110260    0.98000002    2.80999994
   12.33138847   79.15910339    0.98000002    2.82999992
   12.33444405   80.41649628    0.98000002    2.80999994
   12.33777714   82.90589905    0.98000002    2.82999992
   12.34083271   81.85569763    0.98000002    2.80999994
   12.34416676   79.81990051    0.94000000    2.82999992
   12.34722233   84.86550140    0.95999998    2.80999994
   12.35055637   77.74659729    0.94000000    2.80999994
   12.35361195   85.95800018    0.94000000    2.80999994
   12.35694504   85.57610321    0.92000002    2.80999994
   12.36000061   82.69419861    0.92000002    2.80999994
   12.36333370   76.35800171    0.92000002    2.80999994
   12.36638927   80.85369873    0.86000001    2.82999992
   12.36972237   81.82119751    0.83999997    2.82999992
   12.37305546   75.21659851    0.81999999    2.82999992
   12.37861156   75.21659851    0.81999999    2.82999992
   12.38277817   76.05670166    0.81999999    2.82999992
   12.38583279   82.60220337    0.79000002    2.84999990
   12.38916683   77.26899719    0.79000002    2.80999994
   12.39222240   77.62429810    0.80000001    2.82999992
   12.39555550   78.29209900    0.80000001    2.82999992
   12.39861107   80.01439667    0.79000002    2.82999992
   12.40194416   80.39779663    0.79000002    2.84999990
   12.40527725   81.26210022    0.79000002    2.82999992
   12.40833282   81.79419708    0.80000001    2.82999992
   12.41194439   77.49669647    0.80000001    2.82999992
   12.41527748   82.91760254    0.80000001    2.82999992
   12.41833401   78.31990051    0.79000002    2.82999992
   12.42194462   82.97489929    0.79000002    2.82999992
   12.42527771   82.52649689    0.76999998    2.84999990
   12.42972279   82.52649689    0.76999998    2.82999992
   12.43388939   82.03469849    0.76999998    2.84999990
   12.43722248   76.93979645    0.76999998    2.82999992
   12.44027805   85.20320129    0.75000000    2.84999990
   12.44361115   84.63520050    0.75000000    2.82999992
   12.44694424   77.61609650    0.73000002    2.84999990
   12.44999981   82.06490326    0.73000002    2.84999990
   12.45333290   83.01779938    0.70999998    2.82999992
   12.45666695   81.23490143    0.69000000    2.82999992
   12.45972157   76.37290192    0.69000000    2.84999990
   12.46305561   77.36430359    0.67000002    2.84999990
   12.46638870   82.06770325    0.67000002    2.84999990
   12.46944427   82.60269928    0.67000002    2.84999990
   12.47277737   79.43920135    0.67000002    2.84999990
   12.47611046   79.36250305    0.67000002    2.84999990
   12.48111057   79.36250305    0.67000002    2.84999990
   12.48527813   83.18740082    0.67000002    2.84999990
   12.48833370   78.94770050    0.64999998    2.84999990
   12.49166679   75.30229950    0.64999998    2.84999990
   12.49499989   78.97470093    0.67000002    2.84999990
   12.49833393   77.76329803    0.67000002    2.84999990
   12.50138855   84.51560211    0.67000002    2.84999990
   12.50472260   77.21450043    0.67000002    2.84999990
   12.50777817   83.58499908    0.70999998    2.84999990
   12.51111126   80.40619659    0.73000002    2.84999990
   12.51416683   85.55220032    0.73000002    2.86999989
   12.51749992   80.37329865    0.73000002    2.84999990
   12.52055550   80.87159729    0.73000002    2.84999990
   12.52388859   83.54000092    0.70999998    2.84999990
   12.52722168   77.25000000    0.70999998    2.86999989
   12.53222179   77.25000000    0.69000000    2.84999990
   12.53638935   82.36830139    0.67000002    2.84999990
   12.53944492   78.72219849    0.64999998    2.84999990
   12.54277802   75.84049988    0.63000000    2.86999989
   12.54611111   78.97070313    0.61000001    2.84999990
   12.54972267   80.99250031    0.58999997    2.86999989
   12.55305576   84.32050323    0.61000001    2.84999990
   12.55722237   79.79370117    0.63000000    2.84999990
   12.56055546   83.65540314    0.64999998    2.84999990
   12.56388950   82.58769989    0.64999998    2.84999990
   12.57027817   79.79509735    0.67000002    2.84999990
   12.57861137   84.90059662    0.79000002    2.84999990
   12.58333302   84.90059662    0.79000002    2.84999990
   12.58861065   79.15010071    0.75000000    2.84999990
   12.59222221   78.62339783    0.75000000    2.84999990
   12.59555531   80.96520233    0.76999998    2.84999990
   12.59861088   80.98349762    0.73000002    2.84999990
   12.60194492   77.67539978    0.70999998    2.84999990
   12.60527802   83.26580048    0.69000000    2.84999990
   12.60861111   78.68340302    0.67000002    2.84999990
   12.61194515   78.89700317    0.61000001    2.86999989
   12.61527824   74.52480316    0.61000001    2.84999990
   12.61916637   83.48560333    0.61000001    2.86999989
   12.62250042   79.79869843    0.61000001    2.86999989
   12.62555599   80.30970001    0.61000001    2.86999989
   12.62888908   78.40229797    0.61000001    2.86999989
   12.63444424   78.40229797    0.61000001    2.84999990
   12.63888836   81.72889709    0.63000000    2.86999989
   12.64194393   83.06439972    0.64999998    2.86999989
   12.64527798   76.14140320    0.67000002    2.84999990
   12.64861107   83.07820129    0.70999998    2.84999990
   12.65166664   76.31150055    0.69000000    2.86999989
   12.65527725   77.56400299    0.67000002    2.86999989
   12.65861034   77.55699921    0.64999998    2.86999989
   12.66166592   83.73030090    0.63000000    2.86999989
   12.66499996   86.48310089    0.61000001    2.86999989
   12.66805553   88.18890381    0.61000001    2.86999989
   12.67166710   82.69779968    0.61000001    2.86999989
   12.67500019   85.50309753    0.61000001    2.86999989
   12.67833328   89.61039734    0.61000001    2.86999989
   12.68138885   84.28890228    0.58999997    2.86999989
   12.68583298   84.28890228    0.61000001    2.86999989
   12.69000053   88.50949860    0.58999997    2.86999989
   12.69305515   90.15969849    0.61000001    2.86999989
   12.69750023   85.52249908    0.63000000    2.86999989
   12.70111084   85.86190033    0.63000000    2.86999989
   12.70472240   85.65820313    0.63000000    2.89000010
   12.70833302   81.76820374    0.63000000    2.86999989
   12.71166611   82.68800354    0.61000001    2.86999989
   12.71500015   85.00229645    0.63000000    2.86999989
   12.71833324   86.81870270    0.61000001    2.86999989
   12.72194386   87.42530060    0.61000001    2.86999989
   12.72555542   85.38749695    0.63000000    2.86999989
   12.72916603   86.96240234    0.63000000    2.86999989
   12.73305511   88.30799866    0.63000000    2.86999989
   12.73722267   88.30799866    0.63000000    2.86999989
   12.74138927   81.86309814    0.64999998    2.86999989
   12.74472237   81.75669861    0.64999998    2.86999989
   12.74805546   82.89160156    0.64999998    2.86999989
   12.75111103   83.76830292    0.58999997    2.86999989
   12.75444412   87.61859894    0.58999997    2.86999989
   12.75777817   83.10929871    0.55000001    2.86999989
   12.76111126   86.28610229    0.56999999    2.89000010
   12.76416683   83.99169922    0.56999999    2.86999989
   12.76749992   87.84929657    0.58999997    2.86999989
   12.77083302   86.54750061    0.61000001    2.86999989
   12.77416611   85.29380035    0.58999997    2.86999989
   12.77750015   89.80660248    0.63000000    2.86999989
   12.78111076   85.59100342    0.63000000    2.86999989
   12.78444481   84.01699829    0.63000000    2.86999989
   12.78861141   84.01699829    0.67000002    2.86999989
   12.79277802   88.54270172    0.69000000    2.86999989
   12.79611111   81.75219727    0.69000000    2.86999989
   12.80027771   87.06269836    0.67000002    2.89000010
   12.80361176   84.15779877    0.69000000    2.86999989
   12.80694485   83.10910034    0.69000000    2.86999989
   12.81027794   87.72370148    0.69000000    2.86999989
   12.81333351   92.22930145    0.73000002    2.86999989
   12.81666660   90.79699707    0.73000002    2.89000010
   12.81999969   80.90699768    0.73000002    2.89000010
   12.82305527   83.12879944    0.69000000    2.86999989
   12.82638836   82.88130188    0.69000000    2.86999989
   12.84972191   82.88130188    0.69000000    2.86999989
   12.85416698   79.09649658    0.70999998    2.89000010
   12.85750008   81.63400269    0.69000000    2.86999989
   12.86055565   78.81520081    0.67000002    2.86999989
   12.86388969   79.78639984    0.67000002    2.89000010
   12.86722279   86.92320251    0.67000002    2.89000010
   12.87027836   83.29260254    0.64999998    2.89000010
   12.87361145   81.54799652    0.63000000    2.89000010
   12.87694454   81.16190338    0.63000000    2.89000010
   12.88055611   84.58190155    0.56999999    2.89000010
   12.88416672   80.59320068    0.56999999    2.89000010
   12.88749981   83.31829834    0.56999999    2.89000010
   12.89111137   80.74629974    0.61000001    2.89000010
   12.89472198   79.44100189    0.61000001    2.89000010
   12.89694405   80.87770081    0.61000001    2.89000010
   12.90166664   80.87770081    0.63000000    2.89000010
   12.90638828   82.36660004    0.67000002    2.89000010
   12.91055489   79.17420197    0.67000002    2.89000010
   12.91472149   79.85859680    0.69000000    2.89000010
   12.91833401   80.14440155    0.70999998    2.89000010
   12.92222214   85.22709656    0.69000000    2.89000010
   12.92583370   85.47930145    0.69000000    2.89000010
   12.92944431   80.69660187    0.69000000    2.89000010
   12.93305588   83.46749878    0.67000002    2.89000010
   12.93722248   81.53019714    0.69000000    2.89000010
   12.94083309   83.55940247    0.70999998    2.91000009
   12.94444466   82.24919891    0.70999998    2.89000010
   12.94694424   78.03440094    0.73000002    2.89000010
   12.95333290   78.03440094    0.75000000    2.89000010
   12.95805550   87.85600281    0.76999998    2.89000010
   12.96138859   87.82209778    0.79000002    2.89000010
   12.96500015   82.03209686    0.79000002    2.89000010
   12.96861076   84.73549652    0.79000002    2.89000010
   12.97222137   81.87619781    0.79000002    2.89000010
   12.97583294   79.51300049    0.79000002    2.86999989
   12.97944355   78.88999939    0.79000002    2.89000010
   12.98305511   84.10549927    0.81999999    2.86999989
   12.98666668   85.36409760    0.80000001    2.89000010
   12.99027824   82.57409668    0.80000001    2.89000010
   12.99388885   82.43430328    0.80000001    2.89000010
   12.99694443   81.61260223    0.79000002    2.89000010
   12.99944496   73.84100342    0.79000002    2.89000010
   13.00472260   73.84100342    0.79000002    2.89000010
   13.00916672   80.21990204    0.81999999    2.89000010
   13.01249981   82.97270203    0.81999999    2.89000010
   13.01555538   89.00219727    0.83999997    2.89000010
   13.01888847   85.28179932    0.81999999    2.89000010
   13.02222157   82.19850159    0.81999999    2.89000010
   13.02583313   78.14129639    0.80000001    2.89000010
   13.02916622   83.88200378    0.79000002    2.86999989
   13.03305531   82.89089966    0.79000002    2.89000010
   13.03694534   86.36969757    0.79000002    2.89000010
   13.04027843   85.87799835    0.79000002    2.89000010
   13.04416752   83.53579712    0.73000002    2.91000009
   13.04694462   85.12210083    0.70999998    2.91000009
   13.04944515   85.07700348    0.70999998    2.89000010
   13.05638885   85.07700348    0.70999998    2.89000010
   13.06111145   82.87770081    0.70999998    2.89000010
   13.06555557   79.69129944    0.73000002    2.91000009
   13.06972218   86.39620209    0.76999998    2.89000010
   13.07333374   82.05819702    0.76999998    2.89000010
   13.07694435   85.65019989    0.80000001    2.89000010
   13.08027744   83.01959991    0.81999999    2.89000010
   13.08388901   84.27140045    0.81999999    2.89000010
   13.08777714   85.05680084    0.83999997    2.91000009
   13.09166622   84.08270264    0.81999999    2.91000009
   13.09555531   79.78029633    0.81999999    2.89000010
   13.09916592   81.40650177    0.81999999    2.89000010
   13.10305595   81.78189850    0.81999999    2.89000010
   13.10750008   81.78189850    0.81999999    2.89000010
   13.11194515   82.66649628    0.79000002    2.91000009
   13.11583328   82.73860168    0.79000002    2.89000010
   13.11972237   85.92160034    0.75000000    2.91000009
   13.12361145   78.83540344    0.73000002    2.89000010
   13.12750053   81.74739838    0.73000002    2.91000009
   13.13138866   84.12259674    0.70999998    2.91000009
   13.13500023   87.73349762    0.69000000    2.91000009
   13.13888836   87.73509979    0.70999998    2.89000010
   13.14222240   82.04540253    0.70999998    2.91000009
   13.14555550   82.02739716    0.70999998    2.91000009
   13.14638901   88.03410339    0.70999998    2.91000009
   13.15027714   82.26029968    0.70999998    2.89000010
   13.15444374   81.19259644    0.70999998    2.91000009
   13.16083336   81.19259644    0.73000002    2.91000009
   13.16777802   84.34940338    0.73000002    2.89000010
   13.17555618   87.23750305    0.75000000    2.91000009
   13.18222237   82.73490143    0.73000002    2.91000009
   13.18944454   85.65380096    0.75000000    2.91000009
   13.19361115   85.55549622    0.73000002    2.91000009
   13.19750023   83.13659668    0.75000000    2.91000009
   13.19861126   85.07550049    0.75000000    2.91000009
   13.20194435   85.12439728    0.75000000    2.91000009
   13.20527744   84.40440369    0.75000000    2.91000009
   13.21194458   84.40440369    0.75000000    2.91000009
   13.21638870   90.92510223    0.73000002    2.91000009
   13.21972179   87.22280121    0.73000002    2.91000009
   13.22333336   83.29440308    0.70999998    2.91000009
   13.22694397   79.94609833    0.69000000    2.91000009
   13.23027706   82.05870056    0.69000000    2.91000009
   13.23361111   81.95259857    0.70999998    2.91000009
   13.23694515   87.35479736    0.69000000    2.91000009
   13.24055576   83.86070251    0.67000002    2.91000009
   13.24388885   81.19480133    0.67000002    2.91000009
   13.24694443   85.69960022    0.67000002    2.91000009
   13.24833393   89.49870300    0.67000002    2.91000009
   13.25194454   87.10520172    0.67000002    2.91000009
   13.25527763   82.41419983    0.73000002    2.93000007
   13.25833321   84.79949951    0.75000000    2.91000009
   13.26277733   84.79949951    0.79000002    2.93000007
   13.26666641   83.76249695    0.79000002    2.91000009
   13.26999950   79.42140198    0.81999999    2.91000009
   13.27305508   81.31430054    0.81999999    2.91000009
   13.27638817   78.62529755    0.86000001    2.91000009
   13.27944374   80.80190277    0.83999997    2.91000009
   13.28277779   80.07599640    0.83999997    2.91000009
   13.28583336   84.77680206    0.81999999    2.91000009
   13.28916740   81.23320007    0.81999999    2.89000010
   13.29222298   77.40959930    0.79000002    2.91000009
   13.29555607   86.05629730    0.76999998    2.91000009
   13.29638958   81.44180298    0.70999998    2.91000009
   13.29888916   82.65260315    0.69000000    2.91000009
   13.30222225   83.62000275    0.73000002    2.91000009
   13.30527782   82.98960114    0.73000002    2.91000009
   13.30861092   80.05410004    0.64999998    2.93000007
   13.31388950   80.05410004    0.63000000    2.93000007
   13.31805515   84.39579773    0.63000000    2.91000009
   13.32111073   86.70989990    0.63000000    2.91000009
   13.32444477   84.36060333    0.70999998    2.91000009
   13.32777786   82.95420074    0.70999998    2.91000009
   13.33083344   79.22820282    0.69000000    2.91000009
   13.33416653   79.95169830    0.67000002    2.91000009
   13.33722210   82.58630371    0.58999997    2.91000009
   13.34055519   85.66929626    0.52999997    2.93000007
   13.34361076   88.26090240    0.55000001    2.91000009
   13.34638882   82.11869812    0.51999998    2.93000007
   13.34722233   81.22530365    0.55000001    2.91000009
   13.35027790   85.23310089    0.51999998    2.91000009
   13.35361195   83.70680237    0.51999998    2.91000009
   13.35666752   89.46130371    0.50000000    2.93000007
   13.36000061   85.25229645    0.51999998    2.93000007
   13.36500072   85.25229645    0.51999998    2.93000007
   13.36916637   84.75370026    0.51999998    2.93000007
   13.37222195   84.28639984    0.55000001    2.93000007
   13.37555599   86.81919861    0.55000001    2.93000007
   13.37861156   84.91629791    0.63000000    2.91000009
   13.38194466   82.93830109    0.63000000    2.91000009
   13.38500023   81.28279877    0.69000000    2.93000007
   13.38833332   83.65509796    0.67000002    2.93000007
   13.39138889   81.01860046    0.69000000    2.93000007
   13.39472198   81.42140198    0.67000002    2.91000009
   13.39638901   82.26069641    0.63000000    2.91000009
   13.39833355   82.39450073    0.63000000    2.91000009
   13.40138817   83.01210022    0.64999998    2.93000007
   13.40472221   82.49880219    0.63000000    2.93000007
   13.40777779   80.47789764    0.64999998    2.93000007
   13.41111088   79.50830078    0.64999998    2.93000007
   13.41611099   79.50830078    0.56999999    2.91000009
   13.42027855   78.65630341    0.56999999    2.93000007
   13.42361164   83.31279755    0.56999999    2.93000007
   13.42666721   81.55650330    0.55000001    2.93000007
   13.43000031   89.76339722    0.61000001    2.93000007
   13.43305588   79.20860291    0.61000001    2.93000007
   13.43638897   89.35420227    0.56999999    2.93000007
   13.43944454   82.96520233    0.61000001    2.93000007
   13.44277763   88.07599640    0.63000000    2.93000007
   13.44583321   87.14060211    0.61000001    2.93000007
   13.44638920   87.60040283    0.61000001    2.93000007
   13.44944477   86.27359772    0.63000000    2.94000006
   13.45249939   86.74870300    0.58999997    2.93000007
   13.45583344   85.08209991    0.58999997    2.93000007
   13.45888901   82.41639709    0.56999999    2.93000007
   13.46222210   87.45500183    0.58999997    2.93000007
   13.46749973   87.45500183    0.61000001    2.93000007
   13.47138882   82.66159821    0.58999997    2.93000007
   13.47472191   86.07279968    0.61000001    2.93000007
   13.47777748   83.14080048    0.61000001    2.93000007
   13.48111057   84.33529663    0.58999997    2.93000007
   13.48416710   79.68900299    0.58999997    2.93000007
   13.48750019   80.69730377    0.58999997    2.93000007
   13.49055576   80.93190002    0.56999999    2.91000009
   13.49388885   82.85910034    0.56999999    2.93000007
   13.49638939   80.19650269    0.56999999    2.93000007
   13.49750042   81.65090179    0.56999999    2.93000007
   13.50055599   84.48960114    0.58999997    2.93000007
   13.50388908   77.94200134    0.61000001    2.93000007
   13.50694466   80.63330078    0.64999998    2.93000007
   13.51027775   77.19450378    0.63000000    2.93000007
   13.51333332   78.83599854    0.61000001    2.94000006
   13.51861095   78.83599854    0.58999997    2.93000007
   13.52277756   82.87329865    0.58999997    2.93000007
   13.52583313   79.28450012    0.58999997    2.93000007
   13.52916622   87.67939758    0.61000001    2.93000007
   13.53222179   78.06009674    0.64999998    2.93000007
   13.53555584   85.07489777    0.64999998    2.93000007
   13.53861141   82.04019928    0.69000000    2.93000007
   13.54194450   90.64610291    0.69000000    2.93000007
   13.54500008   79.85729980    0.64999998    2.94000006
   13.54638958   83.21070099    0.64999998    2.93000007
   13.54861164   80.48819733    0.64999998    2.93000007
   13.55166721   82.41600037    0.64999998    2.93000007
   13.55500031   88.42009735    0.64999998    2.93000007
   13.55805588   80.34420013    0.70999998    2.93000007
   13.56138897   80.98059845    0.70999998    2.93000007
   13.56444454   80.44200134    0.70999998    2.93000007
   13.56972218   80.44200134    0.70999998    2.93000007
   13.57388878   83.96489716    0.67000002    2.94000006
   13.57694435   86.68340302    0.67000002    2.94000006
   13.58027744   82.83429718    0.67000002    2.94000006
   13.58333302   82.85089874    0.63000000    2.93000007
   13.58666611   81.39209747    0.63000000    2.93000007
   13.58972168   81.89479828    0.67000002    2.93000007
   13.59305477   83.55570221    0.69000000    2.93000007
   13.59611034   81.92880249    0.67000002    2.93000007
   13.59666634   86.60050201    0.67000002    2.93000007
   13.60000038   82.57540131    0.69000000    2.93000007
   13.60305595   80.62290192    0.70999998    2.93000007
   13.60638905   83.11340332    0.67000002    2.93000007
   13.60944462   87.93160248    0.69000000    2.93000007
   13.61277771   81.16929626    0.64999998    2.94000006
   13.61583328   79.23619843    0.67000002    2.94000006
   13.62083340   79.23619843    0.64999998    2.93000007
   13.62500000   78.67169952    0.67000002    2.93000007
   13.62833309   80.42449951    0.67000002    2.93000007
   13.63138866   82.44370270    0.61000001    2.93000007
   13.63472176   86.04509735    0.58999997    2.94000006
   13.63777733   82.01909637    0.55000001    2.94000006
   13.64111137   80.49690247    0.55000001    2.94000006
   13.64416695   85.70130157    0.55000001    2.94000006
   13.64666653   83.12280273    0.56999999    2.94000006
   13.64777756   80.71219635    0.56999999    2.94000006
   13.65083313   79.23680115    0.58999997    2.94000006
   13.65388870   80.44290161    0.58999997    2.94000006
   13.65722179   80.21510315    0.64999998    2.94000006
   13.66027737   78.46170044    0.73000002    2.94000006
   13.66361046   80.03209686    0.70999998    2.93000007
   13.66666698   80.46440125    0.64999998    2.94000006
   13.67222214   80.46440125    0.75000000    2.93000007
   13.67611122   84.91619873    0.63000000    2.94000006
   13.67944431   82.02469635    0.63000000    2.94000006
   13.68249989   79.93930054    0.63000000    2.94000006
   13.68583298   85.99759674    0.56999999    2.94000006
   13.68888855   83.10330200    0.56999999    2.94000006
   13.69222260   83.57350159    0.56999999    2.94000006
   13.69527817   82.61589813    0.56999999    2.94000006
   13.69666672   85.14479828    0.61000001    2.94000006
   13.69888878   80.57499695    0.61000001    2.94000006
   13.70194435   85.16329956    0.69000000    2.94000006
   13.70527744   82.55100250    0.67000002    2.94000006
   13.70833302   85.62920380    0.70999998    2.93000007
   13.71166611   83.49269867    0.70999998    2.93000007
   13.71472168   85.20040131    0.75000000    2.93000007
   13.71805477   80.96859741    0.73000002    2.93000007
   13.72333336   80.96859741    0.73000002    2.94000006
   13.72749996   81.30789948    0.75000000    2.94000006
   13.73055553   82.70240021    0.73000002    2.94000006
   13.73388958   87.53350067    0.70999998    2.94000006
   13.73694515   85.43019867    0.70999998    2.94000006
   13.74027824   83.99400330    0.73000002    2.94000006
   13.74333382   82.35790253    0.69000000    2.93000007
   13.74666691   88.16660309    0.70999998    2.94000006
   13.74722290   82.09040070    0.70999998    2.94000006
   13.75027752   80.99669647    0.69000000    2.94000006
   13.75361156   88.04319763    0.70999998    2.94000006
   13.75666714   85.22869873    0.70999998    2.94000006
   13.76000023   81.25330353    0.70999998    2.93000007
   13.76305580   87.27390289    0.70999998    2.94000006
   13.76638889   83.83760071    0.69000000    2.94000006
   13.76944447   85.38649750    0.69000000    2.93000007
   13.77444458   85.38649750    0.69000000    2.93000007
   13.77861118   87.85729980    0.67000002    2.94000006
   13.78166676   83.54100037    0.69000000    2.94000006
   13.78500080   88.40390015    0.69000000    2.94000006
   13.78805637   86.48010254    0.70999998    2.94000006
   13.79138947   84.45739746    0.73000002    2.94000006
   13.79444504   82.75080109    0.75000000    2.93000007
   13.79722309   84.32859802    0.75000000    2.93000007
   13.79805565   82.19309998    0.75000000    2.93000007
   13.80138874   82.15339661    0.73000002    2.93000007
   13.80444431   82.46990204    0.73000002    2.93000007
   13.80777836   83.07910156    0.75000000    2.93000007
   13.81083393   84.05930328    0.75000000    2.93000007
   13.81416702   82.45590210    0.75000000    2.93000007
   13.81722260   81.53379822    0.75000000    2.94000006
   13.82055569   87.82669830    0.70999998    2.94000006
   13.82555580   87.82669830    0.73000002    2.94000006
   13.82972240   83.80539703    0.67000002    2.93000007
   13.83305550   87.95120239    0.67000002    2.94000006
   13.83611107   87.15969849    0.64999998    2.94000006
   13.83944416   85.18139648    0.64999998    2.94000006
   13.84249973   89.17929840    0.63000000    2.94000006
   13.84583282   85.32250214    0.63000000    2.94000006
   13.86277771   82.84349823    0.63000000    2.94000006
   13.86555576   84.16549683    0.64999998    2.94000006
   13.86888885   87.93740082    0.69000000    2.94000006
   13.87194443   87.18789673    0.69000000    2.94000006
   13.87694454   87.18789673    0.69000000    2.94000006
   13.88083363   82.82689667    0.69000000    2.94000006
   13.88416672   84.73339844    0.70999998    2.93000007
   13.88722229   89.21990204    0.67000002    2.94000006
   13.89055538   85.94879913    0.64999998    2.94000006
   13.89361095   85.29119873    0.63000000    2.94000006
   13.89694405   82.66770172    0.63000000    2.94000006
   13.89999962   83.93569946    0.61000001    2.94000006
   13.90333271   88.87729645    0.61000001    2.94000006
   13.90638828   82.00289917    0.61000001    2.94000006
   13.90972137   85.37229919    0.61000001    2.96000004
   13.91249943   77.71810150    0.61000001    2.94000006
   13.91333294   85.90920258    0.58999997    2.94000006
   13.91638851   89.32589722    0.55000001    2.94000006
   13.91972256   83.07160187    0.52999997    2.96000004
   13.92277813   86.90129852    0.50000000    2.96000004
   13.92805576   86.90129852    0.51999998    2.94000006
   13.93222237   81.93340302    0.51999998    2.94000006
   13.93527794   89.48600006    0.55000001    2.96000004
   13.93861103   85.68280029    0.52999997    2.94000006
   13.94166660   87.80770111    0.52999997    2.96000004
   13.94499969   81.26039886    0.51999998    2.94000006
   13.94805527   84.22260284    0.51999998    2.94000006
   13.95138836   83.87490082    0.52999997    2.94000006
   13.95444393   83.22440338    0.52999997    2.94000006
   13.95777798   86.32199860    0.47999999    2.96000004
   13.96083355   83.28749847    0.47999999    2.94000006
   13.96249962   87.33200073    0.44000000    2.98000002
   13.96444416   80.75990295    0.44000000    2.96000004
   13.96749973   89.91929626    0.47999999    2.96000004
   13.97083282   88.71340179    0.50000000    2.96000004
   13.97388840   85.71530151    0.55000001    2.94000006
   13.97916603   85.71530151    0.56999999    2.94000006
   13.98333359   81.65170288    0.56999999    2.96000004
   13.98638916   88.42729950    0.52999997    2.96000004
   13.98972225   85.98590088    0.51999998    2.96000004
   13.99277782   88.04479980    0.51999998    2.96000004
   13.99611092   87.07140350    0.51999998    2.96000004
   13.99916649   87.82099915    0.51999998    2.94000006
   14.00249958   85.44010162    0.51999998    2.94000006
   14.00555515   83.46119690    0.51999998    2.94000006
   14.00888920   83.49960327    0.55000001    2.96000004
   14.01194477   79.94059753    0.58999997    2.96000004
   14.01277733   81.16750336    0.56999999    2.94000006
   14.01555538   83.61599731    0.52999997    2.96000004
   14.01888847   82.54859924    0.51999998    2.96000004
   14.02194405   80.36280060    0.52999997    2.96000004
   14.02527714   83.38210297    0.55000001    2.96000004
   14.03027725   83.38210297    0.55000001    2.96000004
   14.03444481   85.01139832    0.56999999    2.96000004
   14.03777790   84.63410187    0.55000001    2.94000006
   14.04083347   86.94470215    0.55000001    2.96000004
   14.04416752   82.11859894    0.51999998    2.94000006
   14.04722309   86.57790375    0.55000001    2.96000004
   14.05055618   79.98670197    0.55000001    2.94000006
   14.05361176   85.30190277    0.55000001    2.96000004
   14.05694485   82.97920227    0.58999997    2.96000004
   14.06000042   84.93479919    0.55000001    2.96000004
   14.06277752   81.84429932    0.56999999    2.96000004
   14.06361103   84.38819885    0.58999997    2.94000006
   14.06694412   81.90019989    0.58999997    2.96000004
   14.06999969   85.32299805    0.58999997    2.96000004
   14.07333374   81.46150208    0.64999998    2.96000004
   14.07638836   84.96739960    0.67000002    2.96000004
   14.08166695   84.96739960    0.64999998    2.94000006
   14.08555508   86.69580078    0.67000002    2.96000004
   14.08888817   80.83689880    0.69000000    2.94000006
   14.09194374   85.92829895    0.70999998    2.94000006
   14.09527779   81.47290039    0.70999998    2.94000006
   14.09833336   83.06670380    0.70999998    2.94000006
   14.10166740   82.65540314    0.73000002    2.96000004
   14.10472298   82.66230011    0.70999998    2.94000006
   14.10805607   83.94920349    0.73000002    2.94000006
   14.11111164   85.46510315    0.70999998    2.94000006
   14.11277771   86.04979706    0.69000000    2.96000004
   14.11472225   86.63980103    0.69000000    2.96000004
   14.11805534   84.70870209    0.69000000    2.96000004
   14.12111092   86.22109985    0.67000002    2.96000004
   14.12444496   83.09799957    0.67000002    2.94000006
   14.12750053   80.16390228    0.73000002    2.94000006
   14.13277817   80.16390228    0.73000002    2.96000004
   14.13694477   83.98179626    0.76999998    2.94000006
   14.14000034   82.96109772    0.76999998    2.94000006
   14.14333344   82.93669891    0.79000002    2.96000004
   14.14638901   82.96749878    0.79000002    2.96000004
   14.14972210   79.94760132    0.79000002    2.94000006
   14.15277767   79.46600342    0.76999998    2.94000006
   14.15611076   80.79570007    0.73000002    2.94000006
   14.15916634   81.96350098    0.64999998    2.94000006
   14.16249943   77.98680115    0.69000000    2.94000006
   14.16277695   77.39880371    0.70999998    2.96000004
   14.16611099   82.48989868    0.61000001    2.96000004
   14.16916656   79.60350037    0.63000000    2.94000006
   14.17250061   77.02130127    0.58999997    2.96000004
   14.17555618   78.59470367    0.55000001    2.96000004
   14.17888927   83.81109619    0.55000001    2.96000004
   14.18388939   83.81109619    0.55000001    2.96000004
   14.18805599   84.46160126    0.52999997    2.96000004
   14.19111156   80.12500000    0.52999997    2.96000004
   14.19444466   82.02729797    0.50000000    2.96000004
   14.19750023   81.43499756    0.50000000    2.96000004
   14.20083332   77.68599701    0.51999998    2.96000004
   14.20388889   81.29679871    0.52999997    2.96000004
   14.20722198   77.31140137    0.55000001    2.96000004
   14.21027756   77.31680298    0.55000001    2.96000004
   14.21305561   80.05410004    0.56999999    2.96000004
   14.21388912   81.34909821    0.56999999    2.96000004
   14.21722221   79.98429871    0.61000001    2.96000004
   14.22027779   80.85929871    0.61000001    2.96000004
   14.22361088   78.36139679    0.63000000    2.96000004
   14.22666645   83.16040039    0.64999998    2.96000004
   14.22999954   87.60870361    0.63000000    2.96000004
   14.23500061   87.60870361    0.63000000    2.94000006
   14.23916721   82.60089874    0.63000000    2.98000002
   14.24250031   80.03929901    0.63000000    2.98000002
   14.24555588   79.09339905    0.69000000    2.98000002
   14.24888897   87.05180359    0.69000000    2.96000004
   14.25194454   81.88120270    0.69000000    2.96000004
   14.25527763   83.79679871    0.55000001    2.96000004
   14.25833321   81.34780121    0.56999999    2.96000004
   14.26166630   79.55110168    0.55000001    2.96000004
   14.26305580   84.40789795    0.55000001    2.96000004
   14.26500034   82.50309753    0.55000001    2.96000004
   14.26833344   83.07790375    0.58999997    2.96000004
   14.27138901   81.06320190    0.56999999    2.96000004
   14.27472210   80.70590210    0.47999999    2.98000002
   14.27777767   84.93260193    0.47999999    2.96000004
   14.28111076   84.11599731    0.50000000    2.98000002
   14.28638935   84.11599731    0.58999997    2.98000002
   14.29027843   82.04979706    0.58999997    2.98000002
   14.29361153   78.49700165    0.63000000    2.96000004
   14.29666710   81.87310028    0.70999998    2.96000004
   14.30000019   83.17220306    0.64999998    2.96000004
   14.30305576   79.45670319    0.73000002    2.96000004
   14.30638885   79.20500183    0.79000002    2.96000004
   14.30944443   79.78679657    0.79000002    2.96000004
   14.31277752   86.26069641    0.51999998    2.96000004
   14.31333351   81.64189911    0.51999998    2.96000004
   14.31638908   80.33000183    0.47999999    2.96000004
   14.31972218   82.76290131    0.55000001    2.98000002
   14.32277775   81.65139771    0.67000002    2.96000004
   14.32611084   79.02970123    0.67000002    2.98000002
   14.32916641   82.92530060    0.56999999    2.98000002
   14.33249950   79.74759674    0.55000001    2.96000004
   14.33749962   79.74759674    0.56999999    2.96000004
   14.34166622   81.40190125    0.64999998    2.96000004
   14.34472179   78.35410309    0.70999998    2.96000004
   14.34805489   78.74490356    0.70999998    2.94000006
   14.35111141   74.00299835    0.70999998    2.96000004
   14.35444450   78.63110352    0.73000002    2.98000002
   14.35750008   75.54479980    0.75000000    2.96000004
   14.36083412   77.59249878    0.69000000    2.94000006
   14.36333370   80.16850281    0.73000002    2.96000004
   14.36416721   78.51580048    0.73000002    2.96000004
   14.36750031   77.11289978    0.73000002    2.96000004
   14.37055588   77.89900208    0.64999998    2.96000004
   14.37388897   79.46589661    0.61000001    2.98000002
   14.37694454   81.66249847    0.63000000    2.98000002
   14.38027763   80.35119629    0.79000002    2.98000002
   14.38333321   81.79180145    0.75000000    2.96000004
   14.38861084   81.79180145    0.80000001    2.98000002
   14.39277744   81.77870178    1.01999998    2.98000002
   14.39583302   78.06259918    1.01999998    2.98000002
   14.39916611   80.31230164    1.11000001    2.98000002
   14.40222168   79.71649933    1.21000004    2.96000004
   14.40555477   80.31009674    0.76999998    2.96000004
   14.40861034   83.38529968    0.76999998    2.98000002
   14.41194439   80.69830322    0.80000001    2.98000002
   14.41333294   84.91010284    0.80000001    2.98000002
   14.41527748   80.32060242    0.75000000    2.98000002
   14.41861153   81.12270355    0.75000000    2.98000002
   14.42166710   86.99549866    0.67000002    2.96000004
   14.42500019   82.89060211    0.81999999    2.98000002
   14.42805576   86.05599976    0.75000000    2.96000004
   14.43138885   84.86470032    0.75000000    2.96000004
   14.43444443   83.33080292    0.75000000    2.98000002
   14.43972206   83.33080292    0.70999998    2.98000002
   14.44388866   78.54750061    0.75000000    2.96000004
   14.44722271   78.62740326    0.76999998    2.96000004
   14.45027733   85.09919739    0.67000002    2.98000002
   14.45361137   82.96019745    0.67000002    2.98000002
   14.45666695   83.04509735    0.64999998    2.98000002
   14.46000004   84.49990082    0.67000002    2.96000004
   14.46305561   81.73549652    0.70999998    2.98000002
   14.46361065   81.14920044    0.70999998    2.96000004
   14.46666622   83.01889801    0.83999997    2.98000002
   14.46999931   82.17669678    0.83999997    2.98000002
   14.47305489   82.44380188    0.81999999    2.98000002
   14.47638798   79.49720001    0.81999999    2.98000002
   14.47944355   83.14179993    0.73000002    2.96000004
   14.48277760   84.47170258    0.69000000    2.96000004
   14.48583317   83.18019867    0.63000000    2.98000002
   14.49111176   83.18019867    0.52999997    2.98000002
   14.49499989   81.14129639    0.55000001    2.98000002
   14.49833393   84.56880188    0.55000001    2.96000004
   14.50138855   76.94879913    0.56999999    2.96000004
   14.50472260   82.35649872    0.56999999    2.96000004
   14.50777817   84.03359985    0.56999999    2.98000002
   14.51111126   79.24089813    0.55000001    2.98000002
   14.51361084   79.75060272    0.55000001    2.98000002
   14.51444435   80.79139709    0.55000001    2.98000002
   14.51777744  129.88699341    0.56999999    2.96000004
   14.52083302   82.96260071    0.55000001    2.98000002
   14.52416611   81.09110260    0.47999999    2.98000002
   14.52722168   81.94280243    0.47999999    2.96000004
   14.53055573   85.18419647    0.50000000    2.98000002
   14.53361130   82.58789825    0.50000000    2.98000002
   14.53694534   82.42949677    0.50000000    2.98000002
   14.54222298   82.42949677    0.52999997    2.98000002
   14.54638958   81.28579712    0.46000001    2.98000002
   14.54944515   81.61299896    0.44000000    2.98000002
   14.55277824   85.22039795    0.38000000    2.98000002
   14.55583382   83.47850037    0.38000000    2.98000002
   14.55916691   84.30429840    0.34000000    2.98000002
   14.56222248   86.28759766    0.34000000    2.98000002
   14.56361103   78.26540375    0.38000000    2.96000004
   14.56555557   82.27649689    0.38000000    2.96000004
   14.56888866   79.65309906    0.44000000    2.98000002
   14.57194424   81.44779968    0.61000001    2.98000002
   14.57527733   85.58959961    0.67000002    2.98000002
   14.57833290   85.83540344    0.58999997    2.98000002
   14.58166695   80.54440308    0.58999997    2.98000002
   14.58472157   83.39550018    0.63000000    2.98000002
   14.58805561   82.21060181    0.61000001    2.98000002
   14.59333324   82.21060181    0.51999998    2.98000002
   14.59749985   83.15509796    0.58999997    2.98000002
   14.60055637   82.93720245    0.64999998    2.98000002
   14.60388947   79.91380310    0.69000000    2.98000002
   14.60694504   80.44480133    0.51999998    2.98000002
   14.61027813   80.86150360    0.55000001    2.98000002
   14.61333370   77.26270294    0.47999999    2.98000002
   14.61388969   80.55950165    0.47999999    2.98000002
   14.61722279   81.13819885    0.61000001    2.98000002
   14.62027836   79.70570374    0.64999998    2.96000004
   14.62361145   81.27349854    0.55000001    2.96000004
   14.62666702   81.78119659    0.52999997    2.96000004
   14.63000011   84.05280304    0.46000001    2.98000002
   14.63305569   79.61720276    0.46000001    2.98000002
   14.63638878   81.48960114    0.44000000    2.98000002
   14.63944435   77.75820160    0.50000000    2.98000002
   14.64444447   77.75820160    0.61000001    2.98000002
   14.64861107   81.01409912    0.63000000    2.98000002
   14.65194416   85.04039764    0.52999997    2.98000002
   14.65499973   84.95870209    0.55000001    2.98000002
   14.65833282   82.64649963    0.61000001    2.98000002
   14.66138840   86.20510101    0.58999997    2.98000002
   14.66388893   82.82360077    0.58999997    2.98000002
   14.66472149   86.71549988    0.58999997    2.98000002
   14.66805553   87.27559662    0.55000001    2.98000002
   14.67111111   80.88220215    0.55000001    2.98000002
   14.67444515   85.13639832    0.55000001    2.98000002
   14.67750072   87.37709808    0.51999998    2.98000002
   14.68083382   84.78160095    0.47999999    3.00000000
   14.68388939   83.93209839    0.46000001    2.98000002
   14.68722248   82.41310120    0.44000000    2.98000002
   14.69027805   83.03289795    0.44000000    3.00000000
   14.69583321   83.03289795    0.41999999    2.98000002
   14.69972229   85.53119659    0.50000000    2.98000002
   14.70305538   79.61460114    0.50000000    2.98000002
   14.70611095   81.91929626    0.50000000    2.98000002
   14.70944405   78.59339905    0.50000000    2.98000002
   14.71249962   85.04820251    0.50000000    2.98000002
   14.71388912   81.71849823    0.47999999    2.98000002
   14.71611118   80.64050293    0.47999999    2.98000002
   14.71916580   83.05709839    0.47999999    2.98000002
   14.72249985   82.57830048    0.50000000    2.98000002
   14.72555542   81.24970245    0.50000000    2.98000002
   14.72888851   82.35240173    0.50000000    2.98000002
   14.73194408   79.23639679    0.58999997    2.98000002
   14.73527813   78.11299896    0.56999999    2.98000002
   14.73833370   80.39689636    0.64999998    2.98000002
   14.74166679   79.25389862    0.46000001    3.00000000
   14.74694443   79.25389862    0.41999999    2.98000002
   14.75111103   78.21730042    0.41999999    2.98000002
   14.75416660   79.35060120    0.52999997    2.98000002
   14.75749969   81.94460297    0.51999998    2.98000002
   14.76055527   77.95539856    0.55000001    2.98000002
   14.76388931   79.07160187    0.47999999    2.98000002
   14.76416683   80.13300323    0.47999999    2.98000002
   14.76749992   81.70500183    0.44000000    2.98000002
   14.77055550   79.55460358    0.52999997    2.98000002
   14.77388859   80.82659912    0.52999997    2.98000002
   14.77694416   75.88780212    0.52999997    2.98000002
   14.78027725   83.51770020    0.63000000    2.98000002
   14.78333378   83.25650024    0.55000001    2.98000002
   14.78666687   83.74759674    0.56999999    2.98000002
   14.78972244   85.00820160    0.63000000    2.98000002
   14.79305553   86.87920380    0.67000002    2.98000002
   14.79805565   86.87920380    0.56999999    2.98000002
   14.80222225   83.01419830    0.64999998    3.00000000
   14.80527782   83.86959839    0.88000000    2.98000002
   14.80861092   78.02380371    0.98000002    2.98000002
   14.81166649   80.78769684    0.75000000    2.98000002
   14.81416702   84.89510345    0.70999998    2.98000002
   14.81527805   82.65429688    0.75000000    2.98000002
   14.81833363   82.10070038    0.67000002    2.98000002
   14.82166672   80.37280273    0.56999999    2.98000002
   14.82472229   81.07430267    0.51999998    2.98000002
   14.82805538   78.46209717    0.41999999    2.98000002
   14.83111095   80.00890350    0.46000001    2.98000002
   14.83444405  142.78599548    0.44000000    2.96000004
   14.83749962   78.80039978    0.44000000    2.98000002
   14.84083271   81.74199677    0.46000001    2.98000002
   14.84388828   85.76809692    0.44000000    2.98000002
   14.84916592   85.76809692    0.44000000    3.00000000
   14.85333347   80.71099854    0.44000000    2.98000002
   14.85666752   81.01650238    0.40000001    3.00000000
   14.85972214   82.81140137    0.38000000    2.98000002
   14.87944412   81.75050354    0.38000000    3.00000000
   14.87972260   82.66870117    0.38000000    2.98000002
   14.88305569   82.47679901    0.34000000    2.98000002
   14.88611126   82.51540375    0.36000001    3.00000000
   14.88944435   82.16899872    0.34000000    2.98000002
   14.89249992   81.85389709    0.36000001    3.00000000
   14.89583302   82.58000183    0.34000000    2.98000002
   14.90055561   82.58000183    0.38000000    2.98000002
   14.90472221   86.22679901    0.38000000    2.98000002
   14.90805531   82.54229736    0.38000000    2.98000002
   14.91111088   82.92279816    0.38000000    3.00000000
   14.91444397   82.71900177    0.41999999    3.00000000
   14.91750050   84.84889984    0.36000001    2.98000002
   14.92083359   84.99839783    0.41999999    2.98000002
   14.92388916   85.66840363    0.41999999    2.98000002
   14.92722225   87.13990021    0.44000000    2.98000002
   14.93000031   85.64710236    0.47999999    3.00000000
   14.93083382   86.07859802    0.51999998    3.00000000
   14.93388939   89.74859619    0.51999998    2.98000002
   14.93722248   83.31369781    0.44000000    3.00000000
   14.94027805   84.69470215    0.46000001    3.00000000
   14.94361115   85.48149872    0.46000001    2.98000002
   14.94666672   85.57129669    0.41999999    3.00000000
   14.95194435   85.57129669    0.50000000    3.00000000
   14.95583344   85.50240326    0.56999999    3.00000000
   15.06250000   -1.00000000   -1.00000000   -1.00000000
   15.16472149   -1.00000000   -1.00000000   -1.00000000
   15.26694393   -1.00000000   -1.00000000   -1.00000000
   15.32555580   78.64929962    0.52999997    3.00000000
   15.32861137   84.28040314    0.40000001    3.00000000
   15.33194447   84.17179871    0.36000001    3.00000000
   15.33500004   92.63649750    0.38000000    3.00000000
   15.33833313   83.84140015    0.44000000    3.00000000
   15.34138870   89.53849792    0.44000000    3.00000000
   15.34472179   89.06009674    0.41999999    3.00000000
   15.34777737   84.25509644    0.47999999    3.00000000
   15.35388947   84.25509644    0.47999999    3.00000000
   15.35805607   88.41709900    0.44000000    3.00000000
   15.36138916   86.80840302    0.41999999    3.00000000
   15.36444473   91.65920258    0.44000000    3.00000000
   15.36777782   96.37310028    0.41999999    3.00000000
   15.37083340   91.26920319    0.40000001    3.00000000
   15.37416649   91.23629761    0.44000000    3.00000000
   15.37527752   89.32399750    0.41999999    3.00000000
   15.37777805   84.21029663    0.41999999    3.00000000
   15.38083363   93.44390106    0.41999999    3.00000000
   15.38416672   85.68260193    0.41999999    3.00000000
   15.38722229   83.86849976    0.40000001    3.00000000
   15.39055538   85.78459930    0.46000001    3.00000000
   15.39361095   83.80470276    0.44000000    3.00000000
   15.39694405   82.46170044    0.41999999    3.00000000
   15.39999962   82.87390137    0.41999999    2.98000002
   15.40527725   82.87390137    0.40000001    3.00000000
   15.40916634   84.34220123    0.40000001    3.00000000
   15.41249943   85.76999664    0.38000000    3.00000000
   15.41555500   82.94460297    0.34000000    3.00000000
   15.41888905   82.92790222    0.34000000    2.98000002
   15.42194462   83.23229980    0.30000001    3.00000000
   15.42527771   83.57640076    0.30000001    3.00000000
   15.42555618   84.08370209    0.30000001    3.00000000
   15.42888927   80.08899689    0.30000001    3.00000000
   15.43194485   84.06870270    0.36000001    3.00000000
   15.43527794   82.47109985    0.36000001    3.00000000
   15.43833351   81.74829865    0.34000000    3.00000000
   15.44166660   81.47380066    0.44000000    3.00000000
   15.44499969   81.60679626    0.46000001    3.00000000
   15.44805527   80.16729736    0.51999998    2.98000002
   15.45111084   80.73239899    0.52999997    3.00000000
   15.45638847   80.73239899    0.46000001    2.98000002
   15.46027756   84.57350159    0.36000001    3.00000000
   15.46361065  141.78799438    0.67000002    3.00000000
   15.46666622   84.31130219    0.40000001    3.00000000
   15.46999931   80.15429688    0.44000000    3.00000000
   15.47305489   79.38210297    0.36000001    3.00000000
   15.47583294   81.80829620    0.34000000    3.00000000
   15.47666645   82.52130127    0.34000000    3.00000000
   15.47972202   82.79260254    0.36000001    3.00000000
   15.48305511   83.10540009    0.38000000    3.00000000
   15.48611164   84.17829895    0.41999999    2.98000002
   15.48944473   81.18499756    0.44000000    3.00000000
   15.49250031   83.98549652    0.44000000    2.98000002
   15.49583340   82.83300018    0.51999998    3.00000000
   15.49888897   82.88880157    0.51999998    3.00000000
   15.50222206   84.39990234    0.61000001    3.00000000
   15.50749969   84.39990234    0.58999997    2.98000002
   15.51166630   80.44719696    0.44000000    2.98000002
   15.51472187   81.82029724    0.46000001    3.00000000
   15.51805496   80.49849701    0.41999999    3.00000000
   15.52111053   82.00350189    0.47999999    3.00000000
   15.52444458   83.09670258    0.46000001    3.00000000
   15.52583313   81.77439880    0.46000001    3.00000000
   15.52777767   83.64949799    0.40000001    3.00000000
   15.53083324   79.46170044    0.38000000    3.00000000
   15.53416729   79.08689880    0.36000001    3.00000000
   15.53722286   83.43039703    0.34000000    3.00000000
   15.54055595   82.19339752    0.36000001    3.00000000
   15.54361153   80.36710358    0.41999999    3.00000000
   15.54694462   83.11519623    0.41999999    3.00000000
   15.55000019   81.55940247    0.36000001    2.98000002
   15.55333328   84.31159973    0.36000001    3.00000000
   15.55861092   84.31159973    0.36000001    3.00000000
   15.56277752   79.80930328    0.36000001    3.00000000
   15.56583309   79.65290070    0.40000001    3.00000000
   15.56916618   80.37180328    0.40000001    3.00000000
   15.57222176   79.31479645    0.41999999    3.00000000
   15.57555580   83.49990082    0.41999999    2.98000002
   15.57611084   84.88729858    0.41999999    2.98000002
   15.57916641   84.53720093    0.41999999    3.00000000
   15.58249950   77.34719849    0.38000000    3.00000000
   15.58555508   77.52960205    0.40000001    2.98000002
   15.58888817   82.48439789    0.36000001    3.00000000
   15.59194374   81.99669647    0.38000000    3.00000000
   15.59527779   80.13130188    0.41999999    3.00000000
   15.59833336   85.36820221    0.40000001    3.00000000
   15.60166740   89.43029785    0.41999999    3.00000000
   15.60472298   85.34169769    0.44000000    3.00000000
   15.61000061   85.34169769    0.47999999    3.00000000
   15.61388969   81.25720215    0.50000000    3.00000000
   15.61722279   83.61170197    0.51999998    3.00000000
   15.62027836   84.34860229    0.51999998    3.00000000
   15.62361145   80.28880310    0.50000000    2.98000002
   15.62611103   85.51899719    0.51999998    3.00000000
   15.62694454   82.99359894    0.47999999    3.00000000
   15.63027763   83.36759949    0.47999999    3.00000000
   15.63333321   79.99590302    0.55000001    3.00000000
   15.63666630   77.11129761    0.55000001    2.98000002
   15.63972187   80.33489990    0.56999999    3.00000000
   15.64305496   78.89679718    0.56999999    3.00000000
   15.64611053   79.55770111    0.56999999    3.00000000
   15.64944458   79.87999725    0.64999998    2.98000002
   15.65249920   77.74539948    0.64999998    2.98000002
   15.65583324   77.81040192    0.63000000    3.00000000
   15.66111088   77.81040192    0.61000001    3.00000000
   15.66499996   80.35060120    0.70999998    3.00000000
   15.66833401   81.15889740    0.69000000    3.00000000
   15.67138958   81.72429657    0.69000000    3.00000000
   15.67472267   81.07800293    0.69000000    3.00000000
   15.67638874   80.10189819    0.81999999    3.00000000
   15.67833328   81.19940186    0.55000001    3.01999998
   15.68166733   78.88410187    0.61000001    3.00000000
   15.68472195   78.24559784    0.55000001    3.00000000
   15.68805599   80.01390076    0.79000002    2.98000002
   15.69111156   79.17890167    0.75000000    3.00000000
   15.69444466   79.98049927    0.70999998    3.00000000
   15.69750023   82.13710022    0.67000002    3.00000000
   15.70083332   81.43759918    0.67000002    3.00000000
   15.70388889   80.42459869    0.69000000    3.00000000
   15.70722198   78.85279846    0.76999998    3.00000000
   15.71222210   78.85279846    0.81999999    3.00000000
   15.71638870   83.67939758    1.00000000    2.98000002
   15.71944427   78.52279663    1.00000000    2.98000002
   15.72277737   81.07230377    0.86000001    2.98000002
   15.72583294   87.24970245    0.56999999    3.00000000
   15.72666645   82.87640381    0.56999999    3.00000000
   15.72944355   82.90390015    0.56999999    3.00000000
   15.73277760   81.29229736    0.56999999    3.00000000
   15.73583317   82.08480072    0.58999997    3.00000000
   15.73916721   79.89550018    0.61000001    3.00000000
   15.74222279   82.29170227    0.61000001    3.00000000
   15.74555588   81.53309631    0.67000002    3.00000000
   15.74861145   84.38310242    0.63000000    3.00000000
   15.75194454   79.28869629    0.63000000    3.00000000
   15.75500011   81.06939697    0.63000000    3.00000000
   15.75833321   80.24040222    0.63000000    3.00000000
   15.76333332   80.24040222    0.63000000    3.00000000
   15.76749992   82.06500244    0.63000000    3.00000000
   15.77055550   80.53559875    0.63000000    3.00000000
   15.77388859   79.27059937    0.63000000    3.00000000
   15.77666664   77.82089996    0.63000000    3.00000000
   15.77750015   78.21559906    0.63000000    3.00000000
   15.78083324   76.02700043    0.63000000    3.00000000
   15.78388977   80.27040100    0.63000000    3.00000000
   15.78722286   77.36460114    0.63000000    3.00000000
   15.79027843   82.78929901    0.63000000    3.00000000
   15.79361153   81.86080170    0.63000000    3.00000000
   15.79666710   82.91159821    0.63000000    3.00000000
   15.80000019   79.41159821    0.63000000    3.00000000
   15.80305576   85.08560181    0.63000000    3.00000000
   15.80638885   80.14199829    0.63000000    3.00000000
   15.80944443   83.38860321    0.63000000    3.00000000
   15.81472206   83.38860321    0.63000000    3.00000000
   15.81861115   84.18540192    0.63000000    3.00000000
   15.82194424   85.41190338    0.63000000    3.00000000
   15.82499981   80.71479797    0.63000000    3.00000000
   15.82666683   83.33959961    0.63000000    3.00000000
   15.82861137   86.48899841    0.63000000    3.00000000
   15.83194447   82.96369934    0.63000000    3.00000000
   15.83500004   84.74189758    0.63000000    3.00000000
   15.83833313   80.82620239    0.63000000    3.00000000
   15.84138870   80.66339874    0.63000000    3.00000000
   15.84472179   82.09130096    0.63000000    3.00000000
   15.84777737   82.08910370    0.63000000    3.00000000
   15.85111141   81.68769836    0.63000000    3.00000000
   15.85416698   79.09020233    0.63000000    3.00000000
   15.85750008   80.32980347    0.63000000    3.00000000
   15.86055565   81.69409943    0.63000000    3.00000000
   15.86583328   81.69409943    0.63000000    3.00000000
   15.86972237   81.28980255    0.63000000    3.00000000
   15.87305546   82.86049652    0.63000000    3.00000000
   15.87611103   81.42040253    0.63000000    3.00000000
   15.87666702   81.13249969    0.63000000    3.00000000
   15.87972260   80.67810059    0.63000000    3.00000000
   15.88277817   78.07150269    0.63000000    3.00000000
   15.88611126   80.72530365    0.63000000    3.00000000
   15.88916683   82.71399689    0.63000000    3.00000000
   15.89249992   78.60489655    0.63000000    3.00000000
   15.89555550   84.62519836    0.63000000    3.00000000
   15.89888859   84.13919830    0.63000000    3.00000000
   15.90194416   77.14040375    0.63000000    3.00000000
   15.90527725   81.44300079    0.63000000    3.00000000
   15.90833282   78.72810364    0.63000000    3.00000000
   15.91166592   79.21209717    0.63000000    3.00000000
   15.91694450   79.21209717    0.63000000    3.00000000
   15.92111111   81.57679749    0.63000000    3.00000000
   15.92416668   82.26589966    0.63000000    3.00000000
   15.92666721   81.94259644    0.63000000    3.00000000
   15.92777824   78.25720215    0.63000000    3.00000000
   15.93083382   80.19560242    0.63000000    3.00000000
   15.93416691   79.57430267    0.63000000    3.00000000
   15.93722248   77.10510254    0.63000000    3.00000000
   15.94055557   79.69680023    0.63000000    3.00000000
   15.94361115   79.00260162    0.63000000    3.00000000
   15.94694424   82.24389648    0.63000000    3.00000000
   15.94999981   79.90160370    0.63000000    3.00000000
   15.95333290   78.97740173    0.63000000    3.00000000
   15.95638847   78.93589783    0.63000000    3.00000000
   15.95972157   79.28630066    0.63000000    3.00000000
   15.96277714   80.16729736    0.63000000    3.00000000
   15.96805477   80.16729736    0.63000000    3.00000000
   15.97222137   81.19239807    0.63000000    3.00000000
   15.97527695   78.03189850    0.63000000    3.00000000
   15.97666645   80.82900238    0.63000000    3.00000000
   15.97888851   82.11740112    0.63000000    3.00000000
   15.98194408   81.80580139    0.63000000    3.00000000
   15.98527813   79.11519623    0.63000000    3.00000000
   15.98833370   81.15889740    0.63000000    3.00000000
   15.99166679   82.98439789    0.63000000    3.00000000
   15.99472237   78.65650177    0.63000000    3.00000000
   15.99805546   75.12380219    0.63000000    3.00000000
   16.00111198   79.80180359    0.63000000    3.00000000
   16.00444412   78.17720032    0.63000000    3.00000000
   16.00749969   78.95240021    0.63000000    3.00000000
   16.01083374   84.34500122    0.63000000    3.00000000
   16.01388931   79.95429993    0.63000000    3.00000000
   16.01916695   79.95429993    0.63000000    3.00000000
   16.02333260   79.03330231    0.63000000    3.00000000
   16.02666664   82.00559998    0.63000000    3.00000000
   16.02694511   81.75260162    0.63000000    3.00000000
   16.03027725   80.47380066    0.63000000    3.00000000
   16.03333282   79.87169647    0.63000000    3.00000000
   16.03666687   77.58689880    0.63000000    3.00000000
   16.03972244   80.15689850    0.63000000    3.00000000
   16.04305458   79.07530212    0.63000000    3.00000000
   16.04611015   80.21060181    0.63000000    3.00000000
   16.04944420   78.76190186    0.63000000    3.00000000
   16.05249977   81.25460052    0.63000000    3.00000000
   16.05583191   81.80049896    0.63000000    3.00000000
   16.05888748   86.26349640    0.63000000    3.00000000
   16.06222153   83.39309692    0.63000000    3.00000000
   16.06527710   80.29380035    0.63000000    3.00000000
   16.07055664   80.29380035    0.63000000    3.00000000
   16.07444572   81.18160248    0.63000000    3.00000000
   16.07694626   80.70829773    0.63000000    3.00000000
   16.07805634   79.96309662    0.63000000    3.00000000
   16.08111191   80.03009796    0.63000000    3.00000000
   16.08444595   77.61789703    0.63000000    3.00000000
   16.08750153   79.31109619    0.63000000    3.00000000
   16.09083366   78.38069916    0.63000000    3.00000000
   16.09388924   76.92900085    0.63000000    3.00000000
   16.09722328   79.30809784    0.63000000    3.00000000
   16.10027885   77.89199829    0.63000000    3.00000000
   16.10361099   77.03500366    0.63000000    3.00000000
   16.10666656   76.65080261    0.63000000    3.00000000
   16.11000061   77.89779663    0.63000000    3.00000000
   16.11305618   77.86889648    0.63000000    3.00000000
   16.11638832   80.84359741    0.63000000    3.00000000
   16.12166595   80.84359741    0.63000000    3.00000000
   16.12583351   84.64140320    0.63000000    3.00000000
   16.12694550   83.89530182    0.63000000    3.00000000
   16.12916756   78.97149658    0.63000000    3.00000000
   16.13222313   78.32740021    0.63000000    3.00000000
   16.13555527   79.17659760    0.63000000    3.00000000
   16.13861084   80.18769836    0.63000000    3.00000000
   16.14194489   79.70259857    0.63000000    3.00000000
   16.14500046   81.21630096    0.63000000    3.00000000
   16.14833260   82.48120117    0.63000000    3.00000000
   16.15138817   80.29509735    0.63000000    3.00000000
   16.15472221   79.16909790    0.63000000    3.00000000
   16.15777779   80.26940155    0.63000000    3.00000000
   16.16110992   80.13369751    0.63000000    3.00000000
   16.16416550   81.93489838    0.63000000    3.00000000
   16.16749954   79.70449829    0.63000000    3.00000000
   16.17277718   79.70449829    0.63000000    3.00000000
   16.17694473   85.99720001    0.63000000    3.00000000
   16.17749977   83.28340149    0.63000000    3.00000000
   16.18055534   80.71640015    0.63000000    3.00000000
   16.18388748   87.00050354    0.63000000    3.00000000
   16.18694305   82.90529633    0.63000000    3.00000000
   16.19027710   81.18589783    0.63000000    3.00000000
   16.19333267   82.48059845    0.63000000    3.00000000
   16.19666672   82.15709686    0.63000000    3.00000000
   16.19972038   85.13269806    0.63000000    3.00000000
   16.20305634   80.23719788    0.63000000    3.00000000
   16.20611191   79.20529938    0.63000000    3.00000000
   16.20944595   81.47640228    0.63000000    3.00000000
   16.21250153   82.43440247    0.63000000    3.00000000
   16.21583366   81.70230103    0.63000000    3.00000000
   16.21888924   80.70269775    0.63000000    3.00000000
   16.22389030   80.70269775    0.63000000    3.00000000
   16.22805595   80.78810120    0.63000000    3.00000000
   16.23139000   79.58170319    0.63000000    3.00000000
   16.23444557   80.76709747    0.63000000    3.00000000
   16.23777771   77.52300262    0.63000000    3.00000000
   16.24083328   81.81130219    0.63000000    3.00000000
   16.24416733   76.93740082    0.63000000    3.00000000
   16.24722290   79.04930115    0.63000000    3.00000000
   16.25055504   82.09020233    0.63000000    3.00000000
   16.25361061   79.10440063    0.63000000    3.00000000
   16.25694466   80.71360016    0.63000000    3.00000000
   16.26000023   79.50229645    0.63000000    3.00000000
   16.26333427   78.42769623    0.63000000    3.00000000
   16.26638794   83.04370117    0.63000000    3.00000000
   16.26972198   83.32080078    0.63000000    3.00000000
   16.27527809   83.32080078    0.63000000    3.00000000
   16.27916718   82.60379791    0.63000000    3.00000000
   16.28249931   83.03869629    0.63000000    3.00000000
   16.28555489   81.53859711    0.63000000    3.00000000
   16.28888893   81.74410248    0.63000000    3.00000000
   16.29194450   81.58170319    0.63000000    3.00000000
   16.29527664   77.87419891    0.63000000    3.00000000
   16.29833221   78.16010284    0.63000000    3.00000000
   16.30166626   81.08339691    0.63000000    3.00000000
   16.30472183   83.69799805    0.63000000    3.00000000
   16.30805397   77.95149994    0.63000000    3.00000000
   16.31110954   80.02189636    0.63000000    3.00000000
   16.31444359   82.88359833    0.63000000    3.00000000
   16.31750107   80.94840240    0.63000000    3.00000000
   16.32083511   79.80039978    0.63000000    3.00000000
   16.34250069   78.67120361    0.63000000    3.00000000
   16.34277916   81.84279633    0.63000000    3.00000000
   16.34611130   78.80650330    0.63000000    3.00000000
   16.34916687   81.49629974    0.63000000    3.00000000
   16.35250092   79.18199921    0.63000000    3.00000000
   16.35555649   78.55680084    0.63000000    3.00000000
   16.35888863   78.56390381    0.63000000    3.00000000
   16.36194420   77.64720154    0.63000000    3.00000000
   16.36527824   77.97100067    0.63000000    3.00000000
   16.36833382   77.03549957    0.63000000    3.00000000
   16.37166595   75.41629791    0.63000000    3.00000000
   16.37777710   75.41629791    0.63000000    3.00000000
   16.38166618   81.84140015    0.63000000    3.00000000
   16.38500023   80.43969727    0.63000000    3.00000000
   16.38805580   81.49880219    0.63000000    3.00000000
   16.39138794   79.04499817    0.63000000    3.00000000
   16.39222145   77.10919952    0.63000000    3.00000000
   16.39500046   77.77290344    0.63000000    3.00000000
   16.39805603   76.70050049    0.63000000    3.00000000
   16.40138817   83.13719940    0.63000000    3.00000000
   16.40444374   85.25219727    0.63000000    3.00000000
   16.40777779   76.81700134    0.63000000    3.00000000
   16.41083336   79.44629669    0.63000000    3.00000000
   16.41416550   79.23030090    0.63000000    3.00000000
   16.41722107   80.94629669    0.63000000    3.00000000
   16.42055511   80.86990356    0.63000000    3.00000000
   16.42361069   78.25229645    0.63000000    3.00000000
   16.42888832   78.25229645    0.63000000    3.00000000
   16.43277740   78.40959930    0.63000000    3.00000000
   16.43610954   77.50499725    0.63000000    3.00000000
   16.43916512   79.96489716    0.63000000    3.00000000
   16.44222069   77.37370300    0.63000000    3.00000000
   16.44277763   79.31020355    0.63000000    3.00000000
   16.44583321   79.23320007    0.63000000    3.00000000
   16.44916534   83.32740021    0.63000000    3.00000000
   16.45222282   82.79460144    0.63000000    3.00000000
   16.45555687   85.32080078    0.63000000    3.00000000
   16.45861244   82.73210144    0.63000000    3.00000000
   16.46194458   85.33080292    0.63000000    3.00000000
   16.46500015   81.59159851    0.63000000    3.00000000
   16.46833420   83.23480225    0.63000000    3.00000000
   16.47138977   81.12310028    0.63000000    3.00000000
   16.47472191   82.86509705    0.63000000    3.00000000
   16.48000145   82.86509705    0.63000000    3.00000000
   16.48416710   83.36139679    0.63000000    3.00000000
   16.48722267   81.88659668    0.63000000    3.00000000
   16.49055672   81.20459747    0.63000000    3.00000000
   16.49222183   81.42549896    0.63000000    3.00000000
   16.49416733   79.15809631    0.63000000    3.00000000
   16.49722290   79.69080353    0.63000000    3.00000000
   16.50055504   79.48809814    0.63000000    3.00000000
   16.50361061   80.20939636    0.63000000    3.00000000
   16.50694466   86.54419708    0.63000000    3.00000000
   16.51000023   83.29190063    0.63000000    3.00000000
   16.51333427   79.69460297    0.63000000    3.00000000
   16.51638794   79.45140076    0.63000000    3.00000000
   16.51972198   80.91439819    0.63000000    3.00000000
   16.52277756   76.62280273    0.63000000    3.00000000
   16.52611160   81.78759766    0.63000000    3.00000000
   16.53111076   81.78759766    0.63000000    3.00000000
   16.53527641   77.05180359    0.63000000    3.00000000
   16.53833199   79.38520050    0.63000000    3.00000000
   16.54166603   83.54440308    0.63000000    3.00000000
   16.54222107   80.86820221    0.63000000    3.00000000
   16.54527664   84.55100250    0.63000000    3.00000000
   16.54861069  134.66400146    0.63000000    3.00000000
   16.55166626   78.32530212    0.63000000    3.00000000
   16.55499840   80.56099701    0.63000000    3.00000000
   16.55805397   80.51069641    0.63000000    3.00000000
   16.56138802   80.42089844    0.63000000    3.00000000
   16.56444359   82.14739990    0.63000000    3.00000000
   16.56777954   80.81030273    0.63000000    3.00000000
   16.57083511   79.47570038    0.63000000    3.00000000
   16.57416725   82.14399719    0.63000000    3.00000000
   16.57722282   77.78430176    0.63000000    3.00000000
   16.58250046   77.78430176    0.63000000    3.00000000
   16.58638954   80.08809662    0.63000000    3.00000000
   16.58972359   84.37750244    0.63000000    3.00000000
   16.59250069   78.99880219    0.63000000    3.00000000
   16.59333420   75.41429901    0.63000000    3.00000000
   16.59638977   77.39409637    0.63000000    3.00000000
   16.59972191   80.31050110    0.63000000    3.00000000
   16.60277748   79.99700165    0.63000000    3.00000000
   16.60611153   78.10849762    0.63000000    3.00000000
   16.60916710   76.28730011    0.63000000    3.00000000
   16.61250114   77.27020264    0.63000000    3.00000000
   16.61555672   75.90830231    0.63000000    3.00000000
   16.61888885   81.37760162    0.63000000    3.00000000
   16.62194443   80.12819672    0.63000000    3.00000000
   16.62527847   80.90640259    0.63000000    3.00000000
   16.62833405   78.42559814    0.63000000    3.00000000
   16.63361168   78.42559814    0.63000000    3.00000000
   16.63750076   85.36409760    0.63000000    3.00000000
   16.64083290   85.33499908    0.63000000    3.00000000
   16.64249992   83.52890015    0.63000000    3.00000000
   16.64444351   87.15339661    0.63000000    3.00000000
   16.64749908   81.33609772    0.63000000    3.00000000
   16.65083313   81.34059906    0.63000000    3.00000000
   16.65416718   82.76519775    0.63000000    3.00000000
   16.65722275   83.36470032    0.63000000    3.00000000
   16.66055489   84.69750214    0.63000000    3.00000000
   16.66361046   82.54570007    0.63000000    3.00000000
   16.66694450   83.04250336    0.63000000    3.00000000
   16.67000008   84.76950073    0.63000000    3.00000000
   16.67333221   86.07199860    0.63000000    3.00000000
   16.67638779   81.52140045    0.63000000    3.00000000
   16.67972183   80.71980286    0.63000000    3.00000000
   16.68472099   80.71980286    0.63000000    3.00000000
   16.68888855   79.05100250    0.63000000    3.00000000
   16.69194412   82.90390015    0.63000000    3.00000000
   16.69249916   82.35859680    0.63000000    3.00000000
   16.69527626   80.13600159    0.63000000    3.00000000
   16.69861031   85.25810242    0.63000000    3.00000000
   16.70166779   78.70140076    0.63000000    3.00000000
   16.70499992   82.26119995    0.63000000    3.00000000
   16.70805550   86.27050018    0.63000000    3.00000000
   16.71138954   86.31759644    0.63000000    3.00000000
   16.71444511   84.60209656    0.63000000    3.00000000
   16.71777916   86.62400055    0.63000000    3.00000000
   16.72083473   86.20749664    0.63000000    3.00000000
   16.72416687   85.03610229    0.63000000    3.00000000
   16.72722244   87.47010040    0.63000000    3.00000000
   16.73055649   89.35459900    0.63000000    3.00000000
   16.73583412   89.35459900    0.63000000    3.00000000
   16.73999977   90.52380371    0.63000000    3.00000000
   16.74250031   93.79889679    0.63000000    3.00000000
   16.74333382   92.63680267    0.63000000    3.00000000
   16.74666786   94.42279816    0.63000000    3.00000000
   16.74972153   90.64450073    0.63000000    3.00000000
   16.75305557   95.41660309    0.63000000    3.00000000
   16.75638962   99.33750153    0.63000000    3.00000000
   16.75944519  102.21199799    0.63000000    3.00000000
   16.76277733  115.72399902    0.63000000    3.00000000
   16.76583290   94.66139984    0.63000000    3.00000000
   16.76916695   93.07340240    0.63000000    3.00000000
   16.77222252   95.75769806    0.63000000    3.00000000
   16.77555466   88.42269897    0.63000000    3.00000000
   16.77861023   91.91870117    0.63000000    3.00000000
   16.78194427   91.53679657    0.63000000    3.00000000
   16.78722191   91.53679657    0.63000000    3.00000000
   16.79111099   95.31279755    0.63000000    3.00000000
   16.79249954   89.38919830    0.63000000    3.00000000
   16.79444313   91.12079620    0.63000000    3.00000000
   16.79777718   87.35060120    0.63000000    3.00000000
   16.80083275   89.54299927    0.63000000    3.00000000
   16.80416679   87.76200104    0.63000000    3.00000000
   16.80722237   92.21920013    0.63000000    3.00000000
   16.81055450   91.87449646    0.63000000    3.00000000
   16.81361008   89.93199921    0.63000000    3.00000000
   16.81694603   87.95469666    0.63000000    3.00000000
   16.82000160   87.06040192    0.63000000    3.00000000
   16.82333374   89.48950195    0.63000000    3.00000000
   16.82638931   85.68319702    0.63000000    3.00000000
   16.82972336   86.11399841    0.63000000    3.00000000
   16.83277893   84.13369751    0.63000000    3.00000000
   16.83833313   84.13369751    0.63000000    3.00000000
   16.84222221   85.69419861    0.63000000    3.00000000
   16.84277916   83.26950073    0.63000000    3.00000000
   16.84611130   86.95639801    0.63000000    3.00000000
   16.84916687   87.86940002    0.63000000    3.00000000
   16.85250092   86.35479736    0.63000000    3.00000000
   16.85555649   86.59329987    0.63000000    3.00000000
   16.85888863   86.11319733    0.63000000    3.00000000
   16.86194420   95.80729675    0.63000000    3.00000000
   16.86527824   92.65799713    0.63000000    3.00000000
   16.86833382   85.22209930    0.63000000    3.00000000
   16.87166595   83.24230194    0.63000000    3.00000000
   16.87472153   88.68049622    0.63000000    3.00000000
   16.87805557   87.08360291    0.63000000    3.00000000
   16.88111115   83.32499695    0.63000000    3.00000000
   16.88444519   89.95400238    0.63000000    3.00000000
   16.88944435   89.95400238    0.63000000    3.00000000
   16.89361191   82.12329865    0.63000000    3.00000000
   16.89666748   76.26820374    0.63000000    3.00000000
   16.89999962   79.53060150    0.63000000    3.00000000
   16.90305519   78.51820374    0.63000000    3.00000000
   16.90638924   75.98809814    0.63000000    3.00000000
   16.90944481   79.96510315    0.63000000    3.00000000
   16.91277695   81.09899902    0.63000000    3.00000000
   16.91583252   84.06990051    0.63000000    3.00000000
   16.91916656   78.75620270    0.63000000    3.00000000
   16.92222214   86.12039948    0.63000000    3.00000000
   16.92555428   82.44770050    0.63000000    3.00000000
   16.92860985   86.37300110    0.63000000    3.00000000
   16.93194389   83.18630219    0.63000000    3.00000000
   16.93499947   82.97519684    0.63000000    3.00000000
   16.94055557   82.97519684    0.63000000    3.00000000
   16.94472122   77.24379730    0.63000000    3.00000000
   16.94805527   84.78099823    0.63000000    3.00000000
   16.95111275   84.05609894    0.63000000    3.00000000
   16.95444489   75.41100311    0.63000000    3.00000000
   16.95750046   78.81649780    0.63000000    3.00000000
   16.96083450   79.72899628    0.63000000    3.00000000
   16.96389008   81.19090271    0.63000000    3.00000000
   16.96722221   82.65579987    0.63000000    3.00000000
   16.97027779   89.41079712    0.63000000    3.00000000
   16.97361183   86.93270111    0.63000000    3.00000000
   16.97666740   79.53690338    0.63000000    3.00000000
   16.98000145   81.59770203    0.63000000    3.00000000
   16.98305511   79.78279877    0.63000000    3.00000000
   16.98638916   79.36299896    0.63000000    3.00000000
   16.99194527   79.36299896    0.63000000    3.00000000
   16.99583435   84.88130188    0.63000000    3.00000000
   16.99916649   82.11440277    0.63000000    3.00000000
   17.00222206  136.96499634    0.63000000    3.00000000
   17.00555611   80.20279694    0.63000000    3.00000000
   17.00861168   83.78769684    0.63000000    3.00000000
   17.01194382   80.27130127    0.63000000    3.00000000
   17.01499939   81.37719727    0.63000000    3.00000000
   17.01833344   82.27980042    0.63000000    3.00000000
   17.02138901   81.26629639    0.63000000    3.00000000
   17.02472115   80.23300171    0.63000000    3.00000000
   17.02777672   79.37419891    0.63000000    3.00000000
   17.03111076   84.86660004    0.63000000    3.00000000
   17.03416634   81.29350281    0.63000000    3.00000000
   17.03750038   81.83010101    0.63000000    3.00000000
   17.04305458   81.83010101    0.63000000    3.00000000
   17.04722214   83.88780212    0.63000000    3.00000000
   17.05027771   84.18869781    0.63000000    3.00000000
   17.05360985   92.31929779    0.63000000    3.00000000
   17.05666542   83.34490204    0.63000000    3.00000000
   17.05999947   84.39949799    0.63000000    3.00000000
   17.06305504   82.16359711    0.63000000    3.00000000
   17.06638718   91.48400116    0.63000000    3.00000000
   17.06944466   81.60469818    0.63000000    3.00000000
   17.07277870   75.30549622    0.63000000    3.00000000
   17.07583427   78.81109619    0.63000000    3.00000000
   17.07916832   76.80159760    0.63000000    3.00000000
   17.08222389   81.72830200    0.63000000    3.00000000
   17.08555603   85.08049774    0.63000000    3.00000000
   17.08861160   78.08350372    0.63000000    3.00000000
   17.09416771   78.08350372    0.63000000    3.00000000
   17.09833336   82.57440186    0.63000000    3.00000000
   17.10138893   78.05529785    0.63000000    3.00000000
   17.10472298   83.34670258    0.63000000    3.00000000
   17.10777855   78.02749634    0.63000000    3.00000000
   17.11111069   83.98069763    0.63000000    3.00000000
   17.11416626   84.69650269    0.63000000    3.00000000
   17.11750031   81.10949707    0.63000000    3.00000000
   17.12055588   81.77449799    0.63000000    3.00000000
   17.12388992   79.37390137    0.63000000    3.00000000
   17.12694550   85.24790192    0.63000000    3.00000000
   17.13027763   87.38800049    0.63000000    3.00000000
   17.13333321   81.67729950    0.63000000    3.00000000
   17.13666725   85.51280212    0.63000000    3.00000000
   17.13972282   87.16480255    0.63000000    3.00000000
   17.14527702   87.16480255    0.63000000    3.00000000
   17.14944458   83.14890289    0.63000000    3.00000000
   17.15277672   82.96130371    0.63000000    3.00000000
   17.15583229   81.11740112    0.63000000    3.00000000
   17.15916634   85.44809723    0.63000000    3.00000000
   17.16222191   83.61009979    0.63000000    3.00000000
   17.16555595   91.17009735    0.63000000    3.00000000
   17.16860962   88.16259766    0.63000000    3.00000000
   17.17194366   83.27380371    0.63000000    3.00000000
   17.17499924   83.52100372    0.63000000    3.00000000
   17.17833328   82.98030090    0.63000000    3.00000000
   17.18138885   84.06250000    0.63000000    3.00000000
   17.18472099   77.36759949    0.63000000    3.00000000
   17.18777657   81.25839996    0.63000000    3.00000000
   17.19111061   82.45729828    0.63000000    3.00000000
   17.19666672   82.45729828    0.63000000    3.00000000
   17.20055580   81.85099792    0.63000000    3.00000000
   17.20388985   83.73809814    0.63000000    3.00000000
   17.20694542   86.42590332    0.63000000    3.00000000
   17.21027946   83.84500122    0.63000000    3.00000000
   17.21333504   86.49629974    0.63000000    3.00000000
   17.21666718   82.35569763    0.63000000    3.00000000
   17.21972275   85.18379974    0.63000000    3.00000000
   17.22305679   87.43609619    0.63000000    3.00000000
   17.22611237   81.02529907    0.63000000    3.00000000
   17.22944450   81.54460144    0.63000000    3.00000000
   17.23972321   80.09899902    0.00000000    0.00000000
   17.24361229   84.74089813    0.00000000    0.00000000
   17.24833298   84.74089813    0.00000000    0.00000000
   17.25305557   78.78600311    0.00000000    0.00000000
   17.25388908   79.24430084    0.00000000    0.00000000
   17.25722313   82.97149658    0.00000000    0.00000000
   17.26111031   80.38230133    0.00000000    0.00000000
   17.26499939   83.28630066    0.00000000    0.00000000
   17.26861000   80.49030304    0.00000000    0.00000000
   17.27249908   80.63600159    0.00000000    0.00000000
   17.27611160   81.71459961    0.00000000    0.00000000
   17.28000069   81.88189697    0.00000000    0.00000000
   17.28388786   80.22820282    0.00000000    0.00000000
   17.28722191   84.66899872    0.63000000    3.00000000
   17.29027748   83.14399719    0.63000000    3.00000000
   17.29361153   79.49890137    0.63000000    3.00000000
   17.29888916   79.49890137    0.63000000    3.00000000
   17.30305481   80.34400177    0.63000000    3.00000000
   17.30388832   81.81990051    0.63000000    3.00000000
   17.30638885   80.64910126    0.63000000    3.00000000
   17.30972099   83.51029968    0.63000000    3.00000000
   17.31277657   85.49949646    0.63000000    3.00000000
   17.31611061   85.48590088    0.61000001    3.01999998
   17.31916809   80.80410004    0.07000000    0.51999998
   17.32250023   80.48269653    0.05000000    0.50000000
   17.32555580   79.65110016    0.05000000    0.50000000
   17.32888985   82.38780212    0.05000000    0.50000000
   17.33194542   79.65339661    0.05000000    0.50000000
   17.33527756   86.83589935    0.05000000    0.50000000
   17.33833313   79.60169983    0.05000000    0.50000000
   17.34166718   80.02020264    0.05000000    0.50000000
   17.34472275   79.71070099    0.05000000    0.50000000
   17.36499977   67.82060242    0.05000000    0.50000000
   17.36555672   68.80359650    0.05000000    0.50000000
   17.36888885   81.22049713    0.05000000    0.50000000
   17.37194443   81.38459778    0.05000000    0.50000000
   17.37527847   81.61009979    0.05000000    0.50000000
   17.37833405   78.70459747    0.05000000    0.50000000
   17.38166618   83.38990021    0.05000000    0.50000000
   17.38472176   80.02809906    0.05000000    0.50000000
   17.38805580   81.15170288    0.05000000    0.50000000
   17.39111137  108.39499664    0.05000000    0.50000000
   17.39444351   84.48010254    0.05000000    0.50000000
   17.39749908   81.45800018    0.05000000    0.50000000
   17.40166664   81.45800018    0.05000000    0.50000000
   17.40583229   80.08399963    0.05000000    0.50000000
   17.40888786   81.53240204    0.05000000    0.50000000
   17.41222191   82.98549652    0.05000000    0.50000000
   17.41472244   80.39710236    0.05000000    0.50000000
   17.41583252   79.82160187    0.05000000    0.50000000
   17.41888809   78.22229767    0.05000000    0.50000000
   17.42222214   81.01899719    0.05000000    0.50000000
   17.42527771   78.12339783    0.05000000    0.50000000
   17.42860985   80.78510284    0.05000000    0.50000000
   17.43166542   81.25610352    0.05000000    0.50000000
   17.43499947   82.14250183    0.05000000    0.50000000
   17.43805504   86.66149902    0.05000000    0.50000000
   17.44138718   79.44850159    0.05000000    0.50000000
   17.44444275   88.32309723    0.05000000    0.50000000
   17.44777679   84.97709656    0.05000000    0.50000000
   17.45277786   84.97709656    0.05000000    0.50000000
   17.45694542   81.56639862    0.05000000    0.50000000
   17.46000099   82.48660278    0.05000000    0.50000000
   17.46333504   83.50340271    0.05000000    0.50000000
   17.46472359   82.35449982    0.05000000    0.50000000
   17.46694565   81.83139801    0.05000000    0.50000000
   17.47000122   81.94439697    0.05000000    0.50000000
   17.47333336   83.95590210    0.05000000    0.50000000
   17.47638893   80.56950378    0.05000000    0.50000000
   17.47972298   82.68650055    0.05000000    0.50000000
   17.48277855   79.71330261    0.05000000    0.50000000
   17.48611069   80.76059723    0.05000000    0.50000000
   17.48916626   87.22209930    0.05000000    0.50000000
   17.49250031   81.79879761    0.05000000    0.50000000
   17.49555588   81.50469971    0.05000000    0.50000000
   17.49888992   81.18460083    0.05000000    0.50000000
   17.50388908   81.18460083    0.05000000    0.50000000
   17.50805473   79.08159637    0.05000000    0.50000000
   17.51138878   85.65290070    0.05000000    0.50000000
   17.51444435   80.51670074    0.05000000    0.50000000
   17.51499939   78.87449646    0.05000000    0.50000000
   17.51777840   83.61579895    0.05000000    0.50000000
   17.52111053   79.76689911    0.05000000    0.50000000
   17.52416611   79.63310242    0.05000000    0.50000000
   17.52750015   80.45230103    0.05000000    0.50000000
   17.53055573   83.66950226    0.05000000    0.50000000
   17.53388786   80.43789673    0.05000000    0.50000000
   17.53694344   80.39099884    0.05000000    0.50000000
   17.54027748   82.96479797    0.05000000    0.50000000
   17.54333305   80.83029938    0.05000000    0.50000000
   17.54666710   84.43379974    0.05000000    0.50000000
   17.54972076   81.23010254    0.05000000    0.50000000
   17.55527687   81.23010254    0.05000000    0.50000000
   17.55916595   79.81320190    0.05000000    0.50000000
   17.56250000   80.47160339    0.05000000    0.50000000
   17.56499863   80.85870361    0.05000000    0.50000000
   17.56583214   79.30500031    0.05000000    0.50000000
   17.56916809   77.34239960    0.05000000    0.50000000
   17.57222366   82.45580292    0.05000000    0.50000000
   17.57555580   82.54000092    0.05000000    0.50000000
   17.57861137   82.35030365    0.05000000    0.50000000
   17.58194542   76.95429993    0.05000000    0.50000000
   17.58500099   80.69229889    0.05000000    0.50000000
