    HOUR (UT)   FLARE FACTOR    SKY TESTER    SUN TESTER
   11.55694485   -1.00000000   -1.00000000   -1.00000000
   11.57972240   78.51930237    0.67000002    2.69000006
   11.58527756   75.52600098    0.67000002    2.71000004
   11.58916664   77.98639679    0.63000000    2.71000004
   11.59249973   75.99259949    0.64999998    2.69000006
   11.59555531   74.11959839    0.64999998    2.71000004
   11.59888840   76.29039764    0.63000000    2.69000006
   11.60194492   70.63760376    0.63000000    2.69000006
   11.60527802   75.96630096    0.61000001    2.69000006
   11.60833359   75.42289734    0.58999997    2.69000006
   11.61166668   75.83059692    0.58999997    2.69000006
   11.61305618   77.03549957    0.58999997    2.71000004
   11.61527824   70.93119812    0.56999999    2.69000006
   11.61861134   77.14939880    0.56999999    2.71000004
   11.62194443   77.94139862    0.56999999    2.71000004
   11.62500000   72.95249939    0.56999999    2.71000004
   11.62833309   74.53430176    0.58999997    2.71000004
   11.63138866   78.22889709    0.61000001    2.71000004
   11.63472176   75.55970001    0.64999998    2.69000006
   11.63777733   77.12850189    0.64999998    2.71000004
   11.64111137   75.28089905    0.64999998    2.71000004
   11.64416695   74.52169800    0.69000000    2.71000004
   11.64750004   71.61119843    0.67000002    2.71000004
   11.65055561   74.99520111    0.69000000    2.71000004
   11.65388870   79.18090057    0.70999998    2.71000004
   11.65694427   75.46109772    0.75000000    2.71000004
   11.66027737   78.16419983    0.75000000    2.71000004
   11.66305542   76.36789703    0.76999998    2.71000004
   11.66388893   75.59020233    0.76999998    2.71000004
   11.66694450   74.28289795    0.76999998    2.71000004
   11.67027855   76.26439667    0.76999998    2.71000004
   11.67333412   75.48880005    0.75000000    2.71000004
   11.67666721   75.07409668    0.76999998    2.69000006
   11.67972279   76.93689728    0.75000000    2.71000004
   11.68305588   76.40779877    0.73000002    2.69000006
   11.68611145   75.76180267    0.70999998    2.71000004
   11.68944454   77.95010376    0.69000000    2.71000004
   11.69250011   78.00499725    0.69000000    2.71000004
   11.69583321   74.40049744    0.69000000    2.71000004
   11.69888878   76.61000061    0.69000000    2.71000004
   11.70222187   75.67459869    0.67000002    2.71000004
   11.70527744   82.26740265    0.67000002    2.71000004
   11.70861053   82.67649841    0.67000002    2.71000004
   11.71166611   75.61350250    0.67000002    2.71000004
   11.71305561   74.07430267    0.67000002    2.71000004
   11.71527767   74.49749756    0.64999998    2.73000002
   11.71861076   76.13729858    0.64999998    2.71000004
   11.72166634   75.70950317    0.63000000    2.71000004
   11.72499943   81.30280304    0.63000000    2.73000002
   11.72805500   73.87629700    0.63000000    2.73000002
   11.73138809   76.18720245    0.63000000    2.71000004
   11.73444462   75.15579987    0.63000000    2.73000002
   11.73777771   75.91600037    0.61000001    2.73000002
   11.74083328   74.96260071    0.61000001    2.73000002
   11.74416733   77.89469910    0.63000000    2.73000002
   11.74722290   75.24459839    0.63000000    2.73000002
   11.75055599   77.97090149    0.64999998    2.73000002
   11.75361156   76.90270233    0.64999998    2.73000002
   11.75694466   74.90280151    0.64999998    2.73000002
   11.76000023   78.29850006    0.64999998    2.73000002
   11.76305580   76.40070343    0.69000000    2.73000002
   11.76361084   73.64289856    0.69000000    2.73000002
   11.76694393   75.74289703    0.67000002    2.73000002
   11.76999950   84.00650024    0.67000002    2.73000002
   11.77333355   75.85620117    0.69000000    2.73000002
   11.77638817   77.16100311    0.67000002    2.73000002
   11.77972221   76.09410095    0.67000002    2.73000002
   11.78277779   77.71600342    0.69000000    2.73000002
   11.78611183   74.85890198    0.69000000    2.73000002
   11.78916740   80.01190186    0.70999998    2.73000002
   11.79250050   78.34770203    0.69000000    2.73000002
   11.79555607   76.09169769    0.73000002    2.75000000
   11.79888916   76.19550323    0.73000002    2.75000000
   11.80194473   77.99019623    0.73000002    2.75000000
   11.80527782   80.09079742    0.73000002    2.73000002
   11.80833340   77.75109863    0.73000002    2.75000000
   11.81166649   77.10379791    0.70999998    2.73000002
   11.81305599   77.60880280    0.73000002    2.75000000
   11.81500053   77.59410095    0.70999998    2.73000002
   11.81833363   76.25959778    0.70999998    2.73000002
   11.82138920   74.80819702    0.70999998    2.73000002
   11.82472229   77.28469849    0.73000002    2.73000002
   11.82777786   78.09899902    0.73000002    2.73000002
   11.83111095   80.63690186    0.73000002    2.75000000
   11.83416653   77.38320160    0.73000002    2.73000002
   11.83749962   76.39859772    0.75000000    2.75000000
   11.84055519   76.03289795    0.76999998    2.75000000
   11.84388828   81.76689911    0.76999998    2.75000000
   11.84694386   78.87550354    0.75000000    2.75000000
   11.85027790   80.36430359    0.75000000    2.75000000
   11.85333347   77.55509949    0.75000000    2.75000000
   11.85666752   78.68209839    0.75000000    2.73000002
   11.85972214   79.86250305    0.76999998    2.75000000
   11.86305618   81.78029633    0.76999998    2.75000000
   11.86333370   76.97000122    0.76999998    2.75000000
   11.86666679   77.30909729    0.76999998    2.75000000
   11.86972237   77.67990112    0.76999998    2.73000002
   11.87305546   78.16670227    0.76999998    2.73000002
   11.87611103   78.21479797    0.75000000    2.75000000
   11.87944412   78.73889923    0.75000000    2.75000000
   11.88249969   79.09780121    0.70999998    2.75000000
   11.88583279   78.47280121    0.70999998    2.75000000
   11.88888836   75.13619995    0.69000000    2.75000000
   11.89222240   75.40139771    0.69000000    2.75000000
   11.89527798   77.20369720    0.69000000    2.75000000
   11.89861107   77.21070099    0.69000000    2.75000000
   11.90166664   81.55699921    0.67000002    2.75000000
   11.90499973   80.04820251    0.67000002    2.75000000
   11.90805531   76.99410248    0.67000002    2.75000000
   11.91138840   76.88320160    0.67000002    2.75000000
   11.91305542   76.50900269    0.69000000    2.75000000
   11.91472149   79.41419983    0.69000000    2.75000000
   11.91805553   78.19830322    0.67000002    2.75000000
   11.92111111   79.15509796    0.67000002    2.76999998
   11.92444515   78.86399841    0.64999998    2.75000000
   11.92750072   77.13999939    0.64999998    2.75000000
   11.93083382   74.67279816    0.63000000    2.75000000
   11.93388939   77.19290161    0.63000000    2.75000000
   11.93722248   80.24829865    0.63000000    2.75000000
   11.94027805   79.07620239    0.63000000    2.76999998
   11.94361115   76.91660309    0.64999998    2.76999998
   11.94694424   78.05789948    0.64999998    2.76999998
   11.94999981   76.80699921    0.64999998    2.76999998
   11.95333290   76.03350067    0.64999998    2.75000000
   11.95638847   78.08830261    0.64999998    2.76999998
   11.95972157   79.45659637    0.64999998    2.76999998
   11.96277714   76.64250183    0.64999998    2.76999998
   11.96333313   80.08619690    0.67000002    2.75000000
   11.96638870   79.96040344    0.67000002    2.75000000
   11.96972179   79.36930084    0.67000002    2.76999998
   11.97277737   77.31020355    0.69000000    2.76999998
   11.97611046   74.43589783    0.69000000    2.76999998
   11.97916603   79.36540222    0.69000000    2.76999998
   11.98249912   78.46549988    0.67000002    2.76999998
   11.98555565   80.44319916    0.67000002    2.76999998
   11.98888874   78.53220367    0.69000000    2.76999998
   11.99194431   83.32759857    0.67000002    2.76999998
   11.99527836   76.65850067    0.67000002    2.76999998
   11.99833393   80.42150116    0.67000002    2.75000000
   12.00166702   78.93289948    0.64999998    2.76999998
   12.00472260   78.46649933    0.64999998    2.76999998
   12.00805569   79.33619690    0.64999998    2.76999998
   12.01111126   79.25129700    0.64999998    2.76999998
   12.01333332   82.44519806    0.64999998    2.76999998
   12.01472187   77.60310364    0.64999998    2.76999998
   12.01805496   75.29019928    0.64999998    2.76999998
   12.02111053   80.58180237    0.64999998    2.76999998
   12.02472210   76.59269714    0.64999998    2.76999998
   12.02861118   85.12889862    0.63000000    2.78999996
   12.03222179   76.36219788    0.63000000    2.76999998
   12.03583336   80.48419952    0.63000000    2.76999998
   12.04083347   81.12989807    0.63000000    2.78999996
   12.04444504   83.03099823    0.63000000    2.76999998
   12.04805565   79.87480164    0.63000000    2.76999998
   12.05138874   78.39540100    0.64999998    2.76999998
   12.05527782   75.82820129    0.67000002    2.76999998
   12.05888939   83.89649963    0.64999998    2.78999996
   12.06277752   75.55680084    0.63000000    2.76999998
   12.06472206   88.39790344    0.63000000    2.76999998
   12.06805515   85.35189819    0.63000000    2.78999996
   12.07166672   80.67610168    0.63000000    2.78999996
   12.07527733   78.85079956    0.63000000    2.78999996
   12.07944393   76.50219727    0.61000001    2.76999998
   12.08249950   82.11689758    0.63000000    2.78999996
   12.08583260   79.50019836    0.63000000    2.78999996
   12.08888817   80.23159790    0.63000000    2.76999998
   12.09222221   79.10759735    0.63000000    2.76999998
   12.09555531   78.82759857    0.63000000    2.76999998
   12.09861088   82.97380066    0.63000000    2.78999996
   12.10194492   80.93550110    0.63000000    2.76999998
   12.10527802   85.74909973    0.63000000    2.78999996
   12.10861111   77.45950317    0.63000000    2.78999996
   12.11166668   76.54519653    0.63000000    2.78999996
   12.11333370   77.40869904    0.61000001    2.78999996
   12.11583328   83.69920349    0.58999997    2.78999996
   12.11888885   76.37020111    0.55000001    2.78999996
   12.12222195   79.09239960    0.55000001    2.78999996
   12.12527752   79.28309631    0.55000001    2.78999996
   12.12861156   80.86419678    0.56999999    2.76999998
   12.13194466   79.69409943    0.56999999    2.78999996
   12.13500023   77.92970276    0.56999999    2.78999996
   12.13833332   85.74269867    0.58999997    2.78999996
   12.14138889   77.29810333    0.58999997    2.78999996
   12.14472198   77.93209839    0.56999999    2.78999996
   12.14805508   79.98090363    0.61000001    2.78999996
   12.15111065   77.76830292    0.61000001    2.78999996
   12.15444374   78.19869995    0.63000000    2.78999996
   12.15833282   79.43810272    0.63000000    2.78999996
   12.16222191   80.36660004    0.64999998    2.78999996
   12.16583252   80.97149658    0.64999998    2.80999994
   12.16833401   83.35959625    0.64999998    2.78999996
   12.17166710   83.25150299    0.64999998    2.78999996
   12.17500019   82.67009735    0.64999998    2.78999996
   12.17833328   78.27799988    0.64999998    2.78999996
   12.18166733   79.34960175    0.64999998    2.78999996
   12.18472195   80.94419861    0.64999998    2.78999996
   12.18805599   86.22260284    0.63000000    2.78999996
   12.19138908   88.09889984    0.63000000    2.78999996
   12.19472218   84.49479675    0.61000001    2.78999996
   12.19777775   86.94049835    0.61000001    2.78999996
   12.20111084   83.10769653    0.61000001    2.78999996
   12.20444393   80.83580017    0.61000001    2.78999996
   12.20749950   76.62380219    0.61000001    2.78999996
   12.21083355   79.81880188    0.61000001    2.78999996
   12.21361065   80.74130249    0.58999997    2.78999996
   12.21444416   74.20600128    0.58999997    2.80999994
   12.21777725   86.23020172    0.56999999    2.80999994
   12.22111034   78.78800201    0.56999999    2.78999996
   12.22444439   77.56620026    0.58999997    2.80999994
   12.22749996   74.53379822    0.58999997    2.78999996
   12.23083305   78.30120087    0.58999997    2.80999994
   12.23416710   79.10710144    0.58999997    2.80999994
   12.23750019   77.61479950    0.58999997    2.78999996
   12.24055576   76.99949646    0.58999997    2.80999994
   12.24388885   76.48079681    0.58999997    2.80999994
   12.24722290   76.54070282    0.58999997    2.80999994
   12.25055599   81.23690033    0.61000001    2.80999994
   12.25361156   76.99349976    0.64999998    2.80999994
   12.25694466   76.84989929    0.64999998    2.80999994
   12.26027775   78.78320313    0.64999998    2.80999994
   12.26361084   83.85520172    0.67000002    2.80999994
   12.26416683   78.08460236    0.67000002    2.80999994
   12.26722240   76.28240204    0.67000002    2.78999996
   12.27055550   80.45020294    0.67000002    2.80999994
   12.27361107   76.70339966    0.67000002    2.80999994
   12.27722168   77.80359650    0.67000002    2.78999996
   12.28055573   75.36380005    0.67000002    2.78999996
   12.28388977   79.82060242    0.69000000    2.80999994
   12.28722286   77.85829926    0.70999998    2.80999994
   12.29027843   77.17610168    0.69000000    2.80999994
   12.29361153   80.75070190    0.69000000    2.80999994
   12.29666710   76.76069641    0.69000000    2.80999994
   12.30027771   74.49259949    0.69000000    2.80999994
   12.30388927   80.11660004    0.67000002    2.82999992
   12.30694485   79.17179871    0.67000002    2.82999992
   12.31027794   75.94329834    0.63000000    2.82999992
   12.31333351   75.82599640    0.67000002    2.80999994
   12.31388950   80.00420380    0.69000000    2.80999994
   12.31694412   75.84889984    0.69000000    2.80999994
   12.32027817   75.20690155    0.70999998    2.82999992
   12.32333374   76.76820374    0.70999998    2.82999992
   12.32666683   81.64199829    0.73000002    2.82999992
   12.32999992   76.41290283    0.73000002    2.82999992
   12.33305550   77.98819733    0.73000002    2.80999994
   12.33638859   78.47399902    0.73000002    2.80999994
   12.33944416   78.22550201    0.75000000    2.80999994
   12.34277725   80.29260254    0.75000000    2.80999994
   12.34583282   79.66880035    0.75000000    2.80999994
   12.34916592   84.27839661    0.75000000    2.80999994
   12.35249996   82.98179626    0.75000000    2.82999992
   12.35555553   79.64839935    0.75000000    2.80999994
   12.35944462   79.61370087    0.75000000    2.80999994
   12.36277771   79.76219940    0.76999998    2.80999994
   12.36361122   82.38600159    0.76999998    2.80999994
   12.36638927   78.37850189    0.81999999    2.80999994
   12.36972237   74.60350037    0.86000001    2.80999994
   12.37277794   77.71230316    0.86000001    2.80999994
   12.37611103   76.61920166    0.89999998    2.80999994
   12.37916660   76.01399994    0.88000000    2.80999994
   12.38249969   76.10030365    0.86000001    2.80999994
   12.38555527   75.48739624    0.86000001    2.82999992
   12.38888836   74.62229919    0.89999998    2.80999994
   12.39222240   78.27269745    0.89999998    2.82999992
   12.39527798   77.33350372    0.89999998    2.82999992
   12.39861107   76.18460083    0.89999998    2.80999994
   12.40194416   81.11170197    0.89999998    2.80999994
   12.40527725   79.17759705    0.88000000    2.80999994
   12.40833282   77.30580139    0.86000001    2.80999994
   12.41166592   81.16560364    0.83999997    2.80999994
   12.41361046   77.40789795    0.83999997    2.80999994
   12.41555500   77.29620361    0.89999998    2.82999992
   12.41861153   81.80519867    0.88000000    2.82999992
   12.42194462   79.86710358    0.86000001    2.82999992
   12.42527771   84.61180115    0.86000001    2.80999994
   12.42833328   77.95050049    0.86000001    2.80999994
   12.43166733   74.83989716    0.88000000    2.82999992
   12.43500042   77.12920380    0.92000002    2.80999994
   12.43805599   77.27469635    1.16999996    2.82999992
   12.44138908   85.79250336    1.14999998    2.82999992
   12.44472218   77.73719788    1.30999994    2.80999994
   12.44805527   75.59300232    1.89999998    2.80999994
   12.45111084   78.82029724    2.26999998    2.80999994
   12.45444393   78.14569855    2.42000008    2.80999994
   12.45777798   77.53700256    2.71000004    2.78999996
   12.46083355   76.25090027    2.73000002    2.78999996
   12.46361065   79.23580170    2.66000009    2.80999994
   12.46472168   79.34390259    2.66000009    2.80999994
   12.46777725   78.96779633    2.59999990    2.80999994
   12.47111034   76.42169952    2.46000004    2.80999994
   12.47444439   79.36139679    2.40000010    2.80999994
   12.47749996   76.37390137    2.19000006    2.80999994
   12.48083305   76.30780029    2.03999996    2.80999994
   12.48416710   76.26080322    2.01999998    2.78999996
   12.48722267   83.22039795    2.03999996    2.78999996
   12.49055576   77.12680054    2.11999989    2.80999994
   12.49361134   81.29830170    2.28999996    2.80999994
   12.49722290   77.58429718    2.39000010    2.80999994
   12.50027752   77.40940094    2.44000006    2.80999994
   12.50361156   78.37619781    2.51999998    2.80999994
   12.50666714   75.17829895    2.46000004    2.80999994
   12.51000023   78.92769623    2.05999994    2.80999994
   12.51333332   79.45359802    2.03999996    2.80999994
   12.51388931   78.56849670    2.00000000    2.80999994
   12.51722240   76.85209656    1.86000001    2.82999992
   12.52027798   76.50319672    1.88000000    2.80999994
   12.52361107   76.25370026    1.88000000    2.82999992
   12.52666664   78.55500031    1.86000001    2.80999994
   12.52999973   81.30470276    1.86000001    2.80999994
   12.53305531   82.52020264    1.86000001    2.80999994
   12.53638935   78.82389832    1.73000002    2.82999992
   12.53944492   78.53289795    1.73000002    2.82999992
   12.54277802   75.00109863    1.71000004    2.82999992
   12.54583359   81.98249817    1.69000006    2.82999992
   12.54916668   75.80419922    1.55999994    2.82999992
   12.55222225   75.22930145    1.36000001    2.82999992
   12.55555534   75.82530212    1.33000004    2.82999992
   12.55861092   74.48490143    1.36000001    2.82999992
   12.56166649   76.00630188    1.36000001    2.82999992
   12.56361103   76.89019775    1.44000006    2.82999992
   12.56527805   76.38549805    1.39999998    2.82999992
   12.56833363   77.57859802    1.41999996    2.82999992
   12.57166672   80.04879761    1.34000003    2.82999992
   12.57499981   76.64669800    1.53999996    2.82999992
   12.57805538   75.84140015    1.53999996    2.82999992
   12.59777737   73.58959961    0.88000000    2.82999992
   12.60083389   76.49410248    0.86000001    2.82999992
   12.60388947   74.51300049    0.86000001    2.84999990
   12.60722256   75.25700378    0.81999999    2.84999990
   12.61027813   73.18890381    0.81999999    2.84999990
   12.61361122   73.88680267    0.83999997    2.84999990
   12.61388969   74.32050323    0.94000000    2.82999992
   12.61722279   73.76580048    1.09000003    2.82999992
   12.62027836   76.07309723    1.14999998    2.84999990
   12.62361145   76.41770172    1.03999996    2.84999990
   12.62666702   76.28559875    0.73000002    2.84999990
   12.62972260   76.07689667    0.70999998    2.84999990
   12.63305569   78.78690338    0.70999998    2.84999990
   12.63611126   74.25520325    0.70999998    2.82999992
   12.63944435   77.50170135    0.67000002    2.84999990
   12.64249992   74.96170044    0.64999998    2.84999990
   12.64583302   75.37169647    0.73000002    2.84999990
   12.64888859   77.68309784    0.75000000    2.84999990
   12.65222168   78.21700287    0.80000001    2.84999990
   12.65527725   78.58580017    0.81999999    2.84999990
   12.65861034   74.49440002    0.83999997    2.84999990
   12.66166592   72.83670044    0.83999997    2.84999990
   12.66388893   75.80899811    0.83999997    2.84999990
   12.66527748   76.82450104    0.83999997    2.84999990
   12.66833401   77.33789825    0.83999997    2.84999990
   12.67166710   76.19899750    0.83999997    2.84999990
   12.67472267   77.91149902    0.83999997    2.84999990
   12.67805576   74.93170166    0.79000002    2.84999990
   12.68111134   78.48380280    0.81999999    2.84999990
   12.68444443   81.75209808    0.83999997    2.84999990
   12.68750000   77.99440002    0.81999999    2.84999990
   12.69083309   74.24559784    0.80000001    2.84999990
   12.69388866   78.51830292    0.83999997    2.84999990
   12.69722271   77.65619659    0.83999997    2.84999990
   12.70027733   76.25890350    0.83999997    2.84999990
   12.70361137   76.06189728    0.83999997    2.86999989
   12.70666695   76.90689850    0.83999997    2.84999990
   12.71000004   73.83070374    0.83999997    2.84999990
   12.71305561   73.38430023    0.88000000    2.86999989
   12.71388912   78.65769958    0.88000000    2.86999989
   12.71666622   75.69490051    0.88000000    2.86999989
   12.71972179   73.95549774    0.86000001    2.86999989
   12.72305489   81.67430115    0.94000000    2.84999990
   12.72611046   74.84940338    0.98000002    2.84999990
   12.72944355   73.24440002    1.00000000    2.86999989
   12.73249912   72.57589722    1.13000000    2.84999990
   12.73583317   75.88030243    1.14999998    2.86999989
   12.73888874   76.93800354    1.28999996    2.84999990
   12.74222279   75.87470245    1.30999994    2.84999990
   12.74527836   76.98919678    1.36000001    2.84999990
   12.74861145   77.60240173    1.36000001    2.84999990
   12.75166702   77.91760254    1.41999996    2.86999989
   12.75500011   79.06939697    1.44000006    2.86999989
   12.75805569   75.54570007    1.46000004    2.86999989
   12.76138878   76.56580353    1.48000002    2.84999990
   12.76388931   78.61799622    1.48000002    2.84999990
   12.76500034   74.79019928    1.58000004    2.86999989
   12.76805496   75.56099701    1.58000004    2.86999989
   12.77138901   74.57879639    1.58000004    2.86999989
   12.77444458   76.48930359    1.51999998    2.84999990
   12.77777767   75.20649719    1.41999996    2.84999990
   12.78083324   74.69570160    1.41999996    2.84999990
   12.78416729   78.60749817    1.16999996    2.86999989
   12.78722286   80.32089996    1.16999996    2.86999989
   12.79055595   81.15660095    1.05999994    2.84999990
   12.79361153   73.02799988    0.98000002    2.86999989
   12.79694462   78.54640198    0.95999998    2.86999989
   12.80000019   75.82369995    1.21000004    2.86999989
   12.80333328   78.67790222    1.11000001    2.86999989
   12.80638885   79.67500305    1.07000005    2.86999989
   12.80972195   78.61399841    0.95999998    2.86999989
   12.81277752   77.51959991    0.86000001    2.86999989
   12.81416702   77.66130066    0.83999997    2.86999989
   12.81638908   81.79859924    0.80000001    2.86999989
   12.81944466   75.68099976    0.67000002    2.86999989
   12.82277775   80.58070374    0.64999998    2.86999989
   12.82583332   76.94409943    0.67000002    2.86999989
   12.82916641   75.31479645    0.63000000    2.84999990
   12.83222198   75.45829773    0.58999997    2.86999989
   12.83555508   77.55570221    0.58999997    2.86999989
   12.83861065   80.58660126    0.55000001    2.86999989
   12.84194374   75.86239624    0.51999998    2.86999989
   12.84499931   77.34639740    0.50000000    2.86999989
   12.84833336   79.73390198    0.50000000    2.86999989
   12.85138893   80.65730286    0.50000000    2.86999989
   12.85472298   79.19339752    0.51999998    2.86999989
   12.85777855   80.42060089    0.52999997    2.86999989
   12.86111164   78.57270050    0.52999997    2.89000010
   12.86416721   74.85030365    0.51999998    2.89000010
   12.86472225   75.77200317    0.51999998    2.89000010
   12.86777782   76.65830231    0.52999997    2.89000010
   12.87111092   74.09179688    0.52999997    2.86999989
   12.87444496   75.87909698    0.46000001    2.86999989
   12.87750053   76.04489899    0.40000001    2.89000010
   12.88083363   73.52670288    0.40000001    2.89000010
   12.88388920   75.69599915    0.41999999    2.89000010
   12.88722229   80.13659668    0.41999999    2.89000010
   12.89027786   80.30020142    0.47999999    2.89000010
   12.89361095   75.33390045    0.50000000    2.89000010
   12.89666653   74.91829681    0.56999999    2.89000010
   12.89972210   76.21119690    0.56999999    2.89000010
   12.90305519   79.52210236    0.58999997    2.89000010
   12.90611076   74.83809662    0.58999997    2.89000010
   12.90944386   78.13719940    0.64999998    2.89000010
   12.91249943   76.60880280    0.64999998    2.89000010
   12.91416645   81.34660339    0.70999998    2.86999989
   12.91611099   74.12580109    0.75000000    2.89000010
   12.91916656   72.58270264    0.79000002    2.86999989
   12.92250061   75.15129852    0.86000001    2.89000010
   12.92555618   75.86660004    0.89999998    2.86999989
   12.92888927   75.32070160    0.88000000    2.86999989
   12.93194485   75.85520172    0.88000000    2.86999989
   12.93527794   76.83049774    0.94000000    2.86999989
   12.93833351   75.88580322    0.94000000    2.86999989
   12.94166660   77.49330139    0.79000002    2.89000010
   12.94472218   73.81919861    0.75000000    2.89000010
   12.94805527   76.29340363    0.55000001    2.89000010
   12.95111084   78.56390381    0.55000001    2.89000010
   12.95444393   83.75379944    0.56999999    2.89000010
   12.95749950   80.57369995    0.55000001    2.89000010
   12.96083355   76.73100281    0.55000001    2.89000010
   12.96416664   76.86640167    0.56999999    2.89000010
   12.96444416   78.22689819    0.55000001    2.89000010
   12.96749973   80.22730255    0.55000001    2.89000010
   12.97083282   78.29479980    0.63000000    2.89000010
   12.97388840   87.47299957    0.64999998    2.89000010
   12.97722149   84.92040253    0.61000001    2.86999989
   12.98027706   78.80349731    0.61000001    2.89000010
   12.98361111   76.65950012    0.64999998    2.89000010
   12.98666668   75.45600128    0.64999998    2.89000010
   12.99000072   75.71520233    0.63000000    2.89000010
   12.99305534   76.36879730    0.63000000    2.89000010
   12.99638939   75.96450043    0.63000000    2.89000010
   12.99944496   76.05639648    0.63000000    2.89000010
   13.00277805   81.06780243    0.56999999    2.86999989
   13.00583363   76.44609833    0.55000001    2.89000010
   13.00916672   78.77999878    0.52999997    2.89000010
   13.01222229   76.13240051    0.55000001    2.89000010
   13.01416683   74.37809753    0.55000001    2.89000010
   13.01583290   75.02410126    0.55000001    2.89000010
   13.01916599   75.68099976    0.52999997    2.89000010
   13.02222157   75.77490234    0.55000001    2.89000010
   13.02555561   77.55570221    0.56999999    2.91000009
   13.02861118   78.01370239    0.56999999    2.89000010
   13.03194427   79.43830109    0.55000001    2.89000010
   13.03500080   79.20529938    0.55000001    2.89000010
   13.03833389   77.57859802    0.55000001    2.89000010
   13.04138947   73.71320343    0.55000001    2.89000010
   13.04472256   73.94869995    0.55000001    2.89000010
   13.04777813   76.33789825    0.52999997    2.89000010
   13.05111122   75.76180267    0.55000001    2.89000010
   13.05416679   77.44200134    0.56999999    2.89000010
   13.05749989   77.01059723    0.56999999    2.89000010
   13.06055546   78.94660187    0.58999997    2.89000010
   13.06388950   75.82350159    0.56999999    2.91000009
   13.06444454   76.34880066    0.56999999    2.91000009
   13.06750011   75.08460236    0.56999999    2.89000010
   13.07055569   80.16690063    0.56999999    2.89000010
   13.07388878   71.50489807    0.56999999    2.89000010
   13.07694435   80.09130096    0.61000001    2.89000010
   13.08027744   73.43730164    0.63000000    2.89000010
   13.08333302   80.30020142    0.63000000    2.89000010
   13.08666611   79.39769745    0.61000001    2.89000010
   13.08972168   80.72149658    0.63000000    2.89000010
   13.09305477   75.93650055    0.63000000    2.89000010
   13.09611034   81.34439850    0.63000000    2.89000010
   13.09944439   78.77950287    0.63000000    2.89000010
   13.10249996   74.77860260    0.64999998    2.89000010
   13.10583401   75.51730347    0.64999998    2.89000010
   13.10888958   77.58989716    0.61000001    2.89000010
   13.11222267   75.02809906    0.61000001    2.89000010
   13.11416721   77.00399780    0.61000001    2.89000010
   13.11583328   78.38289642    0.61000001    2.89000010
   13.11888885   77.82029724    0.58999997    2.91000009
   13.12222195   77.02760315    0.58999997    2.91000009
   13.12527752   80.28060150    0.56999999    2.89000010
   13.12861156   76.80000305    0.56999999    2.89000010
   13.13166714   77.77909851    0.56999999    2.89000010
   13.13500023   77.43280029    0.51999998    2.91000009
   13.13805580   79.39790344    0.52999997    2.91000009
   13.14138889   77.97699738    0.55000001    2.91000009
   13.14444447   77.88459778    0.52999997    2.89000010
   13.26138878   -1.00000000   -1.00000000   -1.00000000
   13.35888958   -1.00000000   -1.00000000   -1.00000000
   13.46083355   -1.00000000   -1.00000000   -1.00000000
   13.50055599   63.03519821    1.63000000    2.91000009
   13.50361156   75.35299683    1.61000001    2.91000009
   13.50694466   74.93240356    1.64999998    2.91000009
   13.51000023   74.50240326    1.80999994    2.89000010
   13.51305580   73.19869995    1.73000002    2.91000009
   13.51638889   72.51529694    1.73000002    2.91000009
   13.51944447   76.20220184    1.69000006    2.91000009
   13.52277756   74.18979645    1.55999994    2.91000009
   13.52916622   74.18979645    1.60000002    2.91000009
   13.53305531   72.89350128    1.61000001    2.91000009
   13.53638935   76.19300079    1.64999998    2.91000009
   13.53944492   73.97429657    1.71000004    2.91000009
   13.54277802   70.03199768    1.63000000    2.91000009
   13.54583359   71.88130188    1.48000002    2.93000007
   13.54916668   73.15609741    1.46000004    2.91000009
   13.55055618   71.15149689    1.46000004    2.91000009
   13.55249977   70.78910065    1.28999996    2.91000009
   13.55555534   71.57039642    1.28999996    2.91000009
   13.55888939   71.99359894    1.33000004    2.93000007
   13.56194496   73.62789917    1.21000004    2.93000007
   13.56527805   69.96620178    1.75000000    2.91000009
   13.56833363   70.45610046    1.91999996    2.91000009
   13.57166672   73.16369629    1.50000000    2.91000009
   13.57472229   73.73020172    1.13000000    2.91000009
   13.58027744   73.73020172    1.33000004    2.91000009
   13.58444405   78.20400238    1.23000002    2.91000009
   13.58749962   74.19270325    1.25000000    2.91000009
   13.59083271   72.18199921    1.25000000    2.91000009
   13.59388828   75.96980286    1.21000004    2.93000007
   13.59722233   72.19419861    1.38000000    2.93000007
   13.60027790   72.41200256    1.23000002    2.93000007
   13.60083389   73.09249878    1.21000004    2.93000007
   13.60388947   77.16249847    1.05999994    2.91000009
   13.60722256   81.03099823    1.03999996    2.93000007
   13.61027813   72.52169800    1.01999998    2.91000009
   13.61361122   74.74919891    1.01999998    2.93000007
   13.61666679   75.50759888    1.03999996    2.93000007
   13.61972237   76.08809662    1.09000003    2.93000007
   13.62305546   72.90470123    1.14999998    2.93000007
   13.62611103   73.41459656    1.09000003    2.93000007
   13.63138866   73.41459656    1.11000001    2.93000007
   13.63555527   71.00330353    1.11000001    2.91000009
   13.63861084   71.35679626    1.09000003    2.91000009
   13.64194393   73.98179626    1.09000003    2.91000009
   13.64499950   72.10169983    1.07000005    2.93000007
   13.64805508   79.95729828    1.01999998    2.93000007
   13.65083313   76.41529846    1.07000005    2.91000009
   13.65166664   81.57460022    1.09000003    2.93000007
   13.65499973   82.46659851    1.09000003    2.93000007
   13.65805531   75.64119720    1.13000000    2.93000007
   13.66138840   76.13110352    1.16999996    2.91000009
   13.66444397   82.52619934    1.21000004    2.93000007
   13.66777802   74.66459656    1.21000004    2.93000007
   13.67111111   78.72820282    1.25000000    2.91000009
   13.67416668   78.04709625    1.36000001    2.91000009
   13.67750072   79.17449951    1.34000003    2.93000007
   13.68249989   79.17449951    1.36000001    2.91000009
   13.68666649   80.63909912    1.36000001    2.93000007
   13.68972206   75.71759796    1.36000001    2.93000007
   13.69305515   75.48459625    1.36000001    2.91000009
   13.69611073   75.17500305    1.34000003    2.93000007
   13.69944477   76.83119965    1.21000004    2.93000007
   13.70083332   77.31390381    1.21000004    2.93000007
   13.70277786   79.44819641    1.16999996    2.93000007
   13.70611095   74.01200104    1.07000005    2.93000007
   13.70916653   80.08840179    1.07000005    2.93000007
   13.71249962   77.41110229    1.09000003    2.93000007
   13.71555519   73.80549622    1.09000003    2.93000007
   13.71888828   72.78459930    1.07000005    2.93000007
   13.72194386   72.73370361    1.07000005    2.93000007
   13.72527695   72.80709839    0.94000000    2.93000007
   13.72833252   73.73670197    0.92000002    2.93000007
   13.73388958   73.73670197    0.92000002    2.93000007
   13.73777771   74.45659637    0.95999998    2.93000007
   13.74111176   72.02709961    0.98000002    2.93000007
   13.74416733   74.92299652    1.01999998    2.93000007
   13.74750042   74.33969879    1.03999996    2.93000007
   13.75055599   74.39140320    1.03999996    2.93000007
   13.75111103   72.00579834    1.03999996    2.93000007
   13.75416660   73.89610291    0.94000000    2.93000007
   13.75749969   78.71569824    0.83999997    2.93000007
   13.76055527   75.09819794    0.81999999    2.94000006
   13.76388931   75.03359985    0.83999997    2.93000007
   13.76694393   75.20980072    0.89999998    2.93000007
   13.77027798   74.59909821    0.94000000    2.93000007
   13.77333355   77.63690186    0.92000002    2.93000007
   13.77666664   72.94989777    0.92000002    2.93000007
   13.77972221   72.11540222    0.89999998    2.93000007
   13.78500080   72.11540222    0.89999998    2.93000007
   13.78916740   73.87640381    0.95999998    2.93000007
   13.79222298   76.85420227    1.01999998    2.93000007
   13.79555607   72.80709839    1.01999998    2.93000007
   13.79861164   73.47059631    1.00000000    2.93000007
   13.80111122   75.40630341    0.98000002    2.93000007
   13.80194473   75.23269653    0.98000002    2.93000007
   13.80527782   74.42359924    0.98000002    2.93000007
   13.80833340   76.26529694    0.95999998    2.93000007
   13.81166649   74.41490173    0.94000000    2.93000007
   13.81472206   73.53420258    0.95999998    2.93000007
   13.81805515   72.07859802    0.94000000    2.93000007
   13.82111073   71.37740326    0.94000000    2.93000007
   13.82444477   74.55130005    0.94000000    2.94000006
   13.82750034   73.04149628    0.94000000    2.93000007
   13.83083344   73.99639893    0.94000000    2.93000007
   13.83611107   73.99639893    0.94000000    2.93000007
   13.84027767   73.11009979    0.89999998    2.94000006
   13.84333324   76.26599884    0.88000000    2.93000007
   13.84666634   75.76609802    0.88000000    2.93000007
   13.84972191   77.61360168    0.88000000    2.93000007
   13.85111141   74.69719696    0.88000000    2.93000007
   13.85333347   76.47090149    0.88000000    2.93000007
   13.85666752   74.57250214    0.88000000    2.93000007
   13.85972214   73.83399963    0.88000000    2.93000007
   13.86305618   75.54779816    0.88000000    2.93000007
   13.86611176   80.00370026    0.88000000    2.93000007
   13.86944485   74.09950256    0.88000000    2.93000007
   13.87250042   81.63140106    0.94000000    2.94000006
   13.87583351   74.95520020    0.95999998    2.93000007
   13.87888908   72.98719788    0.95999998    2.93000007
   13.88222218   77.21330261    0.95999998    2.93000007
   13.88722229   77.21330261    1.00000000    2.94000006
   13.89138889   78.50279999    1.05999994    2.94000006
   13.89444447   78.99440002    1.09000003    2.93000007
   13.89777756   76.56279755    1.09000003    2.93000007
   13.90083313   79.43750000    1.13000000    2.94000006
   13.90138817   76.37449646    1.16999996    2.94000006
   13.90472221   76.17230225    1.19000006    2.93000007
   13.90777779   73.30110168    1.16999996    2.93000007
   13.91111088   73.90950012    1.28999996    2.93000007
   13.91416645   75.13069916    1.19000006    2.94000006
   13.91750050   74.22540283    1.16999996    2.93000007
   13.92055607   75.49359894    1.16999996    2.94000006
   13.92388916   76.72840118    1.26999998    2.94000006
   13.92694473   72.49790192    1.26999998    2.94000006
   13.93027782   76.15760040    1.28999996    2.93000007
   13.93333340   73.63490295    1.21000004    2.94000006
   13.93861103   73.63490295    1.21000004    2.94000006
   13.94250011   74.02459717    1.14999998    2.93000007
   13.94583321   76.39309692    1.14999998    2.93000007
   13.94888878   73.82250214    1.14999998    2.93000007
   13.95138836   74.42030334    1.09000003    2.93000007
   13.95249939   75.85209656    1.09000003    2.93000007
   13.95555496   76.49579620    1.05999994    2.94000006
   13.95888901   75.48090363    1.05999994    2.94000006
   13.96194458   81.35330200    1.11000001    2.93000007
   13.96527767   76.91729736    1.13000000    2.94000006
   13.96833324   72.65049744    1.16999996    2.93000007
   13.97166634   77.74040222    1.23000002    2.93000007
   13.97472191   75.67929840    1.23000002    2.93000007
   13.97805500   72.91110229    1.26999998    2.94000006
   13.98111057   73.39479828    1.33000004    2.93000007
   13.98444462   76.34850311    1.64999998    2.93000007
   13.98972225   76.34850311    1.75000000    2.93000007
   13.99361134   71.81870270    1.83000004    2.94000006
   13.99694443   74.74440002    1.83000004    2.93000007
   14.00000000   71.91719818    1.78999996    2.93000007
   14.00138855   71.80590057    1.78999996    2.93000007
   14.00361156   72.76730347    1.76999998    2.93000007
   14.00694466   73.54019928    1.63000000    2.93000007
   14.01000023   74.30909729    1.80999994    2.93000007
   14.01333332   76.41259766    1.76999998    2.93000007
   14.01638889   75.82479858    1.69000006    2.93000007
   14.01972198   73.81569672    1.78999996    2.94000006
   14.02277756   70.42400360    1.89999998    2.94000006
   14.02611065   73.29699707    1.91999996    2.94000006
   14.02916622   74.22920227    1.89999998    2.93000007
   14.03249931   73.04630280    1.83000004    2.93000007
   14.03555584   75.31649780    1.96000004    2.93000007
   14.04083347   75.31649780    1.60000002    2.94000006
   14.04500008   70.78589630    1.41999996    2.93000007
   14.04805565   74.02780151    1.75000000    2.93000007
   14.05138874   72.80729675    1.66999996    2.93000007
   14.05166721   72.14779663    1.66999996    2.93000007
   14.05472279   74.97570038    1.51999998    2.93000007
   14.05777836   74.37020111    1.51999998    2.93000007
   14.06111145   75.76390076    1.46000004    2.94000006
   14.06416702   76.95559692    1.21000004    2.94000006
   14.06750011   75.08760071    1.21000004    2.93000007
   14.07055569   74.35690308    1.23000002    2.94000006
   14.07388878   73.85549927    1.21000004    2.94000006
   14.07694435   72.59490204    1.21000004    2.94000006
   14.08027744   74.60230255    1.21000004    2.94000006
   14.08333302   73.37280273    1.25000000    2.94000006
   14.08666611   76.48709869    1.25000000    2.94000006
   14.09194374   76.48709869    1.13000000    2.94000006
   14.09611034   72.06079865    1.16999996    2.94000006
   14.09916592   78.66580200    1.05999994    2.94000006
   14.10166740   77.65910339    1.05999994    2.94000006
   14.10277843   75.12079620    1.05999994    2.94000006
   14.10583401   74.88569641    1.03999996    2.94000006
   14.10916710   76.57140350    1.03999996    2.94000006
   14.11222267   76.36289978    1.01999998    2.94000006
   14.11555576   73.17169952    1.01999998    2.94000006
   14.11861134   77.14890289    0.98000002    2.94000006
   14.12194443   80.68319702    0.98000002    2.94000006
   14.12500000   75.16510010    1.00000000    2.94000006
   14.12833309   73.36560059    1.01999998    2.94000006
   14.13138866   79.94400024    1.01999998    2.94000006
   14.13472176   78.46340179    1.01999998    2.94000006
   14.13777733   76.87779999    1.00000000    2.94000006
   14.14305496   76.87779999    1.01999998    2.94000006
   14.14722252   70.29940033    1.16999996    2.94000006
   14.15055561   78.31950378    1.01999998    2.94000006
   14.15166664   74.89610291    1.05999994    2.94000006
   14.15388870   75.86799622    1.05999994    2.94000006
   14.15694427   77.23930359    1.05999994    2.94000006
   14.16027737   72.13120270    1.11000001    2.94000006
   14.16333294   74.97029877    1.13000000    2.94000006
   14.16666698   73.60970306    1.16999996    2.94000006
   14.16972256   74.62889862    1.21000004    2.94000006
   14.17305565   76.75430298    1.21000004    2.94000006
   14.17611122   72.48950195    1.14999998    2.94000006
   14.17944431   76.61460114    1.14999998    2.94000006
   14.18249989   75.85790253    1.19000006    2.94000006
   14.18583298   72.53320313    1.25000000    2.94000006
   14.18888855   74.15409851    1.14999998    2.94000006
   14.19444466   74.15409851    1.16999996    2.94000006
   14.19833374   73.68859863    1.16999996    2.94000006
   14.20166683   78.29669952    1.13000000    2.94000006
   14.20222187   76.12560272    1.13000000    2.94000006
   14.20527744   76.43589783    1.14999998    2.94000006
   14.20861053   73.57820129    1.09000003    2.94000006
   14.21166611   72.40409851    1.14999998    2.94000006
   14.21500015   72.80529785    1.11000001    2.94000006
   14.21805477   77.31680298    1.11000001    2.94000006
   14.22138882   76.35710144    1.11000001    2.94000006
   14.22444439   79.93139648    1.11000001    2.94000006
   14.22777748   75.74859619    1.05999994    2.96000004
   14.23083305   73.74299622    1.00000000    2.94000006
   14.23416710   75.76879883    0.98000002    2.94000006
   14.23722267   76.76180267    0.89999998    2.94000006
   14.24055576   75.59020233    0.89999998    2.96000004
   14.24555588   75.59020233    0.89999998    2.94000006
   14.24972248   75.78949738    0.92000002    2.94000006
   14.25222206   73.72450256    0.92000002    2.94000006
   14.25305557   71.31109619    0.92000002    2.94000006
   14.25638866   71.95890045    0.95999998    2.96000004
   14.25944424   70.80740356    0.95999998    2.94000006
   14.26277733   77.02960205    0.95999998    2.94000006
   14.26583290   74.18979645    0.92000002    2.94000006
   14.26916599   72.79060364    0.81999999    2.94000006
   14.27222157   79.30380249    0.88000000    2.94000006
   14.27555561   77.07230377    0.88000000    2.94000006
   14.27861118   77.13839722    0.89999998    2.94000006
   14.28194427   77.53179932    0.75000000    2.94000006
   14.28500080   74.64569855    0.79000002    2.96000004
   14.28833389   75.36409760    0.80000001    2.96000004
   14.29138947   76.36930084    0.81999999    2.94000006
   14.29666710   76.36930084    0.81999999    2.94000006
   14.30083370   75.28209686    0.83999997    2.94000006
   14.30222225   79.70860291    0.83999997    2.94000006
   14.30416679   80.28260040    0.83999997    2.94000006
   14.30749989   71.62750244    0.86000001    2.94000006
   14.31055546   72.75679779    0.83999997    2.96000004
   14.31388950   74.07060242    0.83999997    2.96000004
   14.31694412   73.16880035    0.88000000    2.94000006
   14.32027817   76.57879639    0.88000000    2.94000006
   14.32333374   77.52970123    0.88000000    2.94000006
   14.32666683   74.49330139    0.88000000    2.94000006
   14.32972240   77.99069977    0.88000000    2.94000006
   14.33305550   74.80999756    0.88000000    2.94000006
   14.33611107   79.53379822    0.88000000    2.96000004
   14.33944416   75.04910278    0.88000000    2.94000006
   14.34249973   81.52960205    0.86000001    2.96000004
   14.34777737   81.52960205    0.89999998    2.96000004
   14.35194492   76.46890259    0.88000000    2.94000006
   14.35249996   76.83110046    0.88000000    2.94000006
   14.35555553   75.70040131    0.88000000    2.94000006
   14.35888958   79.35060120    0.94000000    2.94000006
   14.36194515   74.26270294    0.95999998    2.94000006
   14.36527824   72.32479858    1.11000001    2.94000006
   14.36833382   75.98110199    1.19000006    2.94000006
   14.37166691   71.84549713    1.33000004    2.94000006
   14.37472248   74.85990143    1.46000004    2.94000006
   14.37805557   75.30470276    1.13000000    2.96000004
   14.38111115   74.97660065    1.09000003    2.94000006
   14.38444424   84.60420227    1.28999996    2.94000006
   14.38749981   79.83699799    1.07000005    2.96000004
   14.39083290   78.42819977    1.05999994    2.94000006
   14.39388847   78.76889801    1.13000000    2.94000006
   14.39916611   78.76889801    1.14999998    2.94000006
   14.40305519   73.57540131    1.13000000    2.94000006
   14.40638828   75.56420135    0.95999998    2.94000006
   14.40944386   78.32319641    0.95999998    2.94000006
   14.41277695   75.60140228    0.94000000    2.94000006
   14.41583252   74.97830200    0.92000002    2.94000006
   14.41916656   77.28299713    0.92000002    2.94000006
   14.42222214   73.93840027    0.89999998    2.96000004
   14.42555618   75.65679932    0.88000000    2.94000006
   14.42861176   75.46589661    0.86000001    2.96000004
   14.43194485   75.48629761    0.89999998    2.94000006
   14.43527794   72.65219879    0.94000000    2.94000006
   14.43833351   73.32270050    0.98000002    2.96000004
   14.44166660   75.33360291    0.98000002    2.96000004
   14.44472218   76.22480011    1.03999996    2.96000004
   14.45027733   76.22480011    1.07000005    2.96000004
   14.45444393   79.84559631    1.01999998    2.94000006
   14.45749950   73.22899628    0.98000002    2.96000004
   14.46083355   75.74259949    1.00000000    2.94000006
   14.46388912   77.69319916    1.01999998    2.94000006
   14.46722221   76.56390381    1.03999996    2.94000006
   14.47027779   76.04199982    1.01999998    2.94000006
   14.47361088   76.43240356    0.95999998    2.94000006
   14.47666645   79.78440094    0.95999998    2.96000004
   14.47999954   78.05090332    0.95999998    2.94000006
   14.48305511   77.88020325    0.92000002    2.96000004
   14.48638916   75.80030060    0.94000000    2.96000004
   14.48944473   75.65599823    0.94000000    2.96000004
   14.49277782   76.63359833    0.92000002    2.96000004
   14.49583340   73.06140137    0.88000000    2.96000004
   14.51749992   72.95899963    1.11000001    2.94000006
   14.51805496   77.02159882    1.11000001    2.94000006
   14.52111053   77.58540344    1.11000001    2.94000006
   14.52444458   75.34680176    1.09000003    2.94000006
   14.52750015   77.32910156    1.09000003    2.94000006
   14.53083324   84.59420013    1.01999998    2.94000006
   14.53388977   76.84300232    1.07000005    2.94000006
   14.53722286   80.67549896    1.07000005    2.96000004
   14.54027843   75.56310272    1.07000005    2.94000006
   14.54361153   75.64700317    1.07000005    2.96000004
   14.54666710   74.25479889    1.05999994    2.96000004
   14.55277824   74.25479889    1.11000001    2.96000004
   14.55694485   76.01319885    0.92000002    2.96000004
   14.56000042   76.88719940    0.92000002    2.96000004
   14.56333351   83.26380157    0.95999998    2.94000006
   14.56638908   81.59700012    0.98000002    2.96000004
   14.56750011   75.42980194    0.98000002    2.96000004
   14.56999969   74.64859772    1.01999998    2.96000004
   14.57333374   73.42359924    0.92000002    2.94000006
   14.57638836   85.73789978    0.89999998    2.94000006
   14.57972240   75.30400085    0.89999998    2.96000004
   14.58277798   74.68840027    0.89999998    2.96000004
   14.58611107   73.00070190    0.89999998    2.94000006
   14.58916664   72.25599670    0.92000002    2.96000004
   14.59249973   72.14959717    0.92000002    2.96000004
   14.59555531   74.65339661    0.92000002    2.96000004
   14.59888840   77.19409943    0.88000000    2.96000004
   14.60388947   77.19409943    0.89999998    2.96000004
   14.60805607   74.47080231    0.92000002    2.94000006
   14.61111164   77.07669830    0.94000000    2.96000004
   14.61444473   74.54429626    0.89999998    2.96000004
   14.61750031   78.18119812    0.89999998    2.96000004
   14.61777782   76.84609985    0.89999998    2.96000004
   14.62111092   81.13680267    0.89999998    2.94000006
   14.62416649   75.51170349    0.86000001    2.96000004
   14.62750053   75.50990295    0.88000000    2.96000004
   14.63055611   75.48509979    0.81999999    2.96000004
   14.63388920   76.99559784    0.83999997    2.96000004
   14.63694477   77.85600281    0.81999999    2.96000004
   14.64027786   79.80960083    0.81999999    2.96000004
   14.64333344   74.88059998    0.83999997    2.96000004
   14.64666653   75.18240356    0.81999999    2.96000004
   14.64972210   77.03869629    0.81999999    2.96000004
   14.65499973   77.03869629    0.81999999    2.96000004
   14.65916634   78.82479858    0.81999999    2.96000004
   14.66249943   75.99790192    0.83999997    2.96000004
   14.66555500   75.67009735    0.81999999    2.96000004
   14.66750050   76.57839966    0.81999999    2.96000004
   14.66916656   74.37370300    1.03999996    2.96000004
   14.67250061   77.62180328    1.01999998    2.96000004
   14.67555618   75.91400146    1.00000000    2.96000004
   14.67888927   74.61150360    1.00000000    2.96000004
   14.68194485   75.44529724    0.88000000    2.96000004
   14.68527794   76.64350128    0.80000001    2.96000004
   14.68833351   74.29910278    0.80000001    2.96000004
   14.69166660   73.67569733    0.81999999    2.96000004
   14.69472218   74.13649750    0.17000000    1.00000000
   14.69805527   73.03029633    0.05000000    0.41999999
   14.70111084   74.14640045    0.03000000    0.13000000
   14.70638847   74.14640045    0.03000000    0.13000000
   14.71027756   77.54049683    0.03000000    0.13000000
   14.71361065   75.40180206    0.03000000    0.13000000
   14.71666622   77.11820221    0.03000000    0.13000000
   14.71749973   74.04399872    0.03000000    0.13000000
   14.72027779   73.64579773    0.03000000    0.13000000
   14.72361088   72.90699768    0.03000000    0.13000000
   14.72666645   73.31379700    0.03000000    0.13000000
   14.72999954   74.79010010    0.03000000    0.13000000
   14.73305511   74.51699829    0.03000000    0.13000000
   14.73638916   74.63760376    0.03000000    0.13000000
   14.73944473   75.33799744    0.03000000    0.13000000
   14.74277782   76.52159882    0.03000000    0.13000000
   14.74583340   72.60299683    0.03000000    0.13000000
   14.74916649   82.31739807    0.03000000    0.13000000
   14.75222206   76.82630157    0.03000000    0.13000000
   14.75749969   76.82630157    0.03000000    0.13000000
   14.76138878   87.46669769    0.03000000    0.13000000
   14.76472187   75.85199738    0.03000000    0.13000000
   14.76777744   75.84519958    0.03000000    0.13000000
   14.76833344   81.06359863    0.03000000    0.13000000
   14.77166653   73.13289642    0.03000000    0.13000000
   14.77472210   74.36519623    0.03000000    0.13000000
   14.77805519   78.73449707    0.03000000    0.13000000
   14.78111076   76.29609680    0.03000000    0.13000000
   14.78444481   78.79409790    0.03000000    0.13000000
   14.78750038   76.01370239    0.03000000    0.13000000
   14.79083347   78.78530121    0.03000000    0.13000000
   14.79388905   76.26619720    0.03000000    0.13000000
   14.79722309   72.81050110    0.03000000    0.13000000
   14.80027771   79.33709717    0.03000000    0.13000000
   14.80361176   73.63369751    0.03000000    0.13000000
   14.80861092   73.63369751    0.03000000    0.13000000
   14.81277752   75.80059814    0.03000000    0.13000000
   14.81583309   76.16439819    0.03000000    0.13000000
   14.81777763   71.93280029    0.03000000    0.13000000
   14.81944466   76.39620209    0.03000000    0.13000000
   14.82277775   75.94730377    0.03000000    0.13000000
   14.82583332   76.89959717    0.03000000    0.13000000
   14.82916641   73.85669708    0.03000000    0.13000000
   14.83222198   80.62920380    0.03000000    0.13000000
   14.83555508   75.69779968    0.03000000    0.13000000
   14.83861065   81.73429871    0.03000000    0.13000000
   14.84194374   74.41210175    0.03000000    0.13000000
   14.84499931   83.00479889    0.03000000    0.13000000
   14.84833336   74.16320038    0.03000000    0.13000000
   14.85138893   81.81739807    0.03000000    0.13000000
