    HOUR (UT)   FLARE FACTOR    SKY TESTER    SUN TESTER
   11.38166714   -1.00000000   -1.00000000   -1.00000000
   11.40194416  109.10500336    4.82999992    2.55999994
   11.40722179  121.47000122    4.80999994    2.57999992
   11.41027737  147.00399780    4.80000019    2.55999994
   11.41361046  132.15299988    4.78000021    2.57999992
   11.41666698  121.19799805    4.78000021    2.57999992
   11.42000008  111.33599854    4.78000021    2.57999992
   11.42305565  112.88600159    4.76000023    2.57999992
   11.42638874  135.60299683    4.76000023    2.57999992
   11.42944431  104.69699860    4.76000023    2.57999992
   11.43277836  118.54299927    4.73999977    2.57999992
   11.43527794  116.05999756    4.73999977    2.57999992
   11.43611145  128.63099670    4.73999977    2.57999992
   11.43944454  128.17300415    4.73999977    2.59999990
   11.44277763  117.98300171    4.73999977    2.57999992
   11.44583321  124.42400360    4.73999977    2.59999990
   11.44916630  100.04599762    4.71999979    2.57999992
   11.45222187  106.70700073    4.69999981    2.57999992
   11.45527744  117.91799927    4.67999983    2.59999990
   11.45861053  122.27500153    4.67999983    2.59999990
   11.46194458  117.28900146    4.69999981    2.59999990
   11.46500015  157.61399841    4.67999983    2.57999992
   11.46805477  139.32400513    4.65999985    2.59999990
   11.47138882  104.53900146    4.63999987    2.59999990
   11.47444439  110.43599701    4.63999987    2.59999990
   11.47777748  137.54499817    4.63999987    2.61999989
   11.48083305  101.13999939    4.63999987    2.59999990
   11.48416710  107.19599915    4.63999987    2.59999990
   11.48527813  105.42400360    4.63999987    2.59999990
   11.48777771  125.32199860    4.59999990    2.57999992
   11.49083328  128.35400391    4.57999992    2.59999990
   11.49416733  121.40499878    4.55999994    2.59999990
   11.49722290  116.00000000    4.53999996    2.59999990
   11.50027752  139.11000061    4.53000021    2.59999990
   11.50361156  128.91799927    4.51000023    2.61999989
   11.50694466  104.61900330    4.51000023    2.61999989
   11.51000023  122.57499695    4.51000023    2.59999990
   11.51305580  118.29399872    4.48999977    2.59999990
   11.51638889  114.24099731    4.48999977    2.59999990
   11.51944447  125.07399750    4.48999977    2.59999990
   11.52277756  119.54599762    4.48999977    2.61999989
   11.52583313  128.60499573    4.51000023    2.61999989
   11.52916622  122.23200226    4.53000021    2.61999989
   11.53222179  119.40299988    4.53000021    2.59999990
   11.53527832  121.03299713    4.53000021    2.61999989
   11.53583336  107.15100098    4.53999996    2.59999990
   11.53916740  108.53800201    4.55999994    2.61999989
   11.54222298  111.08399963    4.57999992    2.61999989
   11.54555607  140.14500427    4.59999990    2.61999989
   11.54861164  131.26199341    4.63999987    2.61999989
   11.55194473  131.94400024    4.65999985    2.61999989
   11.55500031  129.72500610    4.65999985    2.61999989
   11.55833340  108.55400085    4.67999983    2.61999989
   11.56138897  138.75799561    4.67999983    2.61999989
   11.56472206  115.00000000    4.69999981    2.61999989
   11.56805515  112.12000275    4.67999983    2.61999989
   11.57111073  123.39700317    4.67999983    2.61999989
   11.57416630  139.07000732    4.67999983    2.61999989
   11.57750034  123.67199707    4.65999985    2.61999989
   11.58083344  118.39499664    4.65999985    2.61999989
   11.58388901  115.33399963    4.61999989    2.61999989
   11.58527756  132.88099670    4.61999989    2.64000010
   11.58749962  118.96299744    4.57999992    2.61999989
   11.59055519  117.83599854    4.55999994    2.64000010
   11.59388828  106.88899994    4.53000021    2.61999989
   11.59694386  130.55200195    4.51000023    2.61999989
   11.60027790  102.35099792    4.48999977    2.61999989
   11.60333347  111.68699646    4.46999979    2.64000010
   11.60666752  102.38200378    4.46999979    2.64000010
   11.60972214  112.24700165    4.42999983    2.64000010
   11.61305618  105.21700287    4.40999985    2.64000010
   11.61611176  114.74400330    4.40999985    2.64000010
   11.61944485   97.27649689    4.38999987    2.64000010
   11.62250042  132.41799927    4.36999989    2.64000010
   11.62583351  143.33299255    4.34999990    2.64000010
   11.62888908  135.78799438    4.34999990    2.64000010
   11.63222218  118.25199890    4.32999992    2.64000010
   11.63527775  116.84700012    4.32999992    2.64000010
   11.63583279  111.08499908    4.32999992    2.64000010
   11.63888836  120.78099823    4.30999994    2.64000010
   11.64194393  135.49600220    4.32999992    2.64000010
   11.64527798  130.35499573    4.32999992    2.66000009
   11.64833355  103.18299866    4.30999994    2.66000009
   11.65166664  106.34999847    4.28999996    2.64000010
   11.65472221  126.96800232    4.28999996    2.66000009
   11.65805531  103.20700073    4.30999994    2.64000010
   11.66111088  110.50800323    4.32999992    2.64000010
   11.66444397  135.98300171    4.32999992    2.64000010
   11.66750050  140.53199768    4.34999990    2.64000010
   11.67083359  114.24500275    4.34999990    2.66000009
   11.67388916  112.74099731    4.36999989    2.64000010
   11.67722225  126.32099915    4.36999989    2.64000010
   11.68027782  107.33899689    4.36999989    2.64000010
   11.68361092  126.63300323    4.36999989    2.67000008
   11.68527794  121.50599670    4.36999989    2.64000010
   11.68722248  110.67400360    4.36999989    2.64000010
   11.69027805  118.23899841    4.36999989    2.67000008
   11.69361115  130.30099487    4.34999990    2.66000009
   11.69666672  115.20800018    4.32999992    2.66000009
   11.69999981  131.74699402    4.32999992    2.66000009
   11.70305538  138.28100586    4.32999992    2.64000010
   11.70638847  123.91799927    4.32999992    2.66000009
   11.70944405  115.58000183    4.30999994    2.66000009
   11.71277714  134.63800049    4.30999994    2.66000009
   11.71583271  123.54900360    4.30999994    2.66000009
   11.71916580  118.67500305    4.32999992    2.66000009
   11.72222137  125.69699860    4.34999990    2.66000009
   11.72555542  126.79799652    4.34999990    2.66000009
   11.72861099  134.05200195    4.30999994    2.67000008
   11.73194408  152.81799316    4.30999994    2.67000008
   11.73500061  117.30300140    4.28999996    2.66000009
   11.73555565  131.46899414    4.30999994    2.66000009
   11.73861122  117.40599823    4.28999996    2.66000009
   11.74194431  126.98000336    4.28999996    2.66000009
   11.74499989  114.98999786    4.30999994    2.66000009
   11.74833393  113.89199829    4.30999994    2.66000009
   11.75138855  111.12100220    4.28999996    2.67000008
   11.75472260  127.33499908    4.26999998    2.67000008
   11.75777817  143.73199463    4.26000023    2.67000008
   11.76111126  111.28299713    4.19999981    2.67000008
   11.76416683  140.11000061    4.17999983    2.67000008
   11.76749992  126.87799835    4.13999987    2.67000008
   11.77055550  134.12399292    4.11999989    2.67000008
   11.77388859  115.19200134    4.11999989    2.67000008
   11.77694416  118.36199951    4.11999989    2.67000008
   11.78027725  127.54799652    4.11999989    2.66000009
   11.78333378  130.16299438    4.11999989    2.67000008
   11.78555584  123.96199799    4.09999990    2.69000006
   11.78694534  128.04899597    4.09999990    2.69000006
   11.79027843  108.61199951    4.09999990    2.67000008
   11.79333401  110.14700317    4.05999994    2.67000008
   11.79666710  109.85500336    4.07999992    2.67000008
   11.79972267  121.29499817    4.05999994    2.67000008
   11.80305576  116.72299957    4.03999996    2.67000008
   11.80611134  119.20899963    4.05999994    2.67000008
   11.80944443  115.79299927    4.05999994    2.69000006
   11.81250000  112.18399811    4.05999994    2.67000008
   11.81583309  114.16999817    4.05999994    2.67000008
   11.81888866  144.81399536    4.07999992    2.67000008
   11.82222176  106.31400299    4.07999992    2.69000006
   11.82527733  121.81800079    4.07999992    2.67000008
   11.82861137  108.45999908    4.09999990    2.67000008
   11.83166695  141.42999268    4.09999990    2.69000006
   11.83500004  121.40299988    4.11999989    2.69000006
   11.83555508  113.56199646    4.11999989    2.69000006
   11.83833313  125.68800354    4.11999989    2.69000006
   11.84166622  123.35399628    4.07999992    2.69000006
   11.84472179  179.07400513    4.07999992    2.69000006
   11.84805489  134.42399597    4.07999992    2.69000006
   11.85111141  158.47399902    4.09999990    2.69000006
   11.85444450  140.37800598    4.09999990    2.69000006
   11.85750008  139.63000488    4.09999990    2.67000008
   11.86083412  133.66400146    4.11999989    2.67000008
   11.86388969  141.03500366    4.09999990    2.67000008
   11.86722279  142.97799683    4.09999990    2.69000006
   11.87027836  152.84599304    4.11999989    2.69000006
   11.87361145  153.35000610    4.11999989    2.69000006
   11.87666702  117.72499847    4.13999987    2.67000008
   11.88000011  139.06199646    4.11999989    2.69000006
   11.88305569  122.30400085    4.13999987    2.69000006
   11.88555527  147.79600525    4.13999987    2.69000006
   11.88666630  137.43400574    4.11999989    2.69000006
   11.89000034  121.02100372    4.11999989    2.69000006
   11.89305496  155.55400085    4.11999989    2.69000006
   11.89638901  118.41600037    4.11999989    2.69000006
   11.89972210  106.72499847    4.09999990    2.71000004
   11.90305519  131.06300354    4.11999989    2.69000006
   11.90638828  138.15600586    4.11999989    2.69000006
   11.90944386  136.91499329    4.11999989    2.71000004
   11.91277695  148.73199463    4.09999990    2.69000006
   11.91583252  120.23699951    4.05999994    2.69000006
   11.91916656  142.08599854    4.03999996    2.69000006
   11.92222214  127.17800140    4.05999994    2.69000006
   11.92555618  149.60699463    4.03999996    2.71000004
   11.92861176  119.01100159    4.03999996    2.69000006
   11.93166733  139.98300171    4.03999996    2.71000004
   11.93500042  143.96000671    4.01999998    2.71000004
   11.93555546  162.48199463    4.01999998    2.71000004
   11.93861103  119.78299713    4.00000000    2.71000004
   11.94166660  116.45999908    3.99000001    2.71000004
   11.94472218  129.37800598    3.97000003    2.69000006
   11.94805527  118.81600189    3.95000005    2.69000006
   11.95111084  132.00700378    3.91000009    2.71000004
   11.95444393  142.71600342    3.89000010    2.71000004
   11.95749950  119.75800323    3.89000010    2.71000004
   11.96083355  124.65000153    3.84999990    2.71000004
   11.96388912  132.42399597    3.82999992    2.71000004
   11.96722221  110.56099701    3.82999992    2.71000004
   11.97027779  116.63700104    3.82999992    2.71000004
   11.97388840  115.26899719    3.86999989    2.71000004
   11.97694397  125.18199921    3.86999989    2.71000004
   11.97999954  103.56900024    3.86999989    2.73000002
   11.98333359  113.19200134    3.89000010    2.71000004
   11.98555565  121.54000092    3.89000010    2.71000004
   11.98722267  114.86399841    3.91000009    2.71000004
   11.99027824  105.52899933    3.95000005    2.71000004
   11.99361134  134.20899963    3.95000005    2.73000002
   11.99666691  106.47399902    3.97000003    2.73000002
   12.00000000  111.44100189    4.00000000    2.71000004
   12.00333309  142.93899536    4.00000000    2.71000004
   12.00666714  102.24400330    4.00000000    2.73000002
   12.00972176   99.72530365    4.00000000    2.71000004
   12.01305580  112.79599762    4.01999998    2.71000004
   12.01611137  114.11799622    4.01999998    2.71000004
   12.01944447  115.08100128    4.01999998    2.71000004
   12.02250004  112.79100037    4.01999998    2.71000004
   12.02611065  121.13700104    4.01999998    2.73000002
   12.02916622  128.16099548    4.01999998    2.69000006
   12.03249931  127.69599915    4.00000000    2.73000002
   12.03555584  117.94499969    3.99000001    2.73000002
   12.03611183  117.90299988    3.99000001    2.71000004
   12.03916740  112.63800049    3.97000003    2.71000004
   12.04250050  116.88600159    3.97000003    2.73000002
   12.04583359  109.40499878    3.97000003    2.71000004
   12.04916668  113.60600281    3.95000005    2.73000002
   12.05249977  116.57599640    3.93000007    2.71000004
   12.05555534  125.94599915    3.91000009    2.71000004
   12.05944443  121.61900330    3.91000009    2.71000004
   12.06333351  117.88800049    3.91000009    2.73000002
   12.06750011  119.20300293    3.91000009    2.73000002
   12.07277775  120.55599976    3.93000007    2.73000002
   12.07583332  133.69999695    3.95000005    2.73000002
   12.07999992  116.37100220    3.97000003    2.73000002
   12.08333302  129.74299622    3.97000003    2.73000002
   12.08583260  119.11000061    3.99000001    2.73000002
   12.08694458  118.27700043    3.99000001    2.73000002
   12.09027767  116.86499786    3.99000001    2.73000002
   12.09333324  126.79900360    3.99000001    2.73000002
   12.09666634  115.44400024    4.00000000    2.71000004
   12.09972191  108.83599854    3.99000001    2.73000002
   12.10305595  124.82700348    3.99000001    2.73000002
   12.10611153  121.21800232    3.99000001    2.71000004
   12.10944462  100.54799652    3.99000001    2.75000000
   12.11277771  103.77400208    3.97000003    2.73000002
   12.11583328  107.84899902    3.95000005    2.73000002
   12.11916637  116.44699860    3.93000007    2.73000002
   12.12222195  106.96299744    3.93000007    2.75000000
   12.12555599  106.27899933    3.89000010    2.73000002
   12.12888908  106.08399963    3.84999990    2.71000004
   12.13222218  118.68499756    3.84999990    2.73000002
   12.13555527  118.43599701    3.80999994    2.73000002
   12.13611126  121.10199738    3.80999994    2.73000002
   12.13944435  125.11100006    3.78999996    2.75000000
   12.14249992  104.67700195    3.76999998    2.73000002
   12.14555550  132.60800171    3.73000002    2.75000000
   12.14888859  122.11799622    3.70000005    2.75000000
   12.15222168  115.07900238    3.66000009    2.75000000
   12.15527725  120.63500214    3.64000010    2.75000000
   12.15861034  123.20400238    3.61999989    2.75000000
   12.16249943  137.89500427    3.55999994    2.75000000
   12.16583252  116.31600189    3.53999996    2.75000000
   12.16972256  100.77700043    3.53999996    2.75000000
   12.17333412  122.46299744    3.53999996    2.75000000
   12.17666721  122.58399963    3.53999996    2.75000000
   12.18000031  112.62999725    3.53999996    2.75000000
   12.18333340  127.21399689    3.57999992    2.71000004
   12.18611145  116.16799927    3.59999990    2.75000000
   12.18694496  121.18699646    3.59999990    2.73000002
   12.19027805  139.12899780    3.61999989    2.75000000
   12.19333363  116.56800079    3.61999989    2.75000000
   12.19666672  133.14599609    3.61999989    2.73000002
   12.19999981  117.55699921    3.64000010    2.75000000
   12.20305538  124.78099823    3.66000009    2.75000000
   12.20638847  136.70599365    3.68000007    2.75000000
   12.20972157  126.25299835    3.72000003    2.75000000
   12.21305561  112.50599670    3.72000003    2.76999998
   12.21638870  117.65499878    3.73000002    2.75000000
   12.21972179  120.48300171    3.75000000    2.75000000
   12.22277737  109.85299683    3.75000000    2.76999998
   12.22611046  107.60399628    3.75000000    2.75000000
   12.22944355  100.55100250    3.78999996    2.75000000
   12.23249912  117.17600250    3.78999996    2.75000000
   12.23583317  137.16600037    3.80999994    2.75000000
   12.23638916  117.18499756    3.80999994    2.75000000
   12.23972225  122.17800140    3.80999994    2.73000002
   12.24277782  110.09600067    3.82999992    2.75000000
   12.24611092  112.72100067    3.82999992    2.75000000
   12.24944496  116.03299713    3.82999992    2.75000000
   12.25249958  107.49900055    3.78999996    2.75000000
   12.25583363  117.77300262    3.78999996    2.75000000
   12.25916672  132.30799866    3.76999998    2.75000000
   12.26249981  116.91600037    3.76999998    2.75000000
   12.26555538  116.15799713    3.75000000    2.75000000
   12.26888847  117.84200287    3.73000002    2.76999998
   12.27194405  124.03500366    3.70000005    2.75000000
   12.27527714  114.68399811    3.70000005    2.76999998
   12.27861118  123.10500336    3.68000007    2.75000000
   12.28194427  133.69000244    3.70000005    2.76999998
   12.28527832  114.67900085    3.68000007    2.76999998
   12.28638935  121.06400299    3.68000007    2.75000000
   12.28888893  113.71399689    3.66000009    2.78999996
   12.29222298  116.40799713    3.68000007    2.76999998
   12.29555607  103.08100128    3.70000005    2.76999998
   12.29861164  123.52600098    3.68000007    2.76999998
   12.30222225  135.91400146    3.68000007    2.76999998
   12.30583382  118.45200348    3.72000003    2.76999998
   12.30916691  130.12899780    3.68000007    2.76999998
   12.31250000  128.02299500    3.66000009    2.75000000
   12.31583309  106.78900146    3.66000009    2.76999998
   12.31888866  110.29399872    3.64000010    2.76999998
   12.32250023   98.46739960    3.57999992    2.76999998
   12.32555580  103.72799683    3.53999996    2.78999996
   12.32888889  121.13800049    3.48000002    2.76999998
   12.33194447  121.25700378    3.45000005    2.78999996
   12.33527756  146.17999268    3.43000007    2.76999998
   12.33638859  128.47700500    3.41000009    2.78999996
   12.33888817  128.83999634    3.43000007    2.76999998
   12.34194374  120.07900238    3.46000004    2.76999998
   12.34527779  127.27200317    3.46000004    2.76999998
   12.34833336  127.28299713    3.51999998    2.78999996
   12.35166740  108.57900238    3.53999996    2.76999998
   12.35472298  135.22000122    3.53999996    2.76999998
   12.35805607  122.71900177    3.57999992    2.76999998
   12.36111164  120.62000275    3.59999990    2.78999996
   12.36444473  129.22700500    3.61999989    2.76999998
   12.36777782  133.26100159    3.64000010    2.76999998
   12.37111092  122.67199707    3.64000010    2.76999998
   12.37444496  125.60399628    3.64000010    2.76999998
   12.37750053  137.82200623    3.64000010    2.78999996
   12.38083363  136.60600281    3.66000009    2.78999996
   12.38388920  129.16099548    3.66000009    2.76999998
   12.38638878  139.05900574    3.64000010    2.78999996
   12.38777733  143.53900146    3.64000010    2.76999998
   12.39111137  126.79599762    3.64000010    2.76999998
   12.39416695  112.41000366    3.64000010    2.76999998
   12.39750004  132.25700378    3.64000010    2.76999998
   12.40055561  138.24800110    3.64000010    2.76999998
   12.42027855  112.51399994    3.72000003    2.78999996
   12.42361164  123.83300018    3.72000003    2.78999996
   12.42694473  123.92800140    3.72000003    2.78999996
   12.43027782  124.39800262    3.72000003    2.78999996
   12.43333340  126.36799622    3.70000005    2.78999996
   12.43638897  112.78399658    3.68000007    2.78999996
   12.43722248  126.15599823    3.68000007    2.78999996
   12.44055557  131.24699402    3.68000007    2.78999996
   12.44361115  120.54699707    3.66000009    2.78999996
   12.44694424  147.21499634    3.64000010    2.78999996
   12.45027733  122.26999664    3.61999989    2.76999998
   12.45333290  121.77899933    3.61999989    2.78999996
   12.45666695  136.69200134    3.61999989    2.78999996
   12.46000004  120.73999786    3.59999990    2.78999996
   12.46305561  137.46299744    3.57999992    2.78999996
   12.46638870  126.25599670    3.55999994    2.78999996
   12.46972179  136.21200562    3.53999996    2.78999996
   12.47277737  130.71400452    3.50000000    2.78999996
   12.47611046  132.21400452    3.46000004    2.78999996
   12.47944355  133.62399292    3.45000005    2.78999996
   12.48249912  133.62300110    3.43000007    2.78999996
   12.48583317  130.72599792    3.45000005    2.78999996
   12.48666668  147.30999756    3.46000004    2.78999996
   12.48944473  131.97200012    3.48000002    2.78999996
   12.49277782  128.69599915    3.50000000    2.78999996
   12.49611092  110.82199860    3.50000000    2.78999996
   12.49944496  126.43299866    3.50000000    2.80999994
   12.50249958  118.63999939    3.51999998    2.80999994
   12.50583363  125.52999878    3.50000000    2.78999996
   12.50888920  140.79800415    3.51999998    2.78999996
   12.51222229  123.46399689    3.51999998    2.78999996
   12.51527786  120.48600006    3.51999998    2.78999996
   12.51861095  115.14800262    3.55999994    2.76999998
   12.52166653  135.98800659    3.57999992    2.78999996
   12.52499962  145.26499939    3.59999990    2.76999998
   12.52805519  126.09500122    3.57999992    2.80999994
   12.53138828  135.63800049    3.59999990    2.78999996
   12.53472233  126.30400085    3.64000010    2.80999994
   12.53638935  123.12999725    3.64000010    2.78999996
   12.53833389  110.89199829    3.64000010    2.78999996
   12.54138947  123.90299988    3.68000007    2.78999996
   12.54472256  127.51200104    3.73000002    2.78999996
   12.54777813  116.79599762    3.73000002    2.78999996
   12.55111122  118.46499634    3.73000002    2.78999996
   12.55416679  126.51399994    3.75000000    2.78999996
   12.55749989  137.67900085    3.73000002    2.78999996
   12.56055546  131.69500732    3.75000000    2.78999996
   12.56388950  117.55400085    3.76999998    2.78999996
   12.56722260  129.22300720    3.73000002    2.78999996
   12.57027817  123.99900055    3.72000003    2.78999996
   12.57361126  793.08697510    3.68000007    2.78999996
   12.57694435  107.40299988    3.64000010    2.80999994
   12.57805538  123.99900055    3.72000003    2.78999996
   12.57833290  793.08697510    3.68000007    2.78999996
   12.57861137  116.79599762    3.73000002    2.78999996
   12.57861137  118.46499634    3.73000002    2.78999996
   12.57888889  126.51399994    3.75000000    2.78999996
   12.57888889  137.67900085    3.73000002    2.78999996
   12.57916641  131.69500732    3.75000000    2.78999996
   12.57916641  117.55400085    3.76999998    2.78999996
   12.57916641  129.22300720    3.73000002    2.78999996
   12.58055592  122.68299866    3.57999992    2.78999996
   12.58222198  113.00199890    3.51999998    2.78999996
   12.58555508  117.17099762    3.46000004    2.78999996
   12.59000015  102.10600281    3.36999989    2.80999994
   12.59499931  114.95200348    3.32999992    2.80999994
   12.60000038  121.32199860    3.34999990    2.80999994
   12.60972214  121.32199860    3.30999994    2.82999992
   12.61444473  111.35500336    3.34999990    2.80999994
   12.61777782  128.73899841    3.36999989    2.80999994
   12.62111092  107.64399719    3.41000009    2.80999994
   12.62444496  115.85199738    3.43000007    2.80999994
   12.62750053  115.64299774    3.43000007    2.78999996
   12.63000011  114.19899750    3.45000005    2.78999996
   12.63138866   89.05680084    3.45000005    2.80999994
   12.63472176   97.71410370    3.46000004    2.80999994
   12.63777733  112.52700043    3.46000004    2.80999994
   12.64194393  148.15699768    3.50000000    2.80999994
   12.64527798  118.51300049    3.51999998    2.80999994
   12.64861107   99.73500061    3.51999998    2.78999996
   12.65166664  115.06900024    3.55999994    2.80999994
   12.65777779  115.06900024    3.53999996    2.78999996
   12.66194439  132.68600464    3.55999994    2.80999994
   12.66499996  106.68399811    3.55999994    2.80999994
   12.66861153  120.62899780    3.51999998    2.80999994
   12.67166710  110.91100311    3.50000000    2.80999994
   12.67500019  110.93699646    3.48000002    2.82999992
   12.67833328  125.99199677    3.48000002    2.80999994
   12.67972279  113.08899689    3.45000005    2.80999994
   12.68194485  112.11399841    3.46000004    2.82999992
   12.68527794  140.82099915    3.43000007    2.80999994
   12.68833351  107.33999634    3.43000007    2.82999992
   12.69166660  138.23800659    3.39000010    2.82999992
   12.69499969  121.70999908    3.41000009    2.80999994
   12.69833374  118.26499939    3.39000010    2.80999994
   12.70138836  137.70100403    3.39000010    2.80999994
   12.70472240  118.54000092    3.39000010    2.82999992
   12.70888901  118.54000092    3.34999990    2.82999992
   12.71305561  121.06400299    3.36999989    2.82999992
   12.71638870  148.23399353    3.28999996    2.80999994
   12.72055531  118.87000275    3.28999996    2.82999992
   12.72416592  138.84800720    3.28999996    2.82999992
   12.72749996  104.27500153    3.25000000    2.80999994
   12.72999954  136.30700684    3.25000000    2.82999992
   12.73222160  144.59100342    3.23000002    2.82999992
   12.73583317   99.58000183    3.21000004    2.80999994
   12.73916721  101.91500092    3.18000007    2.82999992
   12.74250031  103.86699677    3.11999989    2.80999994
   12.74611092  118.09500122    3.14000010    2.82999992
   12.74944496  117.27400208    3.16000009    2.80999994
   12.75333309  122.70500183    3.18000007    2.82999992
   12.75694466  125.15799713    3.20000005    2.82999992
   12.76138878  125.15799713    3.25000000    2.82999992
   12.76583290   88.50270081    3.26999998    2.82999992
   12.76916599  113.50000000    3.28999996    2.82999992
   12.77277756  132.98599243    3.28999996    2.82999992
   12.77611065  118.34400177    3.26999998    2.82999992
   12.77944374  130.38800049    3.30999994    2.82999992
   12.77999973  137.60699463    3.30999994    2.82999992
   12.78305531  117.69000244    3.32999992    2.82999992
   12.78638935  109.77600098    3.32999992    2.82999992
   12.78972244  130.65499878    3.32999992    2.82999992
   12.79361153  127.64099884    3.32999992    2.82999992
   12.79666710  107.79100037    3.28999996    2.82999992
   12.80027771  141.81799316    3.26999998    2.82999992
   12.80361176  136.86799622    3.25000000    2.82999992
   12.80749989  113.75299835    3.21000004    2.82999992
   12.81222248  113.75299835    3.20000005    2.82999992
   12.81666660  125.98100281    3.16000009    2.84999990
   12.81999969  139.60099792    3.14000010    2.84999990
   12.82305527  139.97900391    3.14000010    2.82999992
   12.82638836  150.58999634    3.11999989    2.82999992
   12.82944393  179.50700378    3.11999989    2.84999990
   12.82999992  136.49899292    3.07999992    2.82999992
   12.83305550  168.99699402    3.07999992    2.84999990
   12.83611107  134.32600403    3.07999992    2.84999990
   12.83944416  149.68099976    3.05999994    2.84999990
   12.84249973  157.04699707    3.05999994    2.84999990
   12.84583282  160.27200317    3.07999992    2.84999990
   12.84888840  162.09700012    3.09999990    2.82999992
   12.85222244  184.38200378    3.09999990    2.84999990
   12.85527802  145.91700745    3.16000009    2.84999990
   12.85861111  198.60600281    3.14000010    2.84999990
   12.86333370  198.60600281    3.20000005    2.84999990
   12.86750031  149.64300537    3.25000000    2.84999990
   12.87055588  155.21000671    3.26999998    2.82999992
   12.87388897  172.03300476    3.28999996    2.84999990
   12.87694454  176.99699402    3.32999992    2.82999992
   12.88000011  158.35099792    3.34999990    2.82999992
   12.88055611  159.32000732    3.32999992    2.82999992
   12.88361073  188.81500244    3.34999990    2.82999992
   12.88666630  177.74400330    3.36999989    2.84999990
   12.89000034  173.40699768    3.36999989    2.84999990
   12.89305496  169.19500732    3.34999990    2.84999990
   12.89638901  149.14999390    3.34999990    2.82999992
   12.89944458  146.94700623    3.30999994    2.84999990
   12.90277767  163.77799988    3.26999998    2.84999990
   12.90583324  136.89999390    3.28999996    2.84999990
   12.90916634  129.58500671    3.28999996    2.84999990
   12.91444397  129.58500671    3.28999996    2.82999992
   12.91861153  149.76699829    3.23000002    2.82999992
   12.92166710  144.69700623    3.21000004    2.84999990
   12.92500019  160.22700500    3.20000005    2.84999990
   12.92805576  144.75599670    3.20000005    2.84999990
   12.93000031  158.02299500    3.18000007    2.84999990
   12.93166733  185.82800293    3.20000005    2.84999990
   12.93472195  160.47200012    3.20000005    2.84999990
   12.93805599  178.00599670    3.18000007    2.86999989
   12.94111156  219.56100464    3.18000007    2.84999990
   12.94444466  212.75799561    3.20000005    2.84999990
   12.94750023  203.54299927    3.18000007    2.84999990
   12.95083332  189.90600586    3.20000005    2.84999990
   12.95388889  177.80299377    3.20000005    2.84999990
   12.95722198  197.53900146    3.18000007    2.84999990
   12.96027756  218.76699829    3.21000004    2.84999990
   12.96555519  218.76699829    3.23000002    2.84999990
   12.96972179  208.43299866    3.23000002    2.84999990
   12.97305489  192.44299316    3.21000004    2.84999990
   12.97611046  173.98500061    3.25000000    2.84999990
   12.97944355  212.51400757    3.23000002    2.84999990
   12.98027706  173.01300049    3.21000004    2.84999990
   12.98305511  190.46600342    3.21000004    2.84999990
   12.98611164  135.10499573    3.26999998    2.84999990
   12.98944473  176.25000000    3.26999998    2.84999990
   12.99250031  161.45899963    3.25000000    2.84999990
   12.99583340  194.35800171    3.25000000    2.84999990
   12.99888897  181.91400146    3.20000005    2.86999989
   13.00222206  195.86700439    3.20000005    2.84999990
   13.00527763  152.34399414    3.18000007    2.84999990
   13.00861073  174.40299988    3.18000007    2.84999990
   13.01166630  192.04899597    3.18000007    2.84999990
   13.01694393  192.04899597    3.14000010    2.84999990
   13.02083302  199.89799500    3.11999989    2.84999990
   13.02416611  154.33900452    3.14000010    2.84999990
   13.02722168  148.72500610    3.11999989    2.86999989
   13.03027725  140.65899658    3.14000010    2.86999989
   13.03083324  153.56900024    3.14000010    2.86999989
   13.03388977  155.50999451    3.14000010    2.84999990
   13.03722286  162.07000732    3.11999989    2.86999989
   13.04027843  176.23699951    3.14000010    2.84999990
   13.04361153  136.23199463    3.11999989    2.86999989
   13.04666710  176.21400452    3.14000010    2.84999990
   13.05000019  156.64900208    3.14000010    2.84999990
   13.05305576  156.41099548    3.14000010    2.84999990
   13.05638885  108.36699677    3.14000010    2.84999990
   13.05944443  156.77600098    3.14000010    2.86999989
   13.06277752  115.19899750    3.18000007    2.86999989
   13.06805515  115.19899750    3.18000007    2.86999989
   13.07222176  138.48800659    3.18000007    2.86999989
   13.07527733  124.27600098    3.14000010    2.86999989
   13.07861137  140.91600037    3.11999989    2.84999990
   13.08027744  136.67799377    3.07999992    2.84999990
   13.08222198  157.99099731    3.09999990    2.84999990
   13.08527756  140.52200317    3.09999990    2.84999990
   13.08861065  153.78999329    3.09999990    2.86999989
   13.09166622  144.25999451    3.11999989    2.84999990
   13.09499931  116.13099670    3.07999992    2.86999989
   13.09805489  133.99800110    3.09999990    2.86999989
   13.10138893  119.38700104    3.07999992    2.84999990
   13.10444450  132.69500732    3.03999996    2.89000010
   13.10777855  141.52200317    3.05999994    2.86999989
   13.11083412  157.96800232    3.03999996    2.86999989
   13.11416721  119.35099792    3.01999998    2.86999989
   13.11916637  119.35099792    3.01999998    2.84999990
   13.12333393  121.01699829    3.03999996    2.86999989
   13.12638855  107.40200043    3.03999996    2.89000010
   13.12972260  130.18899536    3.07999992    2.86999989
   13.13027763  125.44999695    3.07999992    2.86999989
   13.13333321  121.43199921    3.09999990    2.86999989
   13.13638878  118.96399689    3.14000010    2.86999989
   13.13972187  151.10600281    3.16000009    2.86999989
   13.14277744  144.50799561    3.16000009    2.86999989
   13.14611053  135.73599243    3.18000007    2.84999990
   13.14916611  153.58099365    3.18000007    2.86999989
   13.15249920  127.34799957    3.16000009    2.86999989
   13.15583324  128.86199951    3.11999989    2.86999989
   13.15888882  137.57200623    3.11999989    2.86999989
   13.16222191  131.87600708    3.11999989    2.89000010
   13.16527748  127.72299957    3.11999989    2.86999989
   13.17027855  127.72299957    3.09999990    2.86999989
   13.17444515  124.54599762    3.07999992    2.86999989
   13.17777824  130.62500000    3.09999990    2.86999989
   13.18027782  146.78500366    3.09999990    2.86999989
   13.18138885  148.01899719    3.05999994    2.86999989
   13.18444443  146.21699524    3.05999994    2.86999989
   13.18777752  123.86199951    3.07999992    2.86999989
   13.19083309  118.62899780    3.03999996    2.86999989
   13.19416714  107.11900330    3.00000000    2.86999989
   13.19722271  142.35400391    2.98000002    2.86999989
   13.20055580  136.70700073    3.00000000    2.89000010
   13.20361137  126.03399658    3.00000000    2.86999989
   13.20694447  142.72000122    3.00000000    2.86999989
   13.21000004  137.73300171    3.03999996    2.86999989
   13.21333313  140.12199402    3.05999994    2.84999990
   13.21638870  128.35899353    3.05999994    2.86999989
   13.22166634  128.35899353    3.07999992    2.89000010
   13.22555542  144.60200500    3.16000009    2.86999989
   13.22888851  130.98599243    3.18000007    2.86999989
   13.23027706  139.51800537    3.18000007    2.89000010
   13.23249912  137.02099609    3.18000007    2.86999989
   13.23555565  117.55599976    3.20000005    2.86999989
   13.23888874  124.11399841    3.20000005    2.86999989
   13.24222279  114.61299896    3.25000000    2.86999989
   13.24527836  122.99199677    3.25000000    2.86999989
   13.24861145  121.19899750    3.25000000    2.86999989
   13.25166702  126.77200317    3.21000004    2.86999989
   13.25500011  120.95600128    3.25000000    2.86999989
   13.25805569  139.08299255    3.20000005    2.86999989
   13.26138878  115.18000031    3.16000009    2.89000010
   13.26444435  117.01699829    3.14000010    2.86999989
   13.26777744  113.81800079    3.09999990    2.86999989
   13.27277756  113.81800079    3.09999990    2.89000010
   13.27694416  117.45400238    3.05999994    2.86999989
   13.27999973  114.28099823    3.01999998    2.86999989
   13.28055573  120.19899750    3.01999998    2.86999989
   13.28361130  127.85099792    2.96000004    2.89000010
   13.28694534  139.79100037    2.93000007    2.89000010
   13.29000092  117.24800110    2.91000009    2.89000010
   13.29333401  130.45500183    2.89000010    2.89000010
   13.29638958  115.23699951    2.91000009    2.89000010
   13.29972267  145.88999939    2.91000009    2.89000010
   13.30277824  113.21700287    2.93000007    2.89000010
   13.30611134  113.76300049    2.94000006    2.89000010
   13.30916691  134.90499878    2.94000006    2.91000009
   13.31250000  119.23799896    2.98000002    2.91000009
   13.31555557  120.09700012    3.00000000    2.89000010
   13.31888866  123.11699677    3.00000000    2.89000010
   13.32388878  123.11699677    3.05999994    2.89000010
   13.32805538  102.49099731    3.03999996    2.89000010
   13.33055592   96.39920044    3.07999992    2.86999989
   13.33138847  116.83100128    3.14000010    2.89000010
   13.33472157  119.08699799    3.16000009    2.89000010
   13.33777714  117.72399902    3.16000009    2.89000010
   13.34111118  126.93399811    3.18000007    2.86999989
   13.34416676  130.58200073    3.20000005    2.86999989
   13.34749985  123.00599670    3.21000004    2.89000010
   13.35055637  131.02200317    3.23000002    2.86999989
   13.35388947  119.64199829    3.26999998    2.89000010
   13.35694504  121.55500031    3.26999998    2.86999989
   13.36027813  104.22399902    3.26999998    2.89000010
   13.36333370   79.96289825    3.25000000    2.86999989
   13.36666679  103.42299652    3.26999998    2.89000010
   13.36972237  117.04399872    3.28999996    2.91000009
   13.37500000  117.04399872    3.25000000    2.86999989
   13.37916660  104.45400238    3.20000005    2.89000010
   13.38055611  104.42900085    3.11999989    2.89000010
   13.38249969  101.96299744    3.07999992    2.91000009
   13.38583279   93.59069824    3.03999996    2.89000010
   13.38888836  107.42199707    3.01999998    2.89000010
   13.39222240  105.29699707    3.01999998    2.89000010
   13.39527798  115.00299835    2.96000004    2.91000009
   13.39861107  103.58200073    2.93000007    2.89000010
   13.40166664  110.62300110    2.94000006    2.89000010
   13.40499973  105.68699646    2.96000004    2.89000010
   13.40805531   96.57929993    2.98000002    2.89000010
   13.41138840  107.85199738    2.96000004    2.91000009
   13.41444397  110.96700287    2.98000002    2.91000009
   13.41777802   97.27100372    3.01999998    2.89000010
   13.43944454   97.27100372    3.11999989    2.89000010
   13.44333363  113.62799835    3.11999989    2.89000010
   13.44666672  107.00199890    3.11999989    2.89000010
   13.44972229  113.99600220    3.18000007    2.89000010
   13.45305538  116.68199921    3.16000009    2.89000010
   13.45611095  113.81400299    3.18000007    2.89000010
   13.45944405  107.16799927    3.11999989    2.86999989
   13.46249962   96.41570282    3.14000010    2.89000010
   13.46583271  114.36199951    3.09999990    2.89000010
   13.46888828  113.18399811    3.09999990    2.89000010
   13.47222137  118.00399780    3.07999992    2.91000009
   13.47527695  116.65100098    3.05999994    2.89000010
   13.47861099  119.98699951    3.01999998    2.89000010
   13.48166656  111.84899902    3.03999996    2.89000010
   13.48500061  120.42900085    3.03999996    2.89000010
   13.48694515  109.70200348    3.05999994    2.89000010
   13.49083328  109.70200348    3.07999992    2.91000009
   13.49499989  121.25399780    3.09999990    2.91000009
   13.49805546  113.60800171    3.07999992    2.89000010
   13.50138855  113.97000122    3.14000010    2.84999990
   13.50444412  107.03800201    3.01999998    2.89000010
   13.50777817  123.19200134    3.01999998    2.91000009
   13.51083374  108.75700378    3.01999998    2.89000010
   13.51416683  117.06999969    3.01999998    2.91000009
   13.51722240   97.71749878    2.98000002    2.89000010
   13.52055550  113.32700348    2.98000002    2.91000009
   13.52361107  120.26499939    2.96000004    2.91000009
   13.52694416  116.33899689    2.96000004    2.91000009
   13.52999973  129.33099365    2.94000006    2.89000010
   13.53333378  111.76000214    2.93000007    2.86999989
   13.53638935  131.43600464    2.91000009    2.89000010
   13.53694534  112.90799713    2.93000007    2.91000009
   13.54222298  112.90799713    2.91000009    2.91000009
   13.54611111  116.41899872    2.91000009    2.91000009
   13.54944515  122.30500031    2.89000010    2.91000009
   13.55249977  112.73000336    2.86999989    2.91000009
   13.55583382  148.60000610    2.93000007    2.89000010
   13.55888939  132.06799316    3.00000000    2.89000010
   13.56222248  129.81799316    2.98000002    2.91000009
   13.56527805  129.76699829    3.01999998    2.89000010
   13.56861115  135.44000244    3.01999998    2.89000010
   13.57166672  135.14799500    3.01999998    2.91000009
   13.57499981  136.20100403    3.01999998    2.91000009
   13.57805538  133.23500061    3.01999998    2.91000009
   13.58111095  128.85299683    3.01999998    2.89000010
   13.58444405  119.04900360    3.03999996    2.91000009
   13.58694458  143.70100403    3.01999998    2.89000010
   13.58805561  148.09100342    3.00000000    2.91000009
   13.59333324  148.09100342    3.03999996    2.91000009
   13.59722233  128.32499695    3.01999998    2.91000009
   13.60055637  138.79400635    3.01999998    2.91000009
   13.60361195  168.88299561    3.01999998    2.91000009
   13.60694504  132.76100159    3.00000000    2.91000009
   13.61000061  136.62399292    3.00000000    2.89000010
   13.61333370  166.19700623    2.98000002    2.91000009
   13.61638927  129.03300476    3.01999998    2.89000010
   13.61972237  118.76499939    2.96000004    2.91000009
   13.62277794  161.66200256    2.94000006    2.91000009
   13.62611103  146.81100464    2.93000007    2.89000010
   13.62916660  127.18900299    2.93000007    2.91000009
   13.63249969  178.30499268    2.86999989    2.91000009
   13.63555527  164.19900513    2.91000009    2.89000010
   13.63694477  158.93600464    2.89000010    2.91000009
   13.63944435  170.34500122    2.84999990    2.89000010
   13.64444447  170.34500122    2.80999994    2.91000009
   13.64861107  174.19000244    2.76999998    2.86999989
   13.65166664  144.03700256    2.76999998    2.91000009
   13.65499973  174.52799988    2.76999998    2.93000007
   13.65805531  134.98199463    2.76999998    2.93000007
   13.66138840  181.35499573    2.76999998    2.93000007
   13.66444397  135.49400330    2.78999996    2.89000010
   13.66777802  152.88600159    2.78999996    2.91000009
   13.67083359  142.75199890    2.80999994    2.91000009
   13.67416668  150.86099243    2.80999994    2.93000007
   13.67722225  178.90100098    2.84999990    2.93000007
   13.68027782  158.53500366    2.86999989    2.91000009
   13.68361092  165.77400208    2.84999990    2.91000009
   13.68666649  166.66799927    2.91000009    2.91000009
   13.68722248  167.03999329    2.93000007    2.94000006
   13.69027805  144.90299988    2.94000006    2.91000009
   13.69555569  144.90299988    2.93000007    2.89000010
   13.69972229  145.12100220    2.96000004    2.91000009
   13.70277786  162.53399658    2.96000004    2.91000009
   13.70611095  205.77900696    2.98000002    2.91000009
   13.70916653  152.67300415    3.01999998    2.93000007
   13.71249962  154.53300476    2.98000002    2.91000009
   13.71555519  146.95599365    3.00000000    2.89000010
   13.71861076  165.64700317    2.98000002    2.91000009
   13.72194386  153.61799622    2.96000004    2.91000009
   13.72499943  163.60200500    2.91000009    2.91000009
   13.72833252  161.76400757    2.86999989    2.91000009
   13.73138809  152.65800476    2.82999992    2.91000009
   13.73444462  144.80799866    2.82999992    2.93000007
   13.73722267  158.15600586    2.82999992    2.93000007
   13.73805618  170.59800720    2.78999996    2.93000007
   13.74138927  155.13800049    2.76999998    2.93000007
   13.74694443  155.13800049    2.73000002    2.93000007
   13.75083351  147.92199707    2.76999998    2.93000007
   13.75416660  153.17100525    2.76999998    2.91000009
   13.75722218  158.49499512    2.78999996    2.91000009
   13.76027775  143.08299255    2.80999994    2.91000009
   13.76361084  150.69700623    2.84999990    2.91000009
   13.76666641  127.84400177    2.86999989    2.91000009
   13.76999950  147.19599915    2.80999994    2.94000006
   13.77305508  135.87300110    2.78999996    2.93000007
   13.77638817  157.82899475    2.80999994    2.93000007
   13.77944374  137.02699280    2.75000000    2.91000009
   13.78249931  156.25399780    2.73000002    2.93000007
   13.78583336  142.15899658    2.76999998    2.91000009
   13.78722286  138.63999939    2.76999998    2.93000007
   13.78944492  132.91799927    2.76999998    2.93000007
   13.79250050  147.55000305    2.78999996    2.91000009
   13.79805565  147.55000305    2.80999994    2.91000009
   13.80194473  156.73899841    2.80999994    2.91000009
   13.80527782  152.92900085    2.76999998    2.93000007
   13.80833340  136.84800720    2.76999998    2.93000007
   13.81166649  124.19400024    2.76999998    2.93000007
   13.81472206  140.54800415    2.75000000    2.93000007
   13.81777763  146.25399780    2.73000002    2.91000009
   13.82111073  148.36799622    2.76999998    2.93000007
   13.82416630  152.78100586    2.71000004    2.91000009
   13.82750034  156.45300293    2.73000002    2.91000009
   13.83055592  138.35299683    2.75000000    2.91000009
   13.83388901  151.10699463    2.75000000    2.91000009
   13.83694458  141.64300537    2.73000002    2.93000007
   13.83749962  145.69000244    2.73000002    2.93000007
   13.84055519  137.09500122    2.75000000    2.93000007
   13.84388828  147.90600586    2.75000000    2.91000009
   13.96361065   -1.00000000   -1.00000000   -1.00000000
   14.06055546   -1.00000000   -1.00000000   -1.00000000
   14.18916702   -1.00000000   -1.00000000   -1.00000000
   14.22749996   77.75930023    2.64000010    2.93000007
   14.23083305  147.30200195    2.67000008    2.93000007
   14.23388958  154.58200073    2.67000008    2.94000006
   14.23722267  151.93400574    2.67000008    2.94000006
   14.24027824  157.61000061    2.64000010    2.94000006
   14.24361134  141.21200562    2.66000009    2.94000006
   14.24666691  139.63800049    2.64000010    2.94000006
   14.25000000  140.74299622    2.61999989    2.94000006
   14.25611115  140.74299622    2.57999992    2.94000006
   14.26027775  147.45100403    2.53999996    2.94000006
   14.26333332  150.33700562    2.51999998    2.94000006
   14.26666641  147.10200500    2.50000000    2.94000006
   14.26972198  140.03799438    2.48000002    2.96000004
   14.27305508  138.26899719    2.48000002    2.94000006
   14.27611065  156.68699646    2.44000006    2.96000004
   14.27750015  139.16499329    2.50000000    2.94000006
   14.27972221  139.94900513    2.48000002    2.94000006
   14.28277779  141.03300476    2.46000004    2.94000006
   14.28611183  153.07200623    2.44000006    2.94000006
   14.28916740  141.31199646    2.46000004    2.94000006
   14.29250050  132.57000732    2.53999996    2.94000006
   14.29555607  170.90100098    2.50000000    2.94000006
   14.29888916  146.55900574    2.53999996    2.94000006
   14.30194473  156.31500244    2.51999998    2.94000006
   14.30722237  156.31500244    2.51999998    2.94000006
   14.31138897  150.64300537    2.51999998    2.93000007
   14.31444454  148.87699890    2.51999998    2.94000006
   14.31777763  142.82200623    2.55999994    2.94000006
   14.32083321  129.92999268    2.53999996    2.94000006
   14.32416630  142.43800354    2.53999996    2.94000006
   14.32722187  138.46299744    2.51999998    2.94000006
   14.32777786  143.31399536    2.53999996    2.94000006
   14.33111095  145.63200378    2.51999998    2.94000006
   14.33416653  150.60699463    2.55999994    2.96000004
   14.33749962  147.59399414    2.57999992    2.96000004
   14.34055519  146.63000488    2.57999992    2.94000006
   14.34388828  143.50399780    2.57999992    2.94000006
   14.34694386  140.19099426    2.57999992    2.96000004
   14.35027790  141.14799500    2.59999990    2.94000006
   14.35333347  140.20700073    2.57999992    2.94000006
   14.35861111  140.20700073    2.55999994    2.96000004
   14.36250019  154.95599365    2.61999989    2.94000006
   14.36583328  163.24899292    2.59999990    2.94000006
   14.36888885  160.61700439    2.64000010    2.94000006
   14.37222195  155.90800476    2.66000009    2.94000006
   14.37527752  134.24200439    2.66000009    2.94000006
   14.37777805  130.65499878    2.66000009    2.94000006
   14.37888908  127.50000000    2.64000010    2.94000006
   14.38194466  143.15899658    2.73000002    2.93000007
   14.38527775  119.29699707    2.71000004    2.94000006
   14.38833332  138.48399353    2.71000004    2.96000004
   14.39166641  131.14199829    2.73000002    2.94000006
   14.39472198  136.98199463    2.73000002    2.94000006
   14.39805508  119.49099731    2.71000004    2.94000006
   14.40111065  128.61099243    2.73000002    2.96000004
   14.40444374  132.40400696    2.73000002    2.94000006
   14.40972137  132.40400696    2.71000004    2.94000006
   14.41361046  131.80000305    2.69000006    2.94000006
   14.41694450  126.82499695    2.69000006    2.96000004
   14.42000008  133.98599243    2.73000002    2.93000007
   14.42333412  136.99299622    2.66000009    2.96000004
   14.42638874  129.39599609    2.67000008    2.94000006
   14.42777824  126.49400330    2.66000009    2.94000006
   14.43000031  129.02799988    2.66000009    2.94000006
   14.43305588  128.82899475    2.66000009    2.94000006
   14.43638897  122.03399658    2.61999989    2.94000006
   14.43944454  136.41600037    2.66000009    2.94000006
   14.44277763  129.71600342    2.59999990    2.96000004
   14.44583321  129.72599792    2.61999989    2.94000006
   14.44916630  110.54599762    2.59999990    2.94000006
   14.45222187  113.52400208    2.55999994    2.94000006
   14.45555496  119.27700043    2.51999998    2.94000006
   14.46083355  119.27700043    2.55999994    2.96000004
   14.46500015  124.93299866    2.50000000    2.96000004
   14.46805477  134.40699768    2.57999992    2.94000006
   14.47138882  131.39799500    2.55999994    2.96000004
   14.47444439  121.95899963    2.55999994    2.94000006
   14.47777748  144.08500671    2.55999994    2.96000004
   14.47805500  123.82299805    2.55999994    2.96000004
   14.48138809  134.94099426    2.57999992    2.96000004
   14.48472214  124.34100342    2.64000010    2.94000006
   14.48777771  121.00099945    2.61999989    2.96000004
   14.49111176  119.91600037    2.59999990    2.94000006
   14.49416733  129.99899292    2.64000010    2.96000004
   14.49750042  129.57499695    2.64000010    2.94000006
   14.50055599  125.70200348    2.67000008    2.96000004
   14.50388908  128.07299805    2.57999992    2.94000006
   14.50694466  128.49600220    2.59999990    2.96000004
   14.51194477  128.49600220    2.59999990    2.94000006
   14.51611137  132.61099243    2.61999989    2.96000004
   14.51916599  116.10500336    2.61999989    2.94000006
   14.52250004  119.25099945    2.59999990    2.96000004
   14.52555561  131.34399414    2.55999994    2.94000006
   14.52805519  136.45199585    2.59999990    2.94000006
   14.52916622  134.30200195    2.55999994    2.96000004
   14.53222179  128.36399841    2.55999994    2.94000006
   14.53555584  139.50199890    2.59999990    2.94000006
   14.53861141  121.34200287    2.59999990    2.94000006
   14.54194450  132.55999756    2.61999989    2.96000004
   14.54500008  120.16100311    2.57999992    2.96000004
   14.54833412  127.37000275    2.64000010    2.94000006
   14.55138874  125.22000122    2.66000009    2.96000004
   14.55472279  131.02900696    2.69000006    2.94000006
   14.55777836  155.63400269    2.73000002    2.96000004
   14.56305599  155.63400269    2.78999996    2.96000004
   14.56722260  151.35400391    2.80999994    2.96000004
   14.57055569  120.25499725    2.80999994    2.94000006
   14.57361126  122.78399658    2.82999992    2.96000004
   14.57666683  139.70399475    2.82999992    2.96000004
   14.57833290  116.26499939    2.82999992    2.94000006
   14.58027744  137.55000305    2.80999994    2.96000004
   14.58333302  134.92999268    2.80999994    2.96000004
   14.58666611  168.49699402    2.80999994    2.96000004
   14.58972168  129.34500122    2.78999996    2.94000006
   14.59305477  150.71299744    2.78999996    2.96000004
   14.59611034  123.81999969    2.82999992    2.96000004
   14.59944439  140.22099304    2.75000000    2.96000004
   14.60249996  137.85600281    2.75000000    2.94000006
   14.60583401  139.90800476    2.75000000    2.96000004
   14.60888958  134.63200378    2.73000002    2.94000006
   14.61444473  134.63200378    2.71000004    2.94000006
   14.61833382  145.01199341    2.67000008    2.94000006
   14.62166691  128.83200073    2.66000009    2.94000006
   14.62472248  158.87300110    2.67000008    2.94000006
   14.62805557  135.49000549    2.66000009    2.96000004
   14.62861156  157.26400757    2.66000009    2.94000006
   14.63166714  153.25100708    2.64000010    2.96000004
   14.63472176  143.54299927    2.64000010    2.96000004
   14.63805580  139.26199341    2.66000009    2.96000004
   14.64111137  141.46600342    2.66000009    2.94000006
   14.64444447  128.68899536    2.67000008    2.94000006
   14.64750004  148.43499756    2.69000006    2.96000004
   14.65083313  156.93600464    2.73000002    2.96000004
   14.65388870  149.13200378    2.75000000    2.96000004
   14.65722179  167.24499512    2.73000002    2.94000006
   14.66027737  146.30999756    2.71000004    2.96000004
   14.66555500  146.30999756    2.75000000    2.96000004
   14.66972256  144.22999573    2.71000004    2.96000004
   14.67277813  135.82899475    2.75000000    2.96000004
   14.67611122  124.23300171    2.80999994    2.96000004
   14.67861176  138.80700684    2.75000000    2.96000004
   14.67972279  120.70600128    2.76999998    2.96000004
   14.68277836  151.97500610    2.76999998    2.96000004
   14.68611145  129.24299622    2.78999996    2.96000004
   14.68916702  147.99899292    2.80999994    2.96000004
   14.69250011  143.08500671    2.75000000    2.94000006
   14.69555569  135.43200684    2.75000000    2.96000004
   14.69888878  138.30400085    2.76999998    2.96000004
   14.70194435  144.61999512    2.76999998    2.96000004
   14.70527744  136.26100159    2.78999996    2.94000006
   14.70833302  139.22000122    2.73000002    2.96000004
   14.71166611  165.00000000    2.71000004    2.96000004
   14.71666622  165.00000000    2.73000002    2.96000004
   14.72083282  148.54800415    2.78999996    2.94000006
   14.72388840  133.88400269    2.78999996    2.96000004
   14.72722149  117.61699677    2.80999994    2.96000004
   14.72861099  140.52699280    2.80999994    2.96000004
   14.73083305  154.11700439    2.82999992    2.96000004
   14.73388958  127.74700165    2.82999992    2.96000004
   14.73722267  156.41299438    2.82999992    2.96000004
   14.74055576  143.95500183    2.84999990    2.94000006
   14.74361134  142.25799561    2.91000009    2.96000004
   14.74694443  114.01200104    2.89000010    2.94000006
   14.75000000  119.38200378    2.94000006    2.96000004
   14.75333309  120.00299835    2.93000007    2.96000004
   14.75638866  137.99400330    2.96000004    2.96000004
   14.75972176  124.29399872    2.96000004    2.96000004
   14.76277733  129.50000000    2.93000007    2.94000006
   14.76777744  129.50000000    2.96000004    2.96000004
   14.77194405  126.54299927    2.96000004    2.96000004
   14.77527714  146.92799377    2.96000004    2.96000004
   14.77833271  148.27000427    2.91000009    2.96000004
   14.77888870  132.02099609    2.91000009    2.96000004
   14.78166676  128.33000183    2.89000010    2.94000006
   14.78500080  127.27300262    2.93000007    2.98000002
   14.78805637  136.84500122    2.84999990    2.98000002
   14.79138947  144.93699646    2.80999994    2.94000006
   14.79444504  146.77299500    2.80999994    2.96000004
   14.79777813  144.86700439    2.80999994    2.96000004
   14.80083370  161.08500671    2.80999994    2.96000004
   14.80416679  149.78900146    2.80999994    2.96000004
   14.80722237  130.14500427    2.75000000    2.98000002
   14.81055546  151.49200439    2.76999998    2.96000004
   14.81361103  156.85099792    2.75000000    2.96000004
   14.81916618  156.85099792    2.75000000    2.96000004
   14.82305527  123.47100067    2.75000000    2.96000004
   14.82638836  149.47500610    2.82999992    2.96000004
   14.82888889  133.64300537    2.84999990    2.96000004
   14.82972240  157.86700439    2.82999992    2.96000004
   14.83305550  158.79800415    2.91000009    2.98000002
   14.83611107  120.44000244    2.91000009    2.96000004
   14.83944416  142.53599548    2.86999989    2.98000002
   14.84249973  150.05999756    2.89000010    2.98000002
   14.84583282  133.41799927    2.91000009    2.94000006
   14.84888840  160.90899658    2.94000006    2.94000006
   14.85222244  156.46200562    3.00000000    2.96000004
   14.85527802  145.29100037    3.01999998    2.94000006
   14.85861111  147.64799500    2.98000002    2.96000004
   14.86166668  141.53900146    2.98000002    2.96000004
   14.86500072  154.07200623    2.98000002    2.98000002
   14.87027836  154.07200623    2.98000002    2.98000002
   14.87444496  156.88200378    2.94000006    2.96000004
   14.87750053  150.80099487    2.91000009    2.98000002
   14.87888908  161.18499756    2.96000004    2.96000004
   14.88083363  153.95599365    2.94000006    2.96000004
   14.88416672  174.85200500    2.93000007    2.96000004
   14.88722229  156.51400757    2.91000009    2.96000004
   14.89055538  156.80799866    2.91000009    2.96000004
   14.89361095  165.89799500    2.91000009    2.96000004
   14.89694405  125.68699646    2.89000010    2.96000004
   14.89999962  139.84399414    2.91000009    2.96000004
   14.90333271  148.46600342    2.96000004    2.96000004
   14.90638828  150.69999695    2.98000002    2.98000002
   14.90972137  155.13099670    3.03999996    2.96000004
   14.91277695  131.49699402    3.01999998    2.98000002
   14.91611099  141.87600708    3.16000009    2.94000006
   14.92138958  141.87600708    3.14000010    2.96000004
   14.92555618  152.86599731    3.18000007    2.98000002
   14.92861176  155.13699341    3.18000007    2.96000004
   14.92916679  148.25700378    3.18000007    2.96000004
   14.93249989  145.94099426    3.21000004    2.94000006
   14.93555546  124.08699799    3.16000009    2.96000004
   14.93888855  156.79899597    3.21000004    2.96000004
   14.94194412  137.11500549    3.20000005    2.96000004
   14.94527817  155.83599854    3.23000002    2.98000002
   14.94833374  130.01400757    3.20000005    2.96000004
   14.95166683  152.00799561    3.21000004    2.96000004
   14.95472240  134.66799927    3.18000007    2.96000004
   14.95805550  149.75199890    3.11999989    2.96000004
   14.96111107  142.70899963    3.09999990    2.96000004
   14.96444416  154.25199890    3.05999994    2.96000004
   14.96749973  156.78300476    3.01999998    2.96000004
   14.97249985  156.78300476    2.96000004    2.98000002
   14.97666645  161.68699646    2.94000006    2.98000002
   14.97916603  159.30499268    2.93000007    2.98000002
   14.98027706  155.05200195    2.86999989    2.98000002
   14.98333359  131.17300415    2.91000009    2.96000004
   14.98666668  165.39999390    2.91000009    2.96000004
   14.98972225  147.88800049    2.89000010    2.96000004
   14.99305534  163.29899597    2.94000006    2.98000002
   14.99611092  140.90899658    2.94000006    2.96000004
   14.99944496  163.40299988    2.98000002    2.98000002
   15.00249958  147.17900085    3.01999998    2.98000002
   15.00583363  126.87899780    3.01999998    2.98000002
   15.00888920  156.61700439    3.05999994    2.96000004
   15.01222229  116.85099792    3.05999994    2.96000004
   15.01527786  145.08700562    3.05999994    2.98000002
   15.01861095  148.71000671    3.01999998    2.98000002
   15.02388859  148.71000671    3.05999994    2.98000002
   15.02777767  143.70399475    3.05999994    2.96000004
   15.02916622  120.55200195    3.09999990    2.96000004
   15.03138828  163.71499634    3.05999994    2.98000002
   15.03444481  116.96399689    3.14000010    2.98000002
   15.03777790  120.44499969    3.05999994    2.98000002
   15.04083347  128.39700317    3.16000009    2.96000004
   15.04388905  140.02499390    3.07999992    2.98000002
   15.04722309  152.26899719    3.01999998    2.96000004
   15.05027771  124.53900146    3.16000009    2.98000002
   15.05361176  140.54400635    3.05999994    2.98000002
   15.05666733  147.58799744    2.98000002    2.96000004
   15.06000042  133.87800598    3.00000000    2.98000002
   15.06305599  151.00500488    2.98000002    2.96000004
   15.06638908  124.73500061    3.01999998    2.98000002
   15.06944466  142.73899841    2.93000007    2.98000002
   15.07499981  142.73899841    3.00000000    2.98000002
   15.07916641  131.13800049    2.98000002    2.96000004
   15.07944393  130.77999878    2.98000002    2.96000004
   15.08277798  153.05200195    3.00000000    2.98000002
   15.08583260  136.19099426    3.09999990    2.98000002
   15.08916664  154.67799377    3.14000010    2.98000002
   15.09222221  145.99600220    3.16000009    2.98000002
   15.09555531  143.90699768    3.18000007    2.98000002
   15.09861088  129.12600708    3.18000007    2.96000004
   15.10194492  132.72399902    3.21000004    2.98000002
   15.10500050  138.86700439    3.23000002    2.96000004
   15.10833359  142.75199890    3.18000007    2.96000004
   15.11138916  117.34999847    3.21000004    2.98000002
   15.11472225  139.05999756    3.25000000    2.96000004
   15.11777782  126.05899811    3.23000002    2.98000002
   15.12111092  119.51300049    3.26999998    2.98000002
   15.12611103  119.51300049    3.32999992    2.96000004
   15.13027763  140.24200439    3.34999990    2.98000002
   15.13333321  123.12799835    3.25000000    2.96000004
   15.13666630  134.39500427    3.21000004    2.98000002
   15.13972187  132.53300476    3.25000000    2.96000004
   15.14305496  140.53399658    3.14000010    2.98000002
   15.14611053  134.06599426    3.18000007    2.94000006
   15.14944458  137.64500427    3.16000009    2.96000004
   15.15249920  154.80099487    3.14000010    2.96000004
   15.15583324  135.11599731    3.16000009    2.98000002
   15.15888882  133.26600647    3.07999992    2.98000002
   15.16222191  148.25199890    3.11999989    2.98000002
   15.16555500  123.48999786    3.16000009    2.98000002
   15.16861153  146.02900696    3.14000010    2.96000004
   15.17194462  129.87800598    3.20000005    2.96000004
   15.17722225  129.87800598    3.23000002    2.98000002
   15.18138885  133.33599854    3.28999996    2.98000002
   15.18472195  125.73200226    3.32999992    2.98000002
   15.18777752  149.97000122    3.34999990    2.98000002
   15.19111156  124.02100372    3.28999996    2.96000004
   15.19416714  145.86999512    3.30999994    2.98000002
   15.19750023  133.59399414    3.34999990    2.98000002
   15.20055580  129.22700500    3.34999990    2.98000002
   15.20388889  143.22999573    3.36999989    2.98000002
   15.20694447  130.71499634    3.39000010    2.96000004
   15.21027756  127.55300140    3.36999989    2.96000004
   15.21333313  130.89700317    3.41000009    2.98000002
   15.21666622  129.96000671    3.46000004    2.96000004
   15.21972179  133.28500366    3.34999990    2.98000002
   15.22277737  142.69299316    3.34999990    2.98000002
   15.24472237  117.83699799    3.09999990    2.98000002
   15.24499989  119.33499908    3.14000010    2.98000002
   15.24805546  141.85499573    3.11999989    2.98000002
   15.25138855  132.95700073    3.14000010    2.98000002
   15.25444412  158.64500427    3.11999989    2.98000002
   15.25777817  166.05799866    3.14000010    2.98000002
   15.26111126  182.06399536    3.23000002    2.98000002
   15.26416683  144.48500061    3.20000005    3.00000000
   15.26749992  172.75199890    3.28999996    2.98000002
   15.27055550  183.02200317    3.30999994    2.98000002
   15.27388859  158.17100525    3.41000009    2.98000002
   15.27972221  158.17100525    3.53999996    2.98000002
   15.28388977  173.05900574    3.51999998    2.96000004
   15.28694534  173.49600220    3.50000000    2.96000004
   15.29027843  140.13900757    3.57999992    2.98000002
   15.29333401  191.35699463    3.53999996    2.98000002
   15.29444504  163.37399292    3.53999996    2.98000002
   15.29694462  189.15800476    3.55999994    2.98000002
   15.30027771  224.91900635    3.55999994    2.98000002
   15.30333328  213.25700378    3.51999998    2.96000004
   15.30666733  193.13400269    3.53999996    2.98000002
   15.30972195  234.79499817    3.48000002    2.96000004
   15.31305599  261.05700684    3.50000000    2.98000002
   15.31611156  216.26899719    3.46000004    2.98000002
   15.31944466  200.06900024    3.45000005    2.96000004
   15.32250023  176.67399597    3.43000007    2.98000002
   15.32583332  253.90400696    3.36999989    2.98000002
   15.33083344  253.90400696    3.43000007    2.98000002
   15.33500004  195.44500732    3.36999989    2.98000002
   15.33833313  219.26100159    3.30999994    2.98000002
   15.34138870  193.88000488    3.34999990    2.98000002
   15.34444427  166.42300415    3.34999990    2.98000002
   15.34472179  214.12600708    3.34999990    2.98000002
   15.34805489  195.91999817    3.30999994    2.96000004
   15.35138893  171.84599304    3.36999989    2.98000002
   15.35444450  182.15800476    3.36999989    3.00000000
   15.35777855  206.83599854    3.39000010    2.98000002
   15.36083412  133.87800598    3.45000005    2.96000004
   15.36416721  156.06300354    3.53999996    2.98000002
   15.36722279  170.59700012    3.53999996    2.98000002
   15.37055588  163.28799438    3.61999989    3.00000000
   15.37361145  162.96800232    3.59999990    3.00000000
   15.37694454  172.03900146    3.50000000    2.98000002
   15.38222218  172.03900146    3.50000000    2.98000002
   15.38611126  162.98800659    3.55999994    2.98000002
   15.38944435  210.71800232    3.59999990    2.98000002
   15.39249992  250.09100342    3.50000000    2.98000002
   15.39444447  167.53900146    3.57999992    2.98000002
   15.39638901  232.82099915    3.48000002    2.98000002
   15.39944458  209.90800476    3.51999998    3.00000000
   15.40277767  177.69700623    3.43000007    2.98000002
   15.40583324  221.51800537    3.50000000    2.98000002
   15.40888882  208.54499817    3.51999998    2.98000002
   15.41222191  306.47100830    3.57999992    2.98000002
   15.41555500  239.92799377    3.50000000    2.98000002
   15.41861153  252.18400574    3.53999996    2.96000004
   15.42194462  203.04299927    3.55999994    2.98000002
   15.42500019  180.42900085    3.46000004    2.98000002
   15.42833328  201.96400452    3.53999996    2.98000002
   15.43333340  201.96400452    3.57999992    2.98000002
   15.43750000  172.55900574    3.64000010    2.98000002
   15.44055557  180.65400696    3.59999990    2.98000002
   15.44388866  147.76800537    3.64000010    2.98000002
   15.44444466  183.60899353    3.64000010    2.98000002
   15.44750023  161.61700439    3.68000007    2.98000002
   15.45055580  169.86099243    3.68000007    2.98000002
   15.45388889  205.61300659    3.72000003    2.98000002
   15.45694447  172.21699524    3.72000003    2.98000002
   15.46027756  191.67599487    3.68000007    2.98000002
   15.46333313  170.13299561    3.73000002    2.98000002
   15.46666622  207.95599365    3.70000005    2.98000002
   15.46972179  202.07299805    3.73000002    3.00000000
   15.47305489  181.94099426    3.72000003    2.98000002
   15.47611046  173.76699829    3.73000002    2.98000002
   15.47944355  232.11099243    3.72000003    2.98000002
   15.48444462  232.11099243    3.64000010    2.98000002
   15.48861122  161.53799438    3.66000009    3.00000000
   15.49166679  169.01499939    3.51999998    2.98000002
   15.49444485  173.48100281    3.59999990    2.98000002
   15.49555588  162.77900696    3.55999994    3.00000000
   15.49861145  178.10400391    3.48000002    2.98000002
   15.50194454  146.34399414    3.45000005    2.98000002
   15.50500011  186.28500366    3.46000004    2.98000002
   15.50805569  172.35000610    3.43000007    2.98000002
   15.51138878  177.29600525    3.34999990    2.98000002
   15.51444435  175.82600403    3.43000007    3.00000000
   15.51777744  196.53300476    3.43000007    3.00000000
   15.52083302  168.64399719    3.45000005    3.00000000
   15.52416611  188.54200745    3.43000007    2.98000002
   15.52722168  184.28199768    3.45000005    2.98000002
   15.53055573  173.02799988    3.57999992    2.98000002
   15.53583336  173.02799988    3.55999994    2.98000002
   15.53972244  172.54400635    3.73000002    2.98000002
   15.54305553  183.90299988    3.73000002    2.98000002
   15.54444504  190.68899536    3.73000002    3.00000000
   15.54666710  168.80900574    3.70000005    3.00000000
   15.54972267  161.56500244    3.72000003    2.98000002
   15.55305576  149.50799561    3.72000003    2.98000002
   15.55611134  178.88400269    3.76999998    2.98000002
   15.55916691  206.35600281    3.75000000    2.98000002
   15.56250000  148.03900146    3.78999996    2.98000002
   15.56555557  161.79200745    3.86999989    3.00000000
   15.56888866  148.80099487    3.75000000    2.98000002
   15.57194424  123.92099762    3.68000007    2.98000002
   15.57527733  174.29499817    3.78999996    2.98000002
   15.57833290  167.85699463    3.75000000    3.00000000
   15.58166695  157.80799866    3.76999998    2.98000002
   15.58694458  157.80799866    3.70000005    3.00000000
   15.59111118  132.95300293    3.59999990    2.98000002
   15.59416676  126.91000366    3.61999989    2.98000002
   15.59472179  146.18400574    3.61999989    2.98000002
   15.59777737  150.67599487    3.55999994    2.96000004
   15.60111141  159.04400635    3.55999994    2.98000002
   15.60416698  144.80700684    3.57999992    2.98000002
   15.60750008  158.03100586    3.55999994    3.00000000
   15.61055565  148.16799927    3.61999989    2.98000002
   15.61388969  153.21400452    3.68000007    3.00000000
   15.61694431  169.45899963    3.61999989    3.00000000
   15.62027836  162.35200500    3.64000010    3.00000000
   15.62333393  150.41099548    3.72000003    2.98000002
   15.62666702  149.90600586    3.68000007    2.98000002
   15.62972260  142.22099304    3.75000000    2.98000002
   15.63305569  155.10099792    3.82999992    3.00000000
   15.63805580  155.10099792    3.82999992    2.98000002
   15.64222240  136.46699524    3.91000009    2.98000002
   15.64472198  142.39799500    4.00000000    3.00000000
   15.64555550  136.55499268    3.97000003    2.98000002
   15.64888859  125.93299866    3.89000010    2.98000002
   15.65194416  145.77200317    3.80999994    3.00000000
   15.65527725  131.65299988    3.75000000    3.00000000
   15.65833282  152.76899719    3.78999996    3.00000000
   15.66166592  174.22300720    3.80999994    2.96000004
   15.66472149  183.15600586    3.86999989    3.00000000
   15.66805553  199.47000122    3.76999998    2.98000002
   15.67111111  182.90499878    3.89000010    2.98000002
   15.67444515  172.61900330    3.78999996    2.98000002
   15.67750072  160.88999939    3.80999994    2.98000002
   15.68083382  162.64900208    3.76999998    3.00000000
   15.68388939  171.51100159    3.82999992    2.98000002
   15.68916702  171.51100159    3.89000010    2.98000002
   15.69333363  154.71699524    3.82999992    2.98000002
   15.69472218  149.06100464    3.82999992    2.98000002
   15.69666672  151.27999878    3.80999994    3.00000000
   15.69999981  167.00300598    3.91000009    2.98000002
   15.70305538  166.15699768    3.76999998    2.98000002
   15.70638847  172.24499512    3.86999989    2.98000002
   15.70944405  157.43099976    3.82999992    3.00000000
   15.71277714  172.06799316    3.91000009    3.00000000
   15.71583271  140.68899536    3.84999990    2.98000002
   15.71916580  145.11000061    3.95000005    2.98000002
   15.72222137  148.59899902    3.97000003    2.98000002
   15.72555542  157.37300110    4.03999996    2.98000002
   15.72861099  151.87899780    3.95000005    2.98000002
   15.73194408  187.06599426    3.99000001    3.00000000
   15.73500061  191.69000244    3.99000001    3.00000000
   15.74055576  191.69000244    4.17999983    3.00000000
   15.74444485  161.67599487    4.23999977    2.98000002
   15.74499989  174.89999390    4.23999977    2.98000002
   15.74833393  166.44099426    4.21999979    2.98000002
   15.75138855  174.76800537    4.26999998    2.98000002
   15.75472260  198.70700073    4.30999994    2.98000002
   15.75777817  190.59700012    4.23999977    2.98000002
   15.76111126  186.03500366    4.23999977    2.98000002
   15.76416683  190.18299866    4.23999977    2.98000002
   15.76749992  142.10400391    4.21999979    2.98000002
   15.77055550  164.05700684    4.21999979    2.98000002
   15.77388859  180.52999878    4.13999987    2.98000002
   15.77694416  184.62600708    4.17999983    2.98000002
   15.78027725  147.76400757    4.13999987    2.98000002
   15.78333378  181.12600708    4.11999989    2.98000002
   15.78666687  189.98300171    4.05999994    3.00000000
   15.79166698  189.98300171    4.05999994    2.98000002
   15.79583359  208.69000244    4.05999994    3.00000000
   15.79888916  176.26600647    4.05999994    3.00000000
   15.80222225  178.31799316    4.21999979    2.98000002
   15.80527782  173.57000732    4.26000023    2.98000002
   15.80861092  120.08399963    4.32999992    3.00000000
   15.81166649  170.42900085    4.34999990    2.98000002
   15.81500053  179.25399780    4.26999998    2.98000002
   15.81805515  118.41600037    4.40999985    2.98000002
   15.82138920  150.11900330    4.48999977    2.98000002
   15.82444477  144.40299988    4.38999987    2.98000002
   15.82777786  157.15199280    4.42999983    2.98000002
   15.83083344  149.61399841    4.30999994    2.98000002
   15.83416653  167.18800354    4.38999987    2.98000002
   15.83722210  175.26300049    4.21999979    3.00000000
   15.84277725  175.26300049    4.26000023    2.98000002
   15.84694386  159.15100098    4.26000023    2.98000002
   15.85000038  175.89500427    4.15999985    2.98000002
   15.85333347  168.99200439    4.17999983    2.98000002
   15.85638905  158.67399597    4.07999992    2.98000002
   15.85972214  148.73399353    4.03999996    2.98000002
   15.86277771  144.00100708    4.03999996    2.98000002
   15.86611176  137.93499756    3.99000001    3.00000000
   15.86916637  127.05300140    3.95000005    2.98000002
   15.87250042  151.57200623    3.89000010    3.00000000
   15.87555599  166.75199890    3.97000003    2.98000002
   15.87888908  165.24499512    3.97000003    2.98000002
   15.88194466  130.67799377    3.95000005    3.00000000
   15.88527775  137.07699585    3.95000005    2.98000002
   15.88833332  131.15199280    4.00000000    3.00000000
   15.89388847  131.15199280    4.09999990    2.98000002
   15.89805508  142.95399475    4.09999990    2.98000002
   15.90111065  156.04200745    4.05999994    2.98000002
   15.90444374  140.85899353    4.03999996    3.00000000
   15.90749931  137.29200745    4.05999994    3.00000000
   15.91083336  136.73300171    4.15999985    3.00000000
   15.91388893  144.21299744    4.13999987    2.98000002
   15.91722298  153.87500000    4.15999985    2.98000002
   15.92027855  143.24200439    4.09999990    2.98000002
   15.92361164  150.13800049    4.13999987    2.98000002
   15.92666721  132.55900574    4.07999992    2.98000002
   15.93000031  131.68899536    4.15999985    3.00000000
   15.93305588  136.28100586    4.13999987    3.00000000
   15.93638897  129.35600281    4.05999994    3.00000000
   15.93944454  152.55999756    4.07999992    2.98000002
   15.94527817  152.55999756    4.07999992    2.98000002
   15.94916630  142.24600220    3.97000003    2.98000002
   15.95249939  135.93600464    3.93000007    2.98000002
   15.95555496  158.06599426    3.73000002    2.98000002
   15.95888901  167.78399658    3.82999992    2.98000002
   15.96194458  151.79800415    3.57999992    2.98000002
   15.96527767  177.46099854    3.57999992    3.00000000
   15.96833324  193.07899475    3.61999989    2.96000004
   15.97166634  212.46499634    3.66000009    3.00000000
   15.97472191  176.29600525    3.48000002    2.96000004
   15.97805500  186.63900757    3.46000004    2.98000002
   15.98111057  193.09599304    3.53999996    2.98000002
   15.98444462  158.71299744    3.51999998    3.00000000
   15.98750019  198.25799561    3.28999996    2.98000002
   15.99083328  212.87300110    3.21000004    2.98000002
   15.99638939  212.87300110    3.14000010    3.00000000
   16.00027847  202.73699951    3.09999990    2.98000002
   16.00361061  181.04200745    3.01999998    3.00000000
   16.00666618  176.38800049    2.94000006    3.00000000
   16.01000023  151.80000305    2.91000009    3.00000000
   16.01305580  160.88000488    2.89000010    2.98000002
   16.01638794  188.53599548    2.82999992    3.00000000
   16.01944351  186.02499390    2.80999994    3.00000000
   16.02277756  184.58599854    2.76999998    3.00000000
   16.02583313  161.52999878    2.76999998    3.00000000
   16.02916718  137.04600525    2.73000002    3.00000000
   16.03222275  180.67900085    2.71000004    3.00000000
   16.03555489  167.89300537    2.64000010    3.00000000
   16.03861046  121.60099792    2.64000010    3.00000000
   16.04194450  134.94799805    2.42000008    2.98000002
   16.04749870  134.94799805    2.21000004    3.00000000
   16.05166626  131.32499695    1.76999998    3.00000000
   16.05472183  159.08799744    1.58000004    3.00000000
   16.05805397  147.08599854    1.55999994    3.01999998
   16.06110954  133.18400574    1.51999998    3.00000000
   16.06444359  156.95799255    1.51999998    3.00000000
   16.06750107  165.85699463    1.51999998    3.00000000
   16.07083511  131.80000305    1.48000002    3.00000000
   16.07389069  123.44599915    1.46000004    3.00000000
   16.07722282  137.37600708    1.44000006    3.00000000
   16.08027840  167.10000610    1.41999996    3.01999998
   16.08361244  132.00199890    1.41999996    3.00000000
   16.08666801  137.66200256    1.41999996    3.00000000
   16.09000015  129.36799622    1.44000006    3.00000000
   16.09305573  161.65100098    1.44000006    2.98000002
   16.09861183  161.65100098    1.44000006    3.00000000
   16.10277748  125.73300171    1.46000004    3.00000000
   16.10611153  131.56100464    1.44000006    3.00000000
   16.10916710  162.50199890    1.44000006    3.00000000
   16.11250114  149.63900757    1.55999994    3.00000000
   16.11555672  151.59300232    1.69000006    3.00000000
   16.11888885  146.66700745    1.86000001    3.00000000
   16.12194443  149.49000549    1.96000004    3.01999998
   16.12527847  139.28599548    2.17000008    3.01999998
   16.12833405  123.07900238    2.51999998    3.00000000
   16.13166618  130.99499512    2.94000006    3.01999998
   16.13472176  138.95500183    3.48000002    3.01999998
   16.13805580  158.99899292    4.17999983    3.03999996
   16.14111137  129.69599915    4.90999985    3.01999998
   16.14444351  138.28700256    4.90999985    3.01999998
   16.14999962  138.28700256    4.90999985    3.01999998
   16.15388870  144.29699707    4.90999985    3.01999998
   16.15722275  151.46099854    4.90999985    3.01999998
   16.16027832  131.57600403    4.90999985    3.03999996
   16.16361046  112.69000244    4.90999985    3.01999998
   16.16666603  127.94499969    4.90999985    3.01999998
   16.17000008  124.71700287    4.90999985    3.01999998
   16.17305565  122.13899994    4.90999985    3.01999998
   16.17638779  128.44700623    4.90999985    3.03999996
   16.17944336  119.40599823    4.90999985    3.03999996
   16.18277740  121.69100189    4.90999985    3.03999996
   16.18583298  118.73699951    4.90999985    3.03999996
   16.18916512  136.69999695    4.90999985    3.03999996
   16.19222069  142.45100403    4.90999985    3.03999996
   16.19555473  124.51000214    4.90999985    3.05999994
   16.20111275  124.51000214    4.90999985    3.07999992
   16.20499992  128.72900391    4.90999985    3.07999992
   16.20833397  149.82400513    4.90999985    3.09999990
   16.21138954  112.12500000    4.90999985    3.09999990
   16.21472359  145.19099426    4.90999985    3.09999990
   16.21777916  107.38400269    4.90999985    3.09999990
   16.22111130  120.03700256    4.90999985    3.16000009
   16.22416687  108.28199768    0.13000000    0.52999997
   16.22750092  111.14299774    0.07000000    0.09000000
   16.23055649  122.00000000    0.07000000    0.09000000
   16.23388863  129.25999451    0.07000000    0.09000000
   16.23694420  138.85600281    0.07000000    0.09000000
   16.24027824  135.42500305    0.07000000    0.09000000
   16.24333382  127.12500000    0.07000000    0.09000000
   16.26499939  127.12500000    0.07000000    0.09000000
   16.26888847  153.00799561    0.07000000    0.09000000
   16.27222252  165.66200256    0.07000000    0.09000000
   16.27527809  164.56199646    0.07000000    0.09000000
   16.27861023  164.33399963    0.07000000    0.09000000
   16.28166580  160.77699280    0.07000000    0.09000000
   16.28499985  141.18099976    0.07000000    0.09000000
   16.28805542  141.62199402    0.07000000    0.09000000
   16.29138756  151.75500488    0.07000000    0.09000000
   16.29444313  184.67700195    0.07000000    0.09000000
   16.29777718  197.58700562    0.07000000    0.09000000
   16.30083275  201.85299683    0.07000000    0.09000000
   16.30416679  168.86199951    0.07000000    0.09000000
   16.30722237  168.18099976    0.07000000    0.09000000
   16.31055450  141.88400269    0.07000000    0.09000000
   16.31250000  163.22599792    0.07000000    0.09000000
   16.31638718  163.22599792    0.07000000    0.09000000
   16.32055664  154.22799683    0.07000000    0.09000000
   16.32361221  158.32000732    0.07000000    0.09000000
   16.32694626  150.46400452    0.07000000    0.09000000
   16.33000183  182.73699951    0.07000000    0.09000000
   16.33333397  132.19299316    0.07000000    0.09000000
   16.33638954  159.15199280    0.07000000    0.09000000
   16.33972359  157.85299683    0.07000000    0.09000000
   16.34277916  127.42199707    0.07000000    0.09000000
   16.34611130  160.11500549    0.07000000    0.09000000
   16.34916687  192.84899902    0.07000000    0.09000000
   16.35250092  153.47300720    0.07000000    0.09000000
   16.35555649  143.52600098    0.07000000    0.09000000
   16.35888863  151.74099731    0.07000000    0.09000000
   16.36194420  164.02200317    0.07000000    0.09000000
   16.36250114  172.68699646    0.07000000    0.09000000
   16.36777878  172.68699646    0.07000000    0.09000000
   16.37166595  132.20199585    0.07000000    0.09000000
   16.37500000  158.67799377    0.07000000    0.09000000
   16.37805557  144.55900574    0.07000000    0.09000000
   16.38138962  125.36399841    0.07000000    0.09000000
   16.38444519  137.53300476    0.07000000    0.09000000
   16.38777733  161.36999512    0.07000000    0.09000000
   16.39083290  155.07299805    0.07000000    0.09000000
   16.39416695  166.09899902    0.07000000    0.09000000
   16.39722252  146.05499268    0.07000000    0.09000000
   16.40055466  141.91099548    0.07000000    0.09000000
   16.40361023  158.42199707    0.07000000    0.09000000
   16.40694427  146.96800232    0.07000000    0.09000000
   16.40999985  155.89799500    0.07000000    0.09000000
   16.41250038  167.93499756    0.07000000    0.09000000
   16.41388893  155.87899780    0.07000000    0.09000000
   16.41888809  155.87899780    0.07000000    0.09000000
   16.42277718  154.05299377    0.07000000    0.09000000
   16.42611122  166.74600220    0.07000000    0.09000000
   16.42916679  160.37800598    0.07000000    0.09000000
   16.43249893  146.05400085    0.07000000    0.09000000
   16.43555450  161.32200623    0.07000000    0.09000000
   16.43888855  158.50599670    0.07000000    0.09000000
   16.44194412  167.45100403    0.07000000    0.09000000
   16.44527626  174.56599426    0.07000000    0.09000000
   16.44833183  132.70199585    0.07000000    0.09000000
   16.45166779  173.10000610    0.07000000    0.09000000
   16.45472336  158.44299316    0.07000000    0.09000000
   16.45805550  174.72999573    0.07000000    0.09000000
   16.46138954  172.60200500    0.07000000    0.09000000
   16.46250153  175.36799622    0.07000000    0.09000000
   16.46500015  178.15800476    0.07000000    0.09000000
   16.47000122  178.15800476    0.07000000    0.09000000
   16.47416687  178.59599304    0.07000000    0.09000000
   16.47722244  192.98800659    0.07000000    0.09000000
   16.48055649  167.63200378    0.07000000    0.09000000
   16.48361206  181.40400696    0.07000000    0.09000000
   16.48694420  180.70300293    0.07000000    0.09000000
   16.48999977  172.42700195    0.07000000    0.09000000
   16.49333382  162.88600159    0.07000000    0.09000000
   16.49638939  177.58999634    0.07000000    0.09000000
   16.49972153  171.50000000    0.07000000    0.09000000
   16.50277710  188.55599976    0.07000000    0.09000000
   16.50611115  142.10099792    0.07000000    0.09000000
   16.50916672  173.40199280    0.07000000    0.09000000
   16.51250076  171.20399475    0.07000000    0.09000000
   16.51277733  171.31399536    0.07000000    0.09000000
   16.51611137  165.56199646    0.07000000    0.09000000
   16.52111053  165.56199646    0.07000000    0.09000000
   16.52527809  155.16900635    0.07000000    0.09000000
   16.52833366  156.25599670    0.07000000    0.09000000
   16.53166580  171.91700745    0.07000000    0.09000000
   16.53472137  152.85699463    0.07000000    0.09000000
   16.53805542  128.73899841    0.07000000    0.09000000
   16.54111099  106.87599945    0.07000000    0.09000000
   16.54444313  160.61000061    0.07000000    0.09000000
   16.54777718  144.51800537    0.07000000    0.09000000
   16.55083275  137.59300232    0.07000000    0.09000000
   16.55416679  144.66799927    0.07000000    0.09000000
   16.55722237  141.79299927    0.07000000    0.09000000
   16.56055450  151.04699707    0.07000000    0.09000000
   16.56277657  158.50799561    0.07000000    0.09000000
   16.56416512  157.31399536    0.07000000    0.09000000
   16.56722260  137.16200256    0.07000000    0.09000000
   16.57250023  137.16200256    0.07000000    0.09000000
   16.57638931   99.58049774    0.07000000    0.09000000
   16.57972336  106.21099854    0.07000000    0.09000000
   16.58277893  122.10399628    0.07000000    0.09000000
   16.58611107  135.68299866    0.07000000    0.09000000
   16.58916664  132.87300110    0.07000000    0.09000000
   16.59250069  129.55099487    0.07000000    0.09000000
   16.59555626  141.70199585    0.07000000    0.09000000
   16.59889030  138.90100098    0.07000000    0.09000000
   16.60194397  141.62800598    0.07000000    0.09000000
   16.60527802  152.03500366    0.07000000    0.09000000
   16.60833359  139.50900269    0.07000000    0.09000000
   16.61166763  136.50500488    0.07000000    0.09000000
   16.61277771  120.50499725    0.07000000    0.09000000
   16.61499977  113.38999939    0.07000000    0.09000000
   16.61805534  127.06400299    0.07000000    0.09000000
   16.62361145  127.06400299    0.07000000    0.09000000
   16.62750053  119.74600220    0.07000000    0.09000000
   16.63083267  121.40699768    0.07000000    0.09000000
   16.63388824  139.41600037    0.07000000    0.09000000
   16.63722229  139.31799316    0.07000000    0.09000000
   16.64027786  132.97099304    0.07000000    0.09000000
   16.64361191  127.76699829    0.07000000    0.09000000
   16.64666748  139.47900391    0.07000000    0.09000000
   16.64999962  129.25999451    0.07000000    0.09000000
   16.65305519  139.78700256    0.07000000    0.09000000
   16.65638924  129.75900269    0.07000000    0.09000000
   16.65944481  130.17700195    0.07000000    0.09000000
   16.66277695  119.75700378    0.07000000    0.09000000
   16.66333389  125.94100189    0.07000000    0.09000000
   16.66638756  135.95799255    0.07000000    0.09000000
   16.66972160  124.59200287    0.07000000    0.09000000
   16.67472076  124.59200287    0.07000000    0.09000000
   16.67888832  135.75900269    0.07000000    0.09000000
   16.68194389  122.62799835    0.07000000    0.09000000
   16.68527603  112.12599945    0.07000000    0.09000000
   16.68833160  119.60099792    0.07000000    0.09000000
   16.69166565  122.78399658    0.07000000    0.09000000
   16.69472122  128.30400085    0.07000000    0.09000000
   16.69805527  145.53300476    0.07000000    0.09000000
   16.70111275  118.49900055    0.07000000    0.09000000
   16.70444489  131.65800476    0.07000000    0.09000000
   16.70750046  117.16899872    0.07000000    0.09000000
   16.71083450  131.35200500    0.07000000    0.09000000
   16.71333504  127.88300323    0.07000000    0.09000000
   16.71416664  114.11699677    0.07000000    0.09000000
   16.71750069  120.94699860    0.07000000    0.09000000
   16.72055626  124.49900055    0.07000000    0.09000000
   16.72583389  124.49900055    0.07000000    0.09000000
   16.73000145  150.23399353    0.07000000    0.09000000
   16.73305511  133.52799988    0.07000000    0.09000000
   16.73638916  126.75700378    0.07000000    0.09000000
   16.73944473  120.06900024    0.07000000    0.09000000
   16.74277878  132.27799988    0.07000000    0.09000000
   16.74583435  120.03299713    0.07000000    0.09000000
   16.74916649  127.84400177    0.07000000    0.09000000
   16.75222206  140.28199768    0.07000000    0.09000000
   16.75555611  119.28600311    0.07000000    0.09000000
   16.75861168  139.49200439    0.07000000    0.09000000
   16.76194382  138.37800598    0.07000000    0.09000000
   16.76333427  131.33500671    0.07000000    0.09000000
   16.76527786  113.89600372    0.07000000    0.09000000
   16.76861000  105.35199738    0.07000000    0.09000000
   16.77166557  100.87699890    0.07000000    0.09000000
   16.77694511  100.87699890    0.07000000    0.09000000
   16.78111076  115.52600098    0.07000000    0.09000000
   16.78444481  120.74099731    0.07000000    0.09000000
   16.78750038  113.07099915    0.07000000    0.09000000
   16.79083252  114.50499725    0.07000000    0.09000000
   16.79388809  116.59300232    0.07000000    0.09000000
   16.79722214  121.18699646    0.07000000    0.09000000
   16.80027771  110.80300140    0.07000000    0.09000000
   16.80360985  112.97499847    0.07000000    0.09000000
   16.80666542  106.78800201    0.07000000    0.09000000
   16.80999947  115.95400238    0.07000000    0.09000000
   16.81305504  112.78600311    0.07000000    0.09000000
   16.81361008  108.41600037    0.07000000    0.09000000
   16.81666756  108.14299774    0.07000000    0.09000000
   16.82000160  107.55500031    0.07000000    0.09000000
   16.82305717  102.83599854    0.07000000    0.09000000
   16.82833481  102.83599854    0.07000000    0.09000000
   16.83222389  113.71600342    0.07000000    0.09000000
   16.83555603  104.06999969    0.07000000    0.09000000
   16.83861160  114.71399689    0.07000000    0.09000000
   16.84194565  110.45600128    0.07000000    0.09000000
   16.84500122  111.47100067    0.07000000    0.09000000
   16.84833336  111.11000061    0.07000000    0.09000000
   16.85138893  107.14499664    0.07000000    0.09000000
   16.85472298  104.43599701    0.07000000    0.09000000
   16.85777855  105.18599701    0.07000000    0.09000000
   16.86111069  107.01699829    0.07000000    0.09000000
   16.86361122  113.30400085    0.07000000    0.09000000
   16.86444473  110.23200226    0.07000000    0.09000000
   16.86777878  118.72599792    0.07000000    0.09000000
   16.87083435  116.71600342    0.07000000    0.09000000
   16.87416649  117.58499908    0.07000000    0.09000000
   16.87944412  117.58499908    0.07000000    0.09000000
   16.88361168  105.62400055    0.07000000    0.09000000
   16.88666725  116.37599945    0.07000000    0.09000000
   16.88999939  107.92800140    0.07000000    0.09000000
   16.89305496  106.36199951    0.07000000    0.09000000
   16.89638901  115.52700043    0.07000000    0.09000000
   16.89944458  110.54599762    0.07000000    0.09000000
   16.90277672  104.47499847    0.07000000    0.09000000
   16.90583229  109.29799652    0.07000000    0.09000000
   16.90916634  100.49500275    0.07000000    0.09000000
   16.91222191  104.61799622    0.07000000    0.09000000
   16.91361046  126.16100311    0.07000000    0.09000000
   16.91555595  119.36299896    0.07000000    0.09000000
   16.91888809  114.78500366    0.07000000    0.09000000
   16.92194366  139.04800415    0.07000000    0.09000000
   16.92527771  115.13899994    0.07000000    0.09000000
   16.93055534  115.13899994    0.07000000    0.09000000
   16.93472099  142.10400391    0.07000000    0.09000000
   16.93777657  135.08700562    0.07000000    0.09000000
   16.94111061  158.75199890    0.07000000    0.09000000
   16.94416618  150.03700256    0.07000000    0.09000000
   16.94749832  145.92700195    0.07000000    0.09000000
   16.95055580  144.22799683    0.07000000    0.09000000
   16.95388985  157.17999268    0.07000000    0.09000000
   16.95694542  142.08000183    0.07000000    0.09000000
   16.96027946  131.53500366    0.07000000    0.09000000
   16.96333504  151.35699463    0.07000000    0.09000000
   16.96389008  107.73000336    0.07000000    0.09000000
   16.96722221  118.08399963    0.07000000    0.09000000
   16.97027779  121.76499939    0.07000000    0.09000000
   16.97361183  146.15199280    0.07000000    0.09000000
   16.97666740  124.59899902    0.07000000    0.09000000
   16.98166656  124.59899902    0.07000000    0.09000000
   16.98583412  132.63299561    0.07000000    0.09000000
   16.98916626  139.40600586    0.07000000    0.09000000
   16.99222183  130.41099548    0.07000000    0.09000000
   16.99555588  122.74700165    0.07000000    0.09000000
   16.99861145  133.86099243    0.07000000    0.09000000
   17.00194359  131.88200378    0.07000000    0.09000000
   17.00499916  108.82199860    0.07000000    0.09000000
   17.00833321  107.95800018    0.07000000    0.09000000
   17.01138878  109.54799652    0.07000000    0.09000000
   17.01388931  113.99900055    0.07000000    0.09000000
   17.01499939  117.23300171    0.07000000    0.09000000
   17.01805496  115.84799957    0.07000000    0.09000000
   17.02138901  126.41699982    0.07000000    0.09000000
   17.02444458  129.90400696    0.07000000    0.09000000
   17.02777672  131.42999268    0.07000000    0.09000000
   17.03305435  131.42999268    0.07000000    0.09000000
   17.03694344  107.46499634    0.07000000    0.09000000
   17.04027748  138.70100403    0.07000000    0.09000000
   17.04333305  126.89199829    0.07000000    0.09000000
   17.04666710  129.41700745    0.07000000    0.09000000
   17.04972076  115.00700378    0.07000000    0.09000000
   17.05305481  129.33799744    0.07000000    0.09000000
   17.05611038  115.32900238    0.07000000    0.09000000
   17.05944443  120.29900360    0.07000000    0.09000000
   17.06250000  131.60099792    0.07000000    0.09000000
   17.06388855  124.98400116    0.07000000    0.09000000
   17.06611061  123.48000336    0.07000000    0.09000000
   17.06916809  108.76799774    0.07000000    0.09000000
   17.07250023  125.53199768    0.07000000    0.09000000
   17.07555580  129.57400513    0.07000000    0.09000000
   17.07888985  144.38999939    0.07000000    0.09000000
   17.08416748  144.38999939    0.07000000    0.09000000
   17.08833313  148.83599854    0.07000000    0.09000000
   17.09138870  133.19299316    0.07000000    0.09000000
   17.09472275  133.66900635    0.07000000    0.09000000
   17.09777832  132.93800354    0.07000000    0.09000000
   17.10111237  142.52299500    0.07000000    0.09000000
   17.10416794  127.79699707    0.07000000    0.09000000
   17.10750008  121.99500275    0.07000000    0.09000000
   17.11055565  137.10000610    0.07000000    0.09000000
   17.11388969  133.15299988    0.07000000    0.09000000
   17.11416626  137.79800415    0.07000000    0.09000000
   17.11750031  142.57699585    0.07000000    0.09000000
   17.12055588  112.08399963    0.07000000    0.09000000
   17.12388992  133.21800232    0.07000000    0.09000000
   17.12694550  149.73500061    0.07000000    0.09000000
   17.13027763  148.00399780    0.07000000    0.09000000
   17.13527679  148.00399780    0.07000000    0.09000000
   17.13944435  128.67399597    0.07000000    0.09000000
   17.14249992  148.68499756    0.07000000    0.09000000
   17.14583397  108.46299744    0.07000000    0.09000000
   17.14888954  134.67100525    0.07000000    0.09000000
   17.15222168  148.50100708    0.07000000    0.09000000
   17.15527725  141.25900269    0.07000000    0.09000000
   17.15861130  144.33000183    0.07000000    0.09000000
   17.16166687  158.32400513    0.07000000    0.09000000
   17.16444397  134.75000000    0.07000000    0.09000000
   17.16527748  119.28900146    0.07000000    0.09000000
   17.16860962  115.52500153    0.07000000    0.09000000
   17.17166519  133.53100586    0.07000000    0.09000000
   17.17499924  145.78100586    0.07000000    0.09000000
   17.17805481  127.57199860    0.07000000    0.09000000
   17.18138885  115.66000366    0.07000000    0.09000000
   17.18638802  115.66000366    0.07000000    0.09000000
   17.19055557  120.06900024    0.07000000    0.09000000
   17.19388771  112.47899628    0.07000000    0.09000000
   17.19694328  120.20800018    0.07000000    0.09000000
   17.20027924  131.78599548    0.07000000    0.09000000
   17.20333481  124.17099762    0.07000000    0.09000000
   17.20666695  109.14499664    0.07000000    0.09000000
   17.20972252  115.34500122    0.07000000    0.09000000
   17.21305656  133.64900208    0.07000000    0.09000000
   17.21444511  128.99200439    0.07000000    0.09000000
   17.21638870  126.71600342    0.07000000    0.09000000
   17.21972275  136.99200439    0.07000000    0.09000000
   17.22277832  148.74400330    0.07000000    0.09000000
   17.22611237  143.67199707    0.07000000    0.09000000
   17.22916794  154.86099243    0.07000000    0.09000000
   17.23250008  143.19700623    0.07000000    0.09000000
   17.23777771  143.19700623    0.07000000    0.09000000
   17.24166679  167.39700317    0.07000000    0.09000000
   17.24500084  171.12899780    0.07000000    0.09000000
   17.24805641  184.33200073    0.07000000    0.09000000
   17.25138855  157.26600647    0.07000000    0.09000000
   17.25444412  127.45899963    0.07000000    0.09000000
   17.25777817  136.27600098    0.07000000    0.09000000
   17.26083374  175.04800415    0.07000000    0.09000000
   17.27805519  164.17199707    0.07000000    0.09000000
   17.28083229  159.77299500    0.07000000    0.09000000
   17.28388786  179.13600159    0.07000000    0.09000000
   17.28888893  179.13600159    0.07000000    0.09000000
   17.29305458  172.44700623    0.07000000    0.09000000
   17.29638863  190.51899719    0.07000000    0.09000000
   17.29944420  173.43099976    0.07000000    0.09000000
   17.30277634  156.13600159    0.07000000    0.09000000
   17.30583191  163.33000183    0.07000000    0.09000000
   17.30916595  154.16999817    0.07000000    0.09000000
   17.31222153  165.92599487    0.07000000    0.09000000
   17.31555557  141.74299622    0.07000000    0.09000000
   17.31861115  154.02600098    0.07000000    0.09000000
   17.32194519  144.45700073    0.07000000    0.09000000
   17.32500076  162.44700623    0.07000000    0.09000000
   17.32805634  152.25799561    0.07000000    0.09000000
   17.32833481  155.53300476    0.07000000    0.09000000
   17.33166695  146.80700684    0.07000000    0.09000000
   17.33472252  157.97099304    0.07000000    0.09000000
   17.34027863  157.97099304    0.07000000    0.09000000
   17.34416771  161.16299438    0.07000000    0.09000000
   17.34749985  162.98199463    0.07000000    0.09000000
   17.35055542  162.80200195    0.07000000    0.09000000
   17.35388947  150.87899780    0.07000000    0.09000000
   17.35694504  139.13600159    0.07000000    0.09000000
   17.36027908  161.88000488    0.07000000    0.09000000
   17.36333466  145.38400269    0.07000000    0.09000000
   17.36666679  158.92700195    0.07000000    0.09000000
   17.36972237  172.14399719    0.07000000    0.09000000
   17.37305641  147.23899841    0.07000000    0.09000000
   17.37611198  174.39100647    0.07000000    0.09000000
   17.37805557  170.31700134    0.07000000    0.09000000
   17.38000107  164.28799438    0.07000000    0.09000000
   17.38305473  164.33700562    0.07000000    0.09000000
   17.38638878  175.32800293    0.07000000    0.09000000
   17.39138794  175.32800293    0.07000000    0.09000000
   17.39555550  156.16600037    0.07000000    0.09000000
   17.39861107  164.23899841    0.07000000    0.09000000
   17.40194321  144.41200256    0.07000000    0.09000000
   17.40499878  177.64799500    0.07000000    0.09000000
   17.40833282  190.63699341    0.07000000    0.09000000
   17.41138840  186.19799805    0.07000000    0.09000000
   17.41472244  166.55200195    0.07000000    0.09000000
   17.41777802  165.57600403    0.07000000    0.09000000
   17.42111015  160.35400391    0.07000000    0.09000000
   17.42416573  156.44500732    0.07000000    0.09000000
   17.42749977  151.55000305    0.07000000    0.09000000
   17.42805481  143.67900085    0.07000000    0.09000000
   17.43111038  148.49499512    0.07000000    0.09000000
   17.43416595  150.83900452    0.07000000    0.09000000
   17.43750000  165.41499329    0.07000000    0.09000000
   17.44249916  165.41499329    0.07000000    0.09000000
   17.44666672  181.29299927    0.07000000    0.09000000
   17.44972038  199.68200684    0.07000000    0.09000000
   17.45305634  195.07000732    0.07000000    0.09000000
   17.45611191  193.06700134    0.07000000    0.09000000
   17.45944595  166.18600464    0.07000000    0.09000000
   17.46250153  165.95500183    0.07000000    0.09000000
   17.46583366  164.53100586    0.07000000    0.09000000
   17.46888924  162.72200012    0.07000000    0.09000000
   17.47222328  173.79299927    0.07000000    0.09000000
   17.47527885  153.64300537    0.07000000    0.09000000
   17.47805595  156.40299988    0.07000000    0.09000000
   17.47916794  145.61700439    0.07000000    0.09000000
   17.48222351  169.77900696    0.07000000    0.09000000
   17.48555565  147.93299866    0.07000000    0.09000000
   17.48861122  146.33299255    0.07000000    0.09000000
   17.49361229  146.33299255    0.07000000    0.09000000
   17.49777794  167.17900085    0.07000000    0.09000000
   17.50111198  170.80900574    0.07000000    0.09000000
   17.50416756  141.71200562    0.07000000    0.09000000
   17.50749969  154.70500183    0.07000000    0.09000000
   17.51055527  140.84500122    0.07000000    0.09000000
   17.51388931  138.59800720    0.07000000    0.09000000
   17.51694489  150.79299927    0.07000000    0.09000000
   17.52027702  160.34800720    0.07000000    0.09000000
   17.52333260  154.83000183    0.07000000    0.09000000
   17.52666664  158.65199280    0.07000000    0.09000000
   17.52805519  155.01400757    0.07000000    0.09000000
   17.53027725  143.16000366    0.07000000    0.09000000
   17.53333282  166.16700745    0.07000000    0.09000000
   17.53666687  158.58599854    0.07000000    0.09000000
   17.53972244  158.72099304    0.07000000    0.09000000
   17.54500008  158.72099304    0.07000000    0.09000000
   17.54888916  176.17900085    0.07000000    0.09000000
   17.55222130  159.70300293    0.07000000    0.09000000
   17.55527687  159.97599792    0.07000000    0.09000000
   17.55861092  154.94799805    0.07000000    0.09000000
   17.56166649  177.76400757    0.07000000    0.09000000
   17.56499863  122.69999695    0.07000000    0.09000000
   17.56805611   95.92880249    0.07000000    0.09000000
   17.57139015  183.09199524    0.07000000    0.09000000
   17.57444572  159.40899658    0.07000000    0.09000000
   17.57777786  163.70300293    0.07000000    0.09000000
   17.57833481  150.60099792    0.07000000    0.09000000
   17.58139038  173.97399902    0.07000000    0.09000000
   17.58444595  167.93899536    0.07000000    0.09000000
   17.58777809  175.13099670    0.07000000    0.09000000
   17.59083366  152.15800476    0.07000000    0.09000000
   17.59611130  152.15800476    0.07000000    0.09000000
   17.60027885  179.29200745    0.07000000    0.09000000
   17.60333443  173.06300354    0.07000000    0.09000000
   17.60666656  159.28300476    0.07000000    0.09000000
   17.60972214  163.24000549    0.07000000    0.09000000
   17.61305618  178.93800354    0.07000000    0.09000000
   17.61611176  188.90699768    0.07000000    0.09000000
   17.61944389  170.86399841    0.07000000    0.09000000
   17.62249947  167.21499634    0.07000000    0.09000000
   17.62583351  155.65600586    0.07000000    0.09000000
   17.62861061  150.44900513    0.07000000    0.09000000
   17.62944412  146.22099304    0.07000000    0.09000000
   17.63249969  129.31500244    0.07000000    0.09000000
   17.63583374  164.18499756    0.07000000    0.09000000
   17.63888931  154.52900696    0.07000000    0.09000000
   17.64222145  175.85800171    0.07000000    0.09000000
   17.64722252  175.85800171    0.07000000    0.09000000
   17.65138817  185.13600159    0.07000000    0.09000000
   17.65444374  160.59500122    0.07000000    0.09000000
   17.65777779  152.41799927    0.07000000    0.09000000
   17.66083336  158.92799377    0.07000000    0.09000000
   17.66416550  152.90199280    0.07000000    0.09000000
   17.66722107  152.77299500    0.07000000    0.09000000
   17.67055511  169.26899719    0.07000000    0.09000000
   17.67361069  166.91099548    0.07000000    0.09000000
   17.67694473  134.23199463    0.07000000    0.09000000
   17.67860985  161.44200134    0.07000000    0.09000000
   17.68055534  165.40800476    0.07000000    0.09000000
   17.68361092  148.00700378    0.07000000    0.09000000
   17.68694305  157.15699768    0.07000000    0.09000000
   17.68999863  168.47500610    0.07000000    0.09000000
   17.69333267  159.82800293    0.07000000    0.09000000
   17.69833183  159.82800293    0.07000000    0.09000000
   17.70250130  120.35099792    0.07000000    0.09000000
   17.70583344  147.84300232    0.07000000    0.09000000
   17.70888901  109.33499908    0.07000000    0.09000000
   17.71222305  155.70799255    0.07000000    0.09000000
   17.71527863  150.69400024    0.07000000    0.09000000
   17.71861076  134.34300232    0.07000000    0.09000000
   17.72166634  136.61799622    0.07000000    0.09000000
   17.72500038  134.85899353    0.07000000    0.09000000
   17.72805595  152.35800171    0.07000000    0.09000000
   17.72861099  137.15100098    0.07000000    0.09000000
   17.73166656  148.31399536    0.07000000    0.09000000
   17.73472214  130.96899414    0.07000000    0.09000000
   17.73805618  138.86099243    0.07000000    0.09000000
   17.74111176  143.97900391    0.07000000    0.09000000
   17.74444389  140.03199768    0.07000000    0.09000000
   17.74972153  140.03199768    0.07000000    0.09000000
   17.75361061  155.42199707    0.07000000    0.09000000
   17.75694466  167.58099365    0.07000000    0.09000000
   17.76000023  153.03999329    0.07000000    0.09000000
   17.76333427  173.57299805    0.07000000    0.09000000
   17.76638794  174.08799744    0.07000000    0.09000000
   17.76972198  168.82800293    0.07000000    0.09000000
   17.77277756  183.96099854    0.07000000    0.09000000
   17.77611160  182.66999817    0.07000000    0.09000000
   17.77861023  167.67199707    0.07000000    0.09000000
   17.77972221  185.88900757    0.07000000    0.09000000
   17.78277779  164.23399353    0.07000000    0.09000000
   17.78610992  167.86599731    0.07000000    0.09000000
   17.78916550  163.21499634    0.07000000    0.09000000
   17.79249954  158.66200256    0.07000000    0.09000000
   17.79555511  159.60899353    0.07000000    0.09000000
   17.80083275  159.60899353    0.07000000    0.09000000
   17.80499840  165.98899841    0.07000000    0.09000000
   17.80805397  154.45899963    0.07000000    0.09000000
   17.81138802  149.52299500    0.07000000    0.09000000
   17.81444359  152.85600281    0.07000000    0.09000000
   17.81777954  143.15600586    0.07000000    0.09000000
   17.82083511  140.02499390    0.07000000    0.09000000
   17.82416725  154.14300537    0.07000000    0.09000000
   17.82722282  154.33900452    0.07000000    0.09000000
   17.82861137  162.97799683    0.07000000    0.09000000
   17.83083344  176.11599731    0.07000000    0.09000000
   17.83388901  161.56700134    0.07000000    0.09000000
   17.83722305  139.26300049    0.07000000    0.09000000
   17.84027863  156.39300537    0.07000000    0.09000000
   17.84361267  156.20199585    0.07000000    0.09000000
   17.84666824  158.83299255    0.07000000    0.09000000
   17.85194397  158.83299255    0.07000000    0.09000000
   17.85611153  173.10699463    0.07000000    0.09000000
   17.85916710  169.76699829    0.07000000    0.09000000
   17.86250114  155.12300110    0.07000000    0.09000000
   17.86555672  166.30299377    0.07000000    0.09000000
   17.86888885  153.43299866    0.07000000    0.09000000
   17.87194443  180.36199951    0.07000000    0.09000000
   17.87527847  150.26199341    0.07000000    0.09000000
   17.87833405  157.98699951    0.07000000    0.09000000
   17.87888908  143.48800659    0.07000000    0.09000000
   17.88222313  157.64799500    0.07000000    0.09000000
   17.88527679  142.49499512    0.07000000    0.09000000
   17.88861084  154.67599487    0.07000000    0.09000000
   17.89166641  167.36799622    0.07000000    0.09000000
   17.89500046  160.35499573    0.07000000    0.09000000
   17.89805603  167.80400085    0.07000000    0.09000000
   17.90305519  167.80400085    0.07000000    0.09000000
   17.90722275  158.45199585    0.07000000    0.09000000
   17.91055489  150.08700562    0.07000000    0.09000000
   17.91361046  176.18499756    0.07000000    0.09000000
   17.91694450  156.93200684    0.07000000    0.09000000
   17.92000008  172.75999451    0.07000000    0.09000000
   17.92333221  157.60200500    0.07000000    0.09000000
   17.92638779  169.24800110    0.07000000    0.09000000
   17.92888832  145.85400391    0.07000000    0.09000000
   17.93000031  156.83299255    0.07000000    0.09000000
   17.93305397  149.05499268    0.07000000    0.09000000
   17.93638802  156.92900085    0.07000000    0.09000000
   17.93944359  175.62100220    0.07000000    0.09000000
   17.94277763  141.60800171    0.07000000    0.09000000
   17.94583321  151.91200256    0.07000000    0.09000000
   17.94916534  163.82099915    0.07000000    0.09000000
   17.95444489  163.82099915    0.07000000    0.09000000
   17.95833397  166.78199768    0.07000000    0.09000000
   17.96166801  151.28399658    0.07000000    0.09000000
   17.96472359  175.91999817    0.07000000    0.09000000
   17.96805573  146.12600708    0.07000000    0.09000000
   17.97111130  155.60299683    0.07000000    0.09000000
   17.97444534  151.05400085    0.07000000    0.09000000
   17.97750092  155.88099670    0.07000000    0.09000000
   17.97888947  136.60600281    0.07000000    0.09000000
   17.98111153  145.89599609    0.07000000    0.09000000
   17.98416710  146.05099487    0.07000000    0.09000000
   17.98750114  129.40400696    0.07000000    0.09000000
   17.99055672  149.48300171    0.07000000    0.09000000
   17.99388885  147.59599304    0.07000000    0.09000000
   17.99694443  163.04600525    0.07000000    0.09000000
   18.00027847  167.13800049    0.07000000    0.09000000
   18.00555611  167.13800049    0.07000000    0.09000000
   18.00972176  137.67399597    0.07000000    0.09000000
   18.01277733  155.14300537    0.07000000    0.09000000
   18.01611137  133.61500549    0.07000000    0.09000000
   18.01916695  160.36799622    0.07000000    0.09000000
   18.02249908  143.18200684    0.07000000    0.09000000
   18.02555466  161.57699585    0.07000000    0.09000000
   18.02888870  132.01300049    0.07000000    0.09000000
   18.02916718  145.86399841    0.07000000    0.09000000
   18.03249931  148.90199280    0.07000000    0.09000000
   18.03555489  138.91400146    0.07000000    0.09000000
   18.03888893  150.05299377    0.07000000    0.09000000
   18.04194450  136.72200012    0.07000000    0.09000000
   18.04527664  148.13900757    0.07000000    0.09000000
   18.04833221  147.73300171    0.07000000    0.09000000
   18.05166626  136.94500732    0.07000000    0.09000000
   18.05666542  136.94500732    0.07000000    0.09000000
   18.06083298  154.50100708    0.07000000    0.09000000
   18.06388855  156.03700256    0.07000000    0.09000000
   18.06722260  161.85099792    0.07000000    0.09000000
   18.07027817  161.58999634    0.07000000    0.09000000
   18.07361221  145.98500061    0.07000000    0.09000000
   18.07666779  165.44099426    0.07000000    0.09000000
   18.07916832  146.63400269    0.07000000    0.09000000
   18.08027840  146.58900452    0.07000000    0.09000000
   18.08333397  149.85400391    0.07000000    0.09000000
   18.08666801  156.27299500    0.07000000    0.09000000
   18.08972359  164.97999573    0.07000000    0.09000000
   18.09305573  159.17399597    0.07000000    0.09000000
   18.09611130  165.06300354    0.07000000    0.09000000
   18.09944534  152.86500549    0.07000000    0.09000000
   18.10250092  149.20700073    0.07000000    0.09000000
   18.10777855  149.20700073    0.07000000    0.09000000
   18.11194420  158.91499329    0.07000000    0.09000000
   18.11527824  151.17100525    0.07000000    0.09000000
   18.11833382  159.63999939    0.07000000    0.09000000
   18.12166595  162.87600708    0.07000000    0.09000000
   18.12472153  165.74699402    0.07000000    0.09000000
   18.12805557  144.53100586    0.07000000    0.09000000
   18.12916756  144.38400269    0.07000000    0.09000000
   18.13138962  150.81700134    0.07000000    0.09000000
   18.13444519  157.17999268    0.07000000    0.09000000
   18.13777733  179.29400635    0.07000000    0.09000000
   18.14083290  152.64300537    0.07000000    0.09000000
   18.14416695  155.01400757    0.07000000    0.09000000
   18.14722252  145.86900330    0.07000000    0.09000000
   18.15055466  158.45399475    0.07000000    0.09000000
   18.15361023  159.92500305    0.07000000    0.09000000
   18.15916634  159.92500305    0.07000000    0.09000000
   18.16305542  167.65400696    0.07000000    0.09000000
   18.16638756  177.34599304    0.07000000    0.09000000
   18.16944313  155.47099304    0.07000000    0.09000000
   18.17277718  150.63699341    0.07000000    0.09000000
   18.17583275  165.86300659    0.07000000    0.09000000
   18.17916679  150.73800659    0.07000000    0.09000000
   18.17972183  153.12899780    0.07000000    0.09000000
   18.18277740  165.80599976    0.07000000    0.09000000
   18.18610954  147.27799988    0.07000000    0.09000000
   18.18916512  149.50000000    0.07000000    0.09000000
   18.19249916  171.52200317    0.07000000    0.09000000
   18.19555473  166.68699646    0.07000000    0.09000000
   18.19888878  170.45399475    0.07000000    0.09000000
   18.20194435  174.69299316    0.07000000    0.09000000
   18.20527840  168.67900085    0.07000000    0.09000000
   18.21027946  168.67900085    0.07000000    0.09000000
   18.21444511  164.34300232    0.07000000    0.09000000
   18.21750069  144.44000244    0.07000000    0.09000000
   18.22083473  162.43499756    0.07000000    0.09000000
   18.22389030  157.93400574    0.07000000    0.09000000
   18.22722244  142.68400574    0.07000000    0.09000000
   18.22972298  159.58900452    0.07000000    0.09000000
   18.23055649  157.40800476    0.07000000    0.09000000
   18.23388863  141.81500244    0.07000000    0.09000000
   18.23694420  164.30900574    0.07000000    0.09000000
   18.24027824  165.30499268    0.07000000    0.09000000
   18.24333382  157.53199768    0.07000000    0.09000000
   18.24666786  156.50500488    0.07000000    0.09000000
   18.24972153  142.03999329    0.07000000    0.09000000
   18.25305557  176.57099915    0.07000000    0.09000000
   18.25611115  133.00300598    0.07000000    0.09000000
   18.26138878  133.00300598    0.07000000    0.09000000
   18.26555634  126.05100250    0.07000000    0.09000000
   18.26861000  143.40800476    0.07000000    0.09000000
   18.27194405  135.39700317    0.07000000    0.09000000
   18.27499962  146.55299377    0.07000000    0.09000000
   18.27833366  118.11900330    0.07000000    0.09000000
   18.29527664  148.20199585    0.07000000    0.09000000
   18.29805565  148.69299316    0.07000000    0.09000000
   18.30138779  171.72999573    0.07000000    0.09000000
   18.30444336  171.70300293    0.07000000    0.09000000
   18.30777740  139.02699280    0.07000000    0.09000000
   18.31250000  139.02699280    0.07000000    0.09000000
   18.31666756  153.08900452    0.07000000    0.09000000
   18.31972313  164.65899658    0.07000000    0.09000000
   18.32305717  164.99000549    0.07000000    0.09000000
   18.32611275  166.85000610    0.07000000    0.09000000
   18.32944489  188.56799316    0.07000000    0.09000000
   18.33250046  193.79299927    0.07000000    0.09000000
   18.33583450  171.68099976    0.07000000    0.09000000
   18.33889008  172.41099548    0.07000000    0.09000000
   18.34222221  171.88499451    0.07000000    0.09000000
   18.34555626  158.90800476    0.07000000    0.09000000
   18.34583473  182.99699402    0.07000000    0.09000000
   18.34889030  168.13900757    0.07000000    0.09000000
   18.35222244  162.39100647    0.07000000    0.09000000
   18.35527802  152.51300049    0.07000000    0.09000000
   18.35861206  165.50999451    0.07000000    0.09000000
   18.36388969  165.50999451    0.07000000    0.09000000
   18.36777878  160.21000671    0.07000000    0.09000000
   18.37111092  162.78399658    0.07000000    0.09000000
   18.37416649  180.87500000    0.07000000    0.09000000
   18.37750053  165.05200195    0.07000000    0.09000000
   18.38055611  144.07099915    0.07000000    0.09000000
   18.38388824  182.18899536    0.07000000    0.09000000
   18.38694382  160.34100342    0.07000000    0.09000000
   18.39027786  190.06300354    0.07000000    0.09000000
   18.39333344  178.98699951    0.07000000    0.09000000
   18.39555550  150.02200317    0.07000000    0.09000000
   18.39694405  175.74299622    0.07000000    0.09000000
   18.40027809  141.86799622    0.07000000    0.09000000
   18.40333366  162.22599792    0.07000000    0.09000000
   18.40666580  186.04899597    0.07000000    0.09000000
   18.40972137  163.32800293    0.07000000    0.09000000
   18.41499901  163.32800293    0.07000000    0.09000000
   18.41888809  181.59500122    0.07000000    0.09000000
   18.42222214  168.21800232    0.07000000    0.09000000
   18.42527771  169.27099609    0.07000000    0.09000000
   18.42860985  179.66000366    0.07000000    0.09000000
   18.43166542  186.20799255    0.07000000    0.09000000
   18.43499947  165.89999390    0.07000000    0.09000000
   18.43805504  171.24800110    0.07000000    0.09000000
   18.44138718  166.18099976    0.07000000    0.09000000
   18.44444275  178.03500366    0.07000000    0.09000000
   18.44555473  172.16299438    0.07000000    0.09000000
   18.44805527  168.21200562    0.07000000    0.09000000
   18.45138931  167.69000244    0.07000000    0.09000000
   18.45444489  162.26600647    0.07000000    0.09000000
   18.45777893  163.13900757    0.07000000    0.09000000
   18.46083450  169.57899475    0.07000000    0.09000000
   18.46611214  169.57899475    0.07000000    0.09000000
   18.47027779  146.07400513    0.07000000    0.09000000
   18.47333336  163.34800720    0.07000000    0.09000000
   18.47666740  161.82800293    0.07000000    0.09000000
   18.47972298  155.88999939    0.07000000    0.09000000
   18.48305511  167.68899536    0.07000000    0.09000000
   18.48611069  147.96099854    0.07000000    0.09000000
   18.48944473  138.59700012    0.07000000    0.09000000
   18.49250031  143.47700500    0.07000000    0.09000000
   18.49555588  141.13000488    0.07000000    0.09000000
   18.49611092  150.45300293    0.07000000    0.09000000
   18.49944496  152.03199768    0.07000000    0.09000000
   18.50250053  157.16299438    0.07000000    0.09000000
   18.50583267  141.21899414    0.07000000    0.09000000
   18.50888824  164.00999451    0.07000000    0.09000000
   18.51222229  156.18499756    0.07000000    0.09000000
   18.51722145  156.18499756    0.07000000    0.09000000
   18.52138901  174.95199585    0.07000000    0.09000000
   18.52472115  161.90400696    0.07000000    0.09000000
   18.52777672  149.93899536    0.07000000    0.09000000
   18.53111076  159.52299500    0.07000000    0.09000000
   18.53416634  153.32400513    0.07000000    0.09000000
   18.53750038  184.26499939    0.07000000    0.09000000
   18.54055595  179.10499573    0.07000000    0.09000000
   18.54388809  168.14900208    0.07000000    0.09000000
   18.54555511  167.16299438    0.07000000    0.09000000
   18.54722214  189.58000183    0.07000000    0.09000000
   18.55055428  180.08599854    0.07000000    0.09000000
   18.55360985  171.18200684    0.07000000    0.09000000
   18.55694389  186.66499329    0.07000000    0.09000000
   18.55999947  193.05999756    0.07000000    0.09000000
   18.56333351  181.98599243    0.07000000    0.09000000
   18.56861115  181.98599243    0.07000000    0.09000000
   18.57250023  186.52499390    0.07000000    0.09000000
   18.57583427  184.94400024    0.07000000    0.09000000
   18.57888985  181.82800293    0.07000000    0.09000000
   18.58222389  171.50399780    0.07000000    0.09000000
   18.58527756  176.06700134    0.07000000    0.09000000
   18.58861160  182.76800537    0.07000000    0.09000000
   18.59166718  190.16099548    0.07000000    0.09000000
   18.59500122  183.14500427    0.07000000    0.09000000
   18.59555626  179.24600220    0.07000000    0.09000000
   18.59833336  180.52200317    0.07000000    0.09000000
   18.60166740  181.76199341    0.07000000    0.09000000
   18.60472298  174.92300415    0.07000000    0.09000000
   18.60805511  181.82600403    0.07000000    0.09000000
   18.61111069  172.67199707    0.07000000    0.09000000
   18.61444473  183.77400208    0.07000000    0.09000000
   18.61972237  183.77400208    0.07000000    0.09000000
   18.62388992  168.98399353    0.07000000    0.09000000
   18.62694550  171.95199585    0.07000000    0.09000000
   18.63027763  171.46600342    0.07000000    0.09000000
   18.63333321  167.61500549    0.07000000    0.09000000
   18.63666725  151.34700012    0.07000000    0.09000000
   18.63972282  148.42599487    0.07000000    0.09000000
   18.64305496  155.20399475    0.07000000    0.09000000
   18.64555550  148.56300354    0.07000000    0.09000000
   18.64638901  154.06700134    0.07000000    0.09000000
   18.64972115  135.50399780    0.07000000    0.09000000
   18.65277672  132.69700623    0.07000000    0.09000000
   18.65611076  154.38099670    0.07000000    0.09000000
   18.65916634  147.49600220    0.07000000    0.09000000
   18.66250038  171.83000183    0.07000000    0.09000000
   18.66555595  159.84399414    0.07000000    0.09000000
   18.67083359  159.84399414    0.07000000    0.09000000
   18.67499924  153.05499268    0.07000000    0.09000000
   18.67805481  153.93800354    0.07000000    0.09000000
   18.68138885  154.36300659    0.07000000    0.09000000
   18.68444443  172.75100708    0.07000000    0.09000000
   18.68777657  169.09100342    0.07000000    0.09000000
   18.69083214  141.08799744    0.07000000    0.09000000
   18.69416618  142.99600220    0.07000000    0.09000000
   18.69555473  136.35400391    0.07000000    0.09000000
   18.69749832  132.42599487    0.07000000    0.09000000
   18.70083427  135.23100281    0.07000000    0.09000000
   18.70388985  130.27400208    0.07000000    0.09000000
   18.70722389  136.99800110    0.07000000    0.09000000
   18.71027946  139.49499512    0.07000000    0.09000000
   18.71361160  128.51400757    0.07000000    0.09000000
   18.71666718  134.02999878    0.07000000    0.09000000
   18.72194481  134.02999878    0.07000000    0.09000000
   18.72611237  151.05599976    0.07000000    0.09000000
   18.72944450  144.81599426    0.07000000    0.09000000
   18.73250008  163.91999817    0.07000000    0.09000000
   18.73583412  140.57600403    0.07000000    0.09000000
   18.73888969  162.71099854    0.07000000    0.09000000
   18.74222183  140.10099792    0.07000000    0.09000000
   18.74527740  152.85899353    0.07000000    0.09000000
   18.74583435  147.39100647    0.07000000    0.09000000
   18.74888992  128.75500488    0.07000000    0.09000000
   18.75222206  146.47099304    0.07000000    0.09000000
   18.75527763  158.47000122    0.07000000    0.09000000
   18.75861168  155.19900513    0.07000000    0.09000000
   18.76166725  146.88099670    0.07000000    0.09000000
   18.76499939  150.13999939    0.07000000    0.09000000
   18.76805496  156.27400208    0.07000000    0.09000000
   18.77333260  156.27400208    0.07000000    0.09000000
   18.77722168  157.61199951    0.07000000    0.09000000
   18.78055573  154.45199585    0.07000000    0.09000000
   18.78361130  145.70399475    0.07000000    0.09000000
   18.78694344  144.68200684    0.07000000    0.09000000
   18.78999901  148.15699768    0.07000000    0.09000000
   18.79333305  140.01400757    0.07000000    0.09000000
   18.79583359  153.88400269    0.07000000    0.09000000
   18.79666710  147.49000549    0.07000000    0.09000000
   18.79999924  143.81700134    0.07000000    0.09000000
   18.80305481  157.44299316    0.07000000    0.09000000
   18.80638885  170.02200317    0.07000000    0.09000000
   18.80944443  162.26300049    0.07000000    0.09000000
   18.81277657  155.19700623    0.07000000    0.09000000
   18.81583214  160.06599426    0.07000000    0.09000000
   18.81916809  149.08999634    0.07000000    0.09000000
   18.82444572  149.08999634    0.07000000    0.09000000
   18.82861137  157.52699280    0.07000000    0.09000000
   18.83166695  146.15699768    0.07000000    0.09000000
   18.83500099  167.47999573    0.07000000    0.09000000
   18.83805656  174.25900269    0.07000000    0.09000000
   18.84138870  168.93299866    0.07000000    0.09000000
   18.84444427  175.34899902    0.07000000    0.09000000
   18.84583473  170.35299683    0.07000000    0.09000000
   18.84805679  164.04299927    0.07000000    0.09000000
   18.85111237  154.19099426    0.07000000    0.09000000
   18.85444450  158.32299805    0.07000000    0.09000000
   18.85750008  168.47700500    0.07000000    0.09000000
   18.86083412  158.21200562    0.07000000    0.09000000
   18.86388969  150.50300598    0.07000000    0.09000000
   18.86722183  156.24400330    0.07000000    0.09000000
   18.87027740  167.94500732    0.07000000    0.09000000
   18.87555504  167.94500732    0.07000000    0.09000000
   18.87972260  158.78300476    0.07000000    0.09000000
   18.88277817  150.36599731    0.07000000    0.09000000
   18.88611031  143.13800049    0.07000000    0.09000000
   18.88916588  147.86799622    0.07000000    0.09000000
   18.89249992  140.44400024    0.07000000    0.09000000
   18.89555550  146.94999695    0.07000000    0.09000000
   18.89611053  141.02799988    0.07000000    0.09000000
   18.89944458  152.86099243    0.07000000    0.09000000
   18.90250015  144.75199890    0.07000000    0.09000000
   18.90583229  140.38099670    0.07000000    0.09000000
   18.90888786  155.93400574    0.07000000    0.09000000
   18.91222191  164.48399353    0.07000000    0.09000000
   18.91527748  160.19500732    0.07000000    0.09000000
   18.91860962  147.69400024    0.07000000    0.09000000
   18.92166519  154.98100281    0.07000000    0.09000000
   18.92666626  154.98100281    0.07000000    0.09000000
   18.93083191  171.34300232    0.07000000    0.09000000
   18.93416595  162.17799377    0.07000000    0.09000000
   18.93722153  154.66999817    0.07000000    0.09000000
   18.94055557  151.00500488    0.07000000    0.09000000
   18.94361115  156.58500671    0.07000000    0.09000000
   18.94610977  164.56700134    0.07000000    0.09000000
   18.94749832  167.39799500    0.07000000    0.09000000
   18.95055580  152.25599670    0.07000000    0.09000000
   18.95388985  140.66000366    0.07000000    0.09000000
   18.95694542  144.57000732    0.07000000    0.09000000
   18.96027946  162.48100281    0.07000000    0.09000000
   18.96333504  139.50000000    0.07000000    0.09000000
   18.96638870  141.96899414    0.07000000    0.09000000
   18.96972275  148.75300598    0.07000000    0.09000000
   18.97277832  140.24299622    0.07000000    0.09000000
   18.97805595  140.24299622    0.07000000    0.09000000
   18.98194504  132.40899658    0.07000000    0.09000000
   18.98527718  150.52799988    0.07000000    0.09000000
   18.98833275  162.23800659    0.07000000    0.09000000
   18.99166679  165.92799377    0.07000000    0.09000000
   18.99472237  154.53599548    0.07000000    0.09000000
   18.99611092  165.62300110    0.07000000    0.09000000
   18.99833298  157.30799866    0.07000000    0.09000000
   19.00138855  151.44799805    0.07000000    0.09000000
   19.00472260  158.97500610    0.07000000    0.09000000
   19.00777817  156.13400269    0.07000000    0.09000000
   19.01111031  142.49299622    0.07000000    0.09000000
   19.01416588  137.99600220    0.07000000    0.09000000
   19.01749992  156.00100708    0.07000000    0.09000000
   19.02055550  149.60899353    0.07000000    0.09000000
   19.02388954  138.86300659    0.07000000    0.09000000
   19.02916718  138.86300659    0.07000000    0.09000000
   19.03305435  151.88400269    0.07000000    0.09000000
   19.03638840  147.07400513    0.07000000    0.09000000
   19.03944397  150.96499634    0.07000000    0.09000000
   19.04277802  134.10099792    0.07000000    0.09000000
   19.04583359  138.52900696    0.07000000    0.09000000
   19.04638863  132.30700684    0.07000000    0.09000000
   19.04972076  136.51899719    0.07000000    0.09000000
   19.05277634  132.52499390    0.07000000    0.09000000
   19.05611038  129.92799377    0.07000000    0.09000000
   19.05916595  132.14799500    0.07000000    0.09000000
   19.06250000  139.48399353    0.07000000    0.09000000
   19.06555557  135.24299622    0.07000000    0.09000000
   19.06888962  139.33200073    0.07000000    0.09000000
   19.07194519  137.71699524    0.07000000    0.09000000
   19.07527924  128.13400269    0.07000000    0.09000000
   19.08027840  128.13400269    0.07000000    0.09000000
   19.08444595  120.79499817    0.07000000    0.09000000
   19.08750153  137.00900269    0.07000000    0.09000000
   19.09083366  155.77299500    0.07000000    0.09000000
   19.09388924  144.06500244    0.07000000    0.09000000
   19.09638977  145.83700562    0.07000000    0.09000000
   19.09749985  154.50399780    0.07000000    0.09000000
   19.10055542  147.48100281    0.07000000    0.09000000
   19.10388947  141.09800720    0.07000000    0.09000000
   19.10694504  141.74299622    0.07000000    0.09000000
   19.11027908  133.29499817    0.07000000    0.09000000
   19.11333466  170.55099487    0.07000000    0.09000000
   19.11666679  150.51899719    0.07000000    0.09000000
   19.11972237  132.35000610    0.07000000    0.09000000
   19.12305641  152.05900574    0.07000000    0.09000000
   19.12611198  146.25900269    0.07000000    0.09000000
   19.13138962  146.25900269    0.07000000    0.09000000
   19.13555527  133.05299377    0.07000000    0.09000000
   19.13861084  132.49000549    0.07000000    0.09000000
   19.14194489  124.73600006    0.07000000    0.09000000
   19.14527702  123.33300018    0.07000000    0.09000000
   19.14666748  128.28999329    0.07000000    0.09000000
   19.14888954  119.53600311    0.07000000    0.09000000
   19.15194321  101.94000244    0.07000000    0.09000000
   19.15527725  115.06600189    0.07000000    0.09000000
   19.15833282  129.19299316    0.07000000    0.09000000
   19.16166687  121.50800323    0.07000000    0.09000000
   19.16472244  114.48300171    0.07000000    0.09000000
   19.16805458  125.13300323    0.07000000    0.09000000
   19.17111015  124.67299652    0.07000000    0.09000000
   19.17444420  137.29499817    0.07000000    0.09000000
   19.17749977  144.04299927    0.07000000    0.09000000
   19.18277740  144.04299927    0.07000000    0.09000000
   19.18666649  134.20700073    0.07000000    0.09000000
   19.18999863  136.15899658    0.07000000    0.09000000
   19.19305420  136.93200684    0.07000000    0.09000000
   19.19610977  141.99499512    0.07000000    0.09000000
   19.19666672  138.54100037    0.07000000    0.09000000
   19.19972038  149.77699280    0.07000000    0.09000000
   19.20277786  140.97799683    0.07000000    0.09000000
   19.20611191  151.15499878    0.07000000    0.09000000
   19.20916748  141.38400269    0.07000000    0.09000000
   19.21222305  142.82200623    0.07000000    0.09000000
   19.21555710  137.29499817    0.07000000    0.09000000
   19.21861076  134.09700012    0.07000000    0.09000000
   19.22194481  150.57000732    0.07000000    0.09000000
   19.22500038  163.18200684    0.07000000    0.09000000
   19.22805595  133.68400574    0.07000000    0.09000000
   19.23388863  133.68400574    0.07000000    0.09000000
   19.23777771  137.25599670    0.07000000    0.09000000
   19.24111176  133.75000000    0.07000000    0.09000000
   19.24416733  147.12500000    0.07000000    0.09000000
   19.24666786  152.97399902    0.07000000    0.09000000
   19.24777794  164.00999451    0.07000000    0.09000000
   19.25083351  156.80799866    0.07000000    0.09000000
   19.25416756  135.44099426    0.07000000    0.09000000
   19.25722313  154.09800720    0.07000000    0.09000000
   19.26027870  134.94400024    0.07000000    0.09000000
   19.26361084  153.46099854    0.07000000    0.09000000
   19.26666641  160.62899780    0.07000000    0.09000000
   19.27000046  144.72900391    0.07000000    0.09000000
   19.27305603  147.88600159    0.07000000    0.09000000
   19.27638817  149.13999939    0.07000000    0.09000000
   19.27944374  144.76300049    0.07000000    0.09000000
   19.28499985  144.76300049    0.07000000    0.09000000
   19.28916550  146.45500183    0.07000000    0.09000000
   19.29222107  143.21200562    0.07000000    0.09000000
   19.29555511  152.40299988    0.07000000    0.09000000
   19.31250000  153.99800110    0.07000000    0.09000000
   19.31527710  140.63600159    0.07000000    0.09000000
   19.31861115  144.81900024    0.07000000    0.09000000
   19.32166672  140.89900208    0.07000000    0.09000000
   19.32500076  149.23100281    0.07000000    0.09000000
   19.32805634  149.04699707    0.07000000    0.09000000
   19.33139038  123.13700104    0.07000000    0.09000000
   19.33638954  123.13700104    0.07000000    0.09000000
   19.34027863  145.25799561    0.07000000    0.09000000
   19.34361267  135.94999695    0.07000000    0.09000000
   19.34666824  134.01100159    0.07000000    0.09000000
   19.35000038  135.94500732    0.07000000    0.09000000
   19.35305595  125.18800354    0.07000000    0.09000000
   19.35639000  137.85600281    0.07000000    0.09000000
   19.35944557  132.58099365    0.07000000    0.09000000
   19.36250114  130.16200256    0.07000000    0.09000000
   19.36305618  135.63800049    0.07000000    0.09000000
   19.36638832  133.66799927    0.07000000    0.09000000
   19.36944389  139.44700623    0.07000000    0.09000000
   19.37277794  147.13800049    0.07000000    0.09000000
   19.37583351  137.25100708    0.07000000    0.09000000
   19.37916756  132.81100464    0.07000000    0.09000000
   19.38222313  137.55999756    0.07000000    0.09000000
   19.38750076  137.55999756    0.07000000    0.09000000
   19.39138794  153.98500061    0.07000000    0.09000000
   19.39472198  143.76499939    0.07000000    0.09000000
   19.39777756  144.49299622    0.07000000    0.09000000
   19.40111160  142.11399841    0.07000000    0.09000000
   19.40416718  144.67599487    0.07000000    0.09000000
   19.40749931  150.72399902    0.07000000    0.09000000
   19.41055489  146.81900024    0.07000000    0.09000000
   19.41250038  155.73399353    0.07000000    0.09000000
   19.41416550  152.00799561    0.07000000    0.09000000
   19.41749954  146.59199524    0.07000000    0.09000000
   19.42055511  166.82400513    0.07000000    0.09000000
   19.42388916  157.17300415    0.07000000    0.09000000
   19.42694473  162.96899414    0.07000000    0.09000000
   19.43027687  152.56199646    0.07000000    0.09000000
   19.43333244  160.19099426    0.07000000    0.09000000
   19.43861008  160.19099426    0.07000000    0.09000000
   19.44277763  155.38600159    0.07000000    0.09000000
   19.44583321  150.22399902    0.07000000    0.09000000
   19.44916534  138.75100708    0.07000000    0.09000000
   19.45222282  153.42799377    0.07000000    0.09000000
   19.45555687  146.10499573    0.07000000    0.09000000
   19.45861244  155.06799316    0.07000000    0.09000000
   19.46194458  167.62800598    0.07000000    0.09000000
   19.46250153  152.49699402    0.07000000    0.09000000
   19.46527863  149.60299683    0.07000000    0.09000000
   19.46861076  173.07899475    0.07000000    0.09000000
   19.47166634  155.79400635    0.07000000    0.09000000
   19.47500038  151.68400574    0.07000000    0.09000000
   19.47805595  172.01300049    0.07000000    0.09000000
   19.48139000  168.49099731    0.07000000    0.09000000
   19.48444557  169.23899841    0.07000000    0.09000000
   19.48972321  169.23899841    0.07000000    0.09000000
   19.49388885  179.70899963    0.07000000    0.09000000
   19.49694443  173.90400696    0.07000000    0.09000000
   19.50027847  172.93499756    0.07000000    0.09000000
   19.50333405  177.91499329    0.07000000    0.09000000
   19.50666618  182.53399658    0.07000000    0.09000000
   19.50972176  196.16799927    0.07000000    0.09000000
   19.51250076  188.66700745    0.07000000    0.09000000
   19.51333427  179.21099854    0.07000000    0.09000000
   19.51666641  199.52799988    0.07000000    0.09000000
   19.51972198  185.40299988    0.07000000    0.09000000
   19.52305603  176.85800171    0.07000000    0.09000000
   19.52611160  193.11900330    0.07000000    0.09000000
   19.52944374  165.92900085    0.07000000    0.09000000
   19.53249931  182.61700439    0.07000000    0.09000000
   19.53583336  161.27200317    0.07000000    0.09000000
   19.54083252  161.27200317    0.07000000    0.09000000
   19.54500008  161.63099670    0.07000000    0.09000000
   19.54833221  181.43800354    0.07000000    0.09000000
   19.55138779  176.15800476    0.07000000    0.09000000
   19.55472183  158.12500000    0.07000000    0.09000000
   19.55777740  165.04499817    0.07000000    0.09000000
   19.56110954  172.89399719    0.07000000    0.09000000
   19.56250000  168.50700378    0.07000000    0.09000000
   19.56444359  183.12300110    0.07000000    0.09000000
   19.56777954  177.96200562    0.07000000    0.09000000
   19.57083511  166.71699524    0.07000000    0.09000000
   19.57416725  152.54400635    0.07000000    0.09000000
   19.57722282  171.45300293    0.07000000    0.09000000
   19.58055687  164.77200317    0.07000000    0.09000000
   19.58361244  168.59199524    0.07000000    0.09000000
   19.58694458  168.02699280    0.07000000    0.09000000
   19.59222221  168.02699280    0.07000000    0.09000000
   19.59611130  155.86399841    0.07000000    0.09000000
   19.59944534  157.57000732    0.07000000    0.09000000
   19.60250092  165.71899414    0.07000000    0.09000000
   19.60583305  164.86700439    0.07000000    0.09000000
   19.60888863  174.36000061    0.07000000    0.09000000
   19.61222267  174.36300659    0.07000000    0.09000000
   19.61277771  174.23500061    0.07000000    0.09000000
   19.61583328  177.44700623    0.07000000    0.09000000
   19.61916733  186.16299438    0.07000000    0.09000000
   19.62222290  170.84199524    0.07000000    0.09000000
   19.62555504  149.12800598    0.07000000    0.09000000
   19.62861061  166.61599731    0.07000000    0.09000000
   19.63194466  155.09800720    0.07000000    0.09000000
   19.63500023  156.69200134    0.07000000    0.09000000
   19.63833237  168.37399292    0.07000000    0.09000000
   19.64333344  168.37399292    0.07000000    0.09000000
   19.64749908  185.25799561    0.07000000    0.09000000
   19.65055466  168.45100403    0.07000000    0.09000000
   19.65388870  176.38999939    0.07000000    0.09000000
   19.65694427  160.37899780    0.07000000    0.09000000
   19.66027832  153.09599304    0.07000000    0.09000000
   19.66277695  158.06100464    0.07000000    0.09000000
   19.66361046  195.87300110    0.07000000    0.09000000
   19.66694450  185.20700073    0.07000000    0.09000000
   19.67000008  169.05200195    0.07000000    0.09000000
   19.67333221  160.38499451    0.07000000    0.09000000
   19.67638779  190.67199707    0.07000000    0.09000000
   19.67972183  167.07099915    0.07000000    0.09000000
   19.68277740  157.08500671    0.07000000    0.09000000
   19.68610954  179.14700317    0.07000000    0.09000000
   19.68916512  197.29200745    0.07000000    0.09000000
   19.69444275  197.29200745    0.07000000    0.09000000
   19.69861031  197.02400208    0.07000000    0.09000000
   19.70166779  204.18400574    0.07000000    0.09000000
   19.70499992  194.38999939    0.07000000    0.09000000
   19.70805550  172.76600647    0.07000000    0.09000000
   19.71138954  203.95399475    0.07000000    0.09000000
   19.71277809  197.75500488    0.07000000    0.09000000
   19.71472359  174.96499634    0.07000000    0.09000000
   19.71805573  204.42799377    0.07000000    0.09000000
   19.72111130  204.82899475    0.07000000    0.09000000
   19.72444534  201.53199768    0.07000000    0.09000000
   19.72750092  204.25300598    0.07000000    0.09000000
   19.73083305  200.41499329    0.07000000    0.09000000
   19.73388863  208.35200500    0.07000000    0.09000000
   19.73722267  209.35600281    0.07000000    0.09000000
   19.74027824  202.86099243    0.07000000    0.09000000
   19.74555588  202.86099243    0.07000000    0.09000000
   19.74972153  211.86399841    0.07000000    0.09000000
   19.75305557  190.70599365    0.07000000    0.09000000
   19.75611115  197.31300354    0.07000000    0.09000000
   19.75944519  212.79600525    0.07000000    0.09000000
   19.76250076  228.05999756    0.07000000    0.09000000
   19.76305580  220.63299561    0.07000000    0.09000000
   19.76611137  207.57699585    0.07000000    0.09000000
   19.76944351  209.94900513    0.07000000    0.09000000
   19.77249908  206.40899658    0.07000000    0.09000000
   19.77583313  193.21800232    0.07000000    0.09000000
   19.77888870  185.81500244    0.07000000    0.09000000
   19.78222275  187.75000000    0.07000000    0.09000000
   19.78527641  208.52699280    0.07000000    0.09000000
   19.78861046  206.87800598    0.07000000    0.09000000
   19.79166603  185.63900757    0.07000000    0.09000000
   19.79694366  185.63900757    0.07000000    0.09000000
   19.80083275  188.28599548    0.07000000    0.09000000
   19.80416679  208.75199890    0.07000000    0.09000000
   19.80722237  195.24899292    0.07000000    0.09000000
   19.81055450  197.69799805    0.07000000    0.09000000
   19.81305504  215.87800598    0.07000000    0.09000000
   19.81388855  185.35299683    0.07000000    0.09000000
   19.81722260  196.06900024    0.07000000    0.09000000
   19.82027817  215.09899902    0.07000000    0.09000000
   19.82361221  213.74400330    0.07000000    0.09000000
   19.82666779  220.77099609    0.07000000    0.09000000
   19.83000183  222.62100220    0.07000000    0.09000000
   19.83305550  215.15499878    0.07000000    0.09000000
   19.83638954  241.73599243    0.07000000    0.09000000
   19.83944511  216.06300354    0.07000000    0.09000000
   19.84277916  237.34500122    0.07000000    0.09000000
   19.84805679  237.34500122    0.07000000    0.09000000
   19.85222244  224.69200134    0.07000000    0.09000000
   19.85527802  224.38400269    0.07000000    0.09000000
   19.85861206  225.22799683    0.07000000    0.09000000
   19.86166763  234.05499268    0.07000000    0.09000000
   19.86333466  217.17999268    0.07000000    0.09000000
   19.86527824  225.16999817    0.07000000    0.09000000
   19.86861038  182.83700562    0.07000000    0.09000000
   19.87166595  206.75399780    0.07000000    0.09000000
   19.87500000  194.41700745    0.07000000    0.09000000
   19.87805557  191.77900696    0.07000000    0.09000000
   19.88138962  229.43200684    0.07000000    0.09000000
   19.88444519  195.78100586    0.07000000    0.09000000
   19.88777733  225.32600403    0.07000000    0.09000000
   19.89083290  228.18200684    0.07000000    0.09000000
   19.89416695  228.69700623    0.07000000    0.09000000
   19.89916611  228.69700623    0.07000000    0.09000000
   19.90333366  216.61199951    0.07000000    0.09000000
   19.90638924  203.89500427    0.07000000    0.09000000
   19.90972137  194.33099365    0.07000000    0.09000000
   19.91277695  226.26899719    0.07000000    0.09000000
   19.91361046  217.22200012    0.07000000    0.09000000
   19.91638756  186.98100281    0.07000000    0.09000000
   19.91972160  232.80000305    0.07000000    0.09000000
   19.92277718  195.96000671    0.07000000    0.09000000
   19.92611122  223.52999878    0.07000000    0.09000000
   19.92916679  209.95100403    0.07000000    0.09000000
   19.93249893  166.44400024    0.07000000    0.09000000
   19.93555450  192.95899963    0.07000000    0.09000000
   19.93888855  209.44799805    0.07000000    0.09000000
   19.94194412  190.75999451    0.07000000    0.09000000
   19.94527626  183.37500000    0.07000000    0.09000000
   19.95027924  183.37500000    0.07000000    0.09000000
   19.95444489  196.13800049    0.07000000    0.09000000
   19.95777893  177.55200195    0.07000000    0.09000000
   19.96083450  165.00599670    0.07000000    0.09000000
   19.96361160  201.11500549    0.07000000    0.09000000
   19.96444511  200.95300293    0.07000000    0.09000000
   19.96777916  192.21600342    0.07000000    0.09000000
   19.97083473  197.44500732    0.07000000    0.09000000
   19.97416687  194.21200562    0.07000000    0.09000000
   19.97722244  175.37800598    0.07000000    0.09000000
   19.98055649  176.68400574    0.07000000    0.09000000
   19.98361206  198.63900757    0.07000000    0.09000000
   19.98694420  198.07499695    0.07000000    0.09000000
   19.98999977  190.82200623    0.07000000    0.09000000
   19.99333382  183.82800293    0.07000000    0.09000000
   19.99638939  171.93499756    0.07000000    0.09000000
   20.00166702  171.93499756    0.07000000    0.09000000
   20.00555611  181.03100586    0.07000000    0.09000000
   20.00888824  193.83900452    0.07000000    0.09000000
   20.01194382  210.60800171    0.07000000    0.09000000
   20.01361084  177.14300537    0.07000000    0.09000000
   20.01555634  176.85299683    0.07000000    0.09000000
   20.01888847  204.09500122    0.07000000    0.09000000
   20.02194405  209.16099548    0.07000000    0.09000000
   20.02527809  213.82800293    0.07000000    0.09000000
   20.02833366  200.64999390    0.07000000    0.09000000
   20.03166580  212.18499756    0.07000000    0.09000000
   20.03472137  194.07299805    0.07000000    0.09000000
   20.03805542  171.89799500    0.07000000    0.09000000
   20.04111099  193.06900024    0.07000000    0.09000000
   20.04444313  188.61199951    0.07000000    0.09000000
   20.04749870  200.92999268    0.07000000    0.09000000
   20.05277634  200.92999268    0.07000000    0.09000000
   20.05694389  198.37699890    0.07000000    0.09000000
   20.05999947  177.52299500    0.07000000    0.09000000
   20.06333351  204.08200073    0.07000000    0.09000000
   20.06361008  186.63099670    0.07000000    0.09000000
   20.06666756  204.96099854    0.07000000    0.09000000
   20.06972313  193.53900146    0.07000000    0.09000000
   20.07305717  200.45100403    0.07000000    0.09000000
   20.07611275  209.73100281    0.07000000    0.09000000
   20.07944489  194.31799316    0.07000000    0.09000000
   20.08250046  184.97399902    0.07000000    0.09000000
   20.08583450  198.24099731    0.07000000    0.09000000
   20.08889008  155.61999512    0.07000000    0.09000000
   20.09222221  203.70399475    0.07000000    0.09000000
   20.09527779  193.22599792    0.07000000    0.09000000
   20.09861183  187.69900513    0.07000000    0.09000000
   20.10388947  187.69900513    0.07000000    0.09000000
   20.10805511  189.66099548    0.07000000    0.09000000
   20.11111069  193.72599792    0.07000000    0.09000000
   20.11361122  197.42500305    0.07000000    0.09000000
   20.11472321  168.39799500    0.07000000    0.09000000
   20.11777878  178.85800171    0.07000000    0.09000000
   20.12111092  184.74099731    0.07000000    0.09000000
   20.12416649  160.65199280    0.07000000    0.09000000
   20.12750053  178.12300110    0.07000000    0.09000000
   20.13055611  199.44000244    0.07000000    0.09000000
   20.13388824  186.09700012    0.07000000    0.09000000
   20.13694382  180.50500488    0.07000000    0.09000000
   20.14027786  205.50900269    0.07000000    0.09000000
   20.14333344  181.46800232    0.07000000    0.09000000
   20.14666748  185.31799316    0.07000000    0.09000000
   20.14972115  171.28300476    0.07000000    0.09000000
   20.15499878  171.28300476    0.07000000    0.09000000
   20.15916634  173.22200012    0.07000000    0.09000000
   20.16250038  164.45399475    0.07000000    0.09000000
   20.16361046  160.48599243    0.07000000    0.09000000
   20.16583252  171.50000000    0.07000000    0.09000000
   20.16888809  168.14300537    0.07000000    0.09000000
   20.17222214  152.70700073    0.07000000    0.09000000
   20.17527771  157.21600342    0.07000000    0.09000000
   20.17860985  155.19299316    0.07000000    0.09000000
   20.18166542  169.80000305    0.07000000    0.09000000
   20.18499947  149.07299805    0.07000000    0.09000000
   20.18805504  160.10899353    0.07000000    0.09000000
   20.19138718  156.14399719    0.07000000    0.09000000
   20.19444275  139.59300232    0.07000000    0.09000000
   20.19777679  162.27600098    0.07000000    0.09000000
   20.20083427  158.10600281    0.07000000    0.09000000
   20.20639038  158.10600281    0.07000000    0.09000000
   20.21027946  139.00799561    0.07000000    0.09000000
   20.21361160  160.52200317    0.07000000    0.09000000
   20.21416664  157.38200378    0.07000000    0.09000000
   20.21722221  155.14700317    0.07000000    0.09000000
   20.22055626  148.39100647    0.07000000    0.09000000
   20.22361183  159.18400574    0.07000000    0.09000000
   20.22694588  143.37199402    0.07000000    0.09000000
   20.23000145  156.91499329    0.07000000    0.09000000
   20.23333359  157.92300415    0.07000000    0.09000000
   20.23638916  163.90600586    0.07000000    0.09000000
   20.23972321  155.61399841    0.07000000    0.09000000
   20.24277878  131.67799377    0.07000000    0.09000000
   20.24611092  142.08799744    0.07000000    0.09000000
   20.24916649  156.30799866    0.07000000    0.09000000
   20.25250053  149.59199524    0.07000000    0.09000000
   20.25749969  149.59199524    0.07000000    0.09000000
   20.26138878  143.51300049    0.07000000    0.09000000
   20.26416588  155.29699707    0.07000000    0.09000000
   20.26499939  162.78999329    0.07000000    0.09000000
   20.26833344  152.08599854    0.07000000    0.09000000
   20.27138901  171.33200073    0.07000000    0.09000000
   20.27472115  136.14999390    0.07000000    0.09000000
   20.27777672  158.45700073    0.07000000    0.09000000
   20.28111076  160.17700195    0.07000000    0.09000000
   20.28416634  157.00199890    0.07000000    0.09000000
   20.28750038  173.39599609    0.07000000    0.09000000
   20.29055595  144.63200378    0.07000000    0.09000000
   20.29388809  165.63299561    0.07000000    0.09000000
   20.29694366  169.94700623    0.07000000    0.09000000
   20.30027771  176.98599243    0.07000000    0.09000000
   20.30333328  148.37899780    0.07000000    0.09000000
   20.30861092  148.37899780    0.07000000    0.09000000
   20.31277657  184.32400513    0.07000000    0.09000000
   20.32972336  186.09700012    0.07000000    0.09000000
   20.33250046  198.58700562    0.07000000    0.09000000
   20.33583450  186.16799927    0.07000000    0.09000000
   20.33889008  198.32000732    0.07000000    0.09000000
   20.34222221  196.86500549    0.07000000    0.09000000
   20.34527779  194.05499268    0.07000000    0.09000000
   20.34861183  206.60699463    0.07000000    0.09000000
   20.35166740  210.04200745    0.07000000    0.09000000
   20.35499954  192.50599670    0.07000000    0.09000000
   20.36000061  192.50599670    0.07000000    0.09000000
   20.36388969  213.18200684    0.07000000    0.09000000
   20.36722183  217.76400757    0.07000000    0.09000000
   20.37027740  224.49699402    0.07000000    0.09000000
   20.37361145  253.30900574    0.07000000    0.09000000
   20.37666702  260.98001099    0.07000000    0.09000000
   20.37972260  233.56399536    0.07000000    0.09000000
   20.38027763  231.90699768    0.07000000    0.09000000
   20.38361168  264.71499634    0.07000000    0.09000000
   20.38666725  220.66799927    0.07000000    0.09000000
   20.38999939  228.10200500    0.07000000    0.09000000
   20.39305496  245.69700623    0.07000000    0.09000000
   20.39638901  229.89999390    0.07000000    0.09000000
   20.39944458  219.38099670    0.07000000    0.09000000
   20.40277672  177.36999512    0.07000000    0.09000000
   20.40583229  237.99000549    0.07000000    0.09000000
   20.41110992  237.99000549    0.07000000    0.09000000
   20.41499901  199.70500183    0.07000000    0.09000000
   20.41833305  198.77000427    0.07000000    0.09000000
   20.42138863  251.69400024    0.07000000    0.09000000
   20.42472076  233.67100525    0.07000000    0.09000000
   20.42777634  242.47700500    0.07000000    0.09000000
   20.42972183  196.74299622    0.07000000    0.09000000
   20.43138885  236.95599365    0.07000000    0.09000000
   20.43472099  134.44000244    0.07000000    0.09000000
   20.43777657  239.38900757    0.07000000    0.09000000
