    HOUR (UT)   FLARE FACTOR    SKY TESTER    SUN TESTER
   11.25166702   -1.00000000   -1.00000000   -1.00000000
   11.29500008  167.74499512    4.90999985    2.48000002
   11.29944515  170.44700623    4.90999985    2.48000002
   11.30388927  158.97999573    4.90999985    2.48000002
   11.30722237  179.43600464    4.90999985    2.48000002
   11.31027794  176.48800659    4.90999985    2.48000002
   11.31361103  160.49699402    4.90999985    2.48000002
   11.31666660  149.64199829    4.90999985    2.48000002
   11.31999969  163.15299988    4.90999985    2.50000000
   11.32305527  162.35600281    4.90999985    2.48000002
   11.32638836  189.37500000    4.90999985    2.48000002
   11.32833290  243.78900146    4.90999985    2.42000008
   11.32999992  207.80499268    4.90999985    2.39000010
   11.33305550  169.27900696    4.90999985    2.40000010
   11.33638859  167.91200256    4.90999985    2.48000002
   11.33944416  169.10400391    4.90999985    2.48000002
   11.34249973  158.26400757    4.90999985    2.50000000
   11.34583282  150.50999451    4.90999985    2.50000000
   11.34916592  158.86199951    4.90999985    2.50000000
   11.35222244  148.68800354    4.90999985    2.50000000
   11.35555553  130.18600464    4.90999985    2.48000002
   11.35861111  149.29100037    4.90999985    2.50000000
   11.36194515  145.73699951    4.90999985    2.50000000
   11.36500072  128.47300720    4.90999985    2.50000000
   11.36833382  153.42399597    4.90999985    2.50000000
   11.37138939  164.17199707    4.90999985    2.50000000
   11.37472248  151.35499573    4.90999985    2.50000000
   11.37777805  147.31300354    4.90999985    2.51999998
   11.37833309  147.63900757    4.90999985    2.51999998
   11.38138866  146.64599609    4.90999985    2.50000000
   11.38444424  139.01300049    4.88999987    2.51999998
   11.38777733  150.29699707    4.84999990    2.50000000
   11.39083290  147.07899475    4.82999992    2.51999998
   11.39416695  138.64199829    4.80000019    2.51999998
   11.39722252  147.51100159    4.76000023    2.51999998
   11.40055561  135.19900513    4.73999977    2.51999998
   11.40361118  142.22200012    4.71999979    2.51999998
   11.40694427  144.09599304    4.69999981    2.51999998
   11.40999985  133.43400574    4.67999983    2.51999998
   11.41333294  133.99600220    4.67999983    2.51999998
   11.41638851  121.44799805    4.67999983    2.51999998
   11.41972256  134.08900452    4.67999983    2.51999998
   11.42277813  126.05200195    4.67999983    2.51999998
   11.42611122  148.11199951    4.65999985    2.51999998
   11.42833328  120.61100006    4.65999985    2.51999998
   11.42972279  137.72300720    4.65999985    2.51999998
   11.43277836  137.95500183    4.65999985    2.53999996
   11.43611145  121.26899719    4.67999983    2.51999998
   11.43916702  120.75000000    4.67999983    2.51999998
   11.44250011  145.46499634    4.69999981    2.51999998
   11.44555569  154.68600464    4.69999981    2.51999998
   11.44888878  128.46200562    4.67999983    2.51999998
   11.45194435  121.52100372    4.65999985    2.51999998
   11.45527744  129.17599487    4.65999985    2.51999998
   11.45833302  142.40199280    4.65999985    2.51999998
   11.46166611  153.80200195    4.65999985    2.53999996
   11.46472168  150.27200317    4.65999985    2.53999996
   11.46805477  150.37100220    4.65999985    2.53999996
   11.47138882  151.77699280    4.65999985    2.51999998
   11.47444439  142.03500366    4.65999985    2.53999996
   11.47777748  153.51699829    4.63999987    2.53999996
   11.47833252  131.38000488    4.63999987    2.53999996
   11.48166656  147.42999268    4.63999987    2.53999996
   11.48472214  148.31799316    4.63999987    2.53999996
   11.48805618  130.01400757    4.63999987    2.51999998
   11.49111176  113.62200165    4.63999987    2.53999996
   11.49444485  160.31399536    4.63999987    2.53999996
   11.49750042  138.65199280    4.61999989    2.53999996
   11.50083351  154.23599243    4.61999989    2.53999996
   11.50388908  121.79599762    4.63999987    2.53999996
   11.50722218  146.02999878    4.63999987    2.53999996
   11.51027775  140.34199524    4.61999989    2.53999996
   11.51361084  149.46800232    4.63999987    2.53999996
   11.51666641  130.64900208    4.63999987    2.53999996
   11.51999950  136.32600403    4.63999987    2.55999994
   11.52305508  141.40899658    4.63999987    2.53999996
   11.52611065  149.31399536    4.63999987    2.53999996
   11.52833271  143.16700745    4.61999989    2.53999996
   11.52972221  137.15400696    4.61999989    2.53999996
   11.53277779  129.15299988    4.61999989    2.55999994
   11.53583336  134.98300171    4.61999989    2.53999996
   11.53916740  153.61199951    4.61999989    2.53999996
   11.54250050  148.90400696    4.61999989    2.55999994
   11.54583359  155.65400696    4.59999990    2.55999994
   11.54916668  128.26499939    4.59999990    2.55999994
   11.55222225  149.38600159    4.59999990    2.55999994
   11.55555534  154.72200012    4.59999990    2.55999994
   11.55861092  151.33900452    4.57999992    2.55999994
   11.56194496  164.57200623    4.55999994    2.55999994
   11.56500053  154.86099243    4.55999994    2.55999994
   11.56805515  145.78900146    4.57999992    2.53999996
   11.57138920  167.95300293    4.53999996    2.55999994
   11.57472229  176.39199829    4.53999996    2.55999994
   11.57777786  161.10000610    4.53000021    2.55999994
   11.57833290  162.97500610    4.53000021    2.55999994
   11.58138847  155.77699280    4.53999996    2.55999994
   11.58444405  166.11300659    4.53000021    2.55999994
   11.58777714  165.61000061    4.51000023    2.55999994
   11.59138870  171.22500610    4.48999977    2.55999994
   11.59444427  173.36799622    4.46999979    2.55999994
   11.59777737  172.00399780    4.44999981    2.55999994
   11.60138893  181.81700134    4.44999981    2.55999994
   11.60444450  171.61599731    4.44999981    2.57999992
   11.60777855  157.07000732    4.42999983    2.57999992
   11.61083412  192.79800415    4.42999983    2.55999994
   11.61416721  189.97000122    4.42999983    2.55999994
   11.61722279  186.81399536    4.42999983    2.57999992
   11.62027836  171.00999451    4.40999985    2.57999992
   11.62361145  167.01300049    4.40999985    2.57999992
   11.62666702  172.89199829    4.38999987    2.57999992
   11.62833309  158.64999390    4.36999989    2.57999992
   11.63027763  171.54299927    4.36999989    2.57999992
   11.63333321  203.01600647    4.38999987    2.59999990
   11.63666630  166.85699463    4.36999989    2.57999992
   11.63972187  178.04400635    4.36999989    2.57999992
   11.64305496  183.56399536    4.34999990    2.57999992
   11.64638901  181.33000183    4.34999990    2.57999992
   11.64972210  173.73899841    4.32999992    2.57999992
   11.65333271  197.50599670    4.32999992    2.59999990
   11.65638828  179.29200745    4.32999992    2.57999992
   11.65972137  176.10699463    4.32999992    2.57999992
   11.66305542  149.16099548    4.32999992    2.59999990
   11.66638851  167.40899658    4.32999992    2.59999990
   11.66972256  161.67999268    4.34999990    2.59999990
   11.67277813  159.41099548    4.32999992    2.59999990
   11.67611122  155.82800293    4.32999992    2.59999990
   11.67861176  166.24400330    4.30999994    2.57999992
   11.68000031  168.67900085    4.30999994    2.57999992
   11.68305588  161.63499451    4.28999996    2.59999990
   11.68638897  181.08700562    4.28999996    2.57999992
   11.69000053  160.18400574    4.26999998    2.59999990
   11.69305515  151.60299683    4.26000023    2.57999992
   11.69611073  169.20399475    4.26000023    2.59999990
   11.69944477  133.32600403    4.26000023    2.59999990
   11.70249939  145.05900574    4.26000023    2.59999990
   11.70583344  164.43099976    4.23999977    2.59999990
   11.70888901  173.77600098    4.21999979    2.59999990
   11.71222210  177.07899475    4.21999979    2.57999992
   11.71527767  163.95500183    4.21999979    2.59999990
   11.71833324  166.34899902    4.19999981    2.59999990
   11.72166634  176.08799744    4.19999981    2.59999990
   11.72472191  175.74299622    4.17999983    2.59999990
   11.72805500  198.02099609    4.17999983    2.59999990
   11.72861099  156.65800476    4.17999983    2.59999990
   11.73138809  133.97200012    4.13999987    2.59999990
   11.73472214  179.42100525    4.13999987    2.59999990
   11.73777771  174.12800598    4.13999987    2.61999989
   11.74111176  158.84300232    4.11999989    2.59999990
   11.74416733  182.70899963    4.11999989    2.59999990
   11.74722290  186.02200317    4.09999990    2.59999990
   11.75055599  165.87100220    4.09999990    2.61999989
   11.75361156  185.02099609    4.11999989    2.61999989
   11.75694466  205.86199951    4.09999990    2.61999989
   11.76000023  186.55999756    4.07999992    2.61999989
   11.76333332  191.89399719    4.09999990    2.61999989
   11.76638889  188.96899414    4.09999990    2.61999989
   11.76944447  181.76600647    4.07999992    2.61999989
   11.77277756  171.26100159    4.07999992    2.61999989
   11.77583313  201.97200012    4.09999990    2.64000010
   11.77861118  191.81900024    4.07999992    2.61999989
   11.77944374  187.87600708    4.07999992    2.61999989
   11.78277779  190.83099365    4.07999992    2.64000010
   11.78583336  198.40299988    4.05999994    2.61999989
   11.78888893  177.99000549    4.03999996    2.61999989
   11.79222298  189.21000671    4.03999996    2.64000010
   11.79527855  173.63000488    4.03999996    2.64000010
   11.79861164  178.90199280    4.03999996    2.61999989
   11.80166721  161.83599854    4.01999998    2.61999989
   11.80500031  175.22000122    4.01999998    2.61999989
   11.80805588  181.37300110    4.01999998    2.64000010
   11.81111145  184.59399414    4.03999996    2.64000010
   11.81444454  169.80400085    4.01999998    2.61999989
   11.81750011  173.34199524    4.01999998    2.61999989
   11.82083321  170.67399597    4.00000000    2.64000010
   11.82388878  164.82499695    4.00000000    2.64000010
   11.82694435  174.71099854    4.00000000    2.64000010
   11.82861137  181.21400452    3.99000001    2.64000010
   11.83055592  179.03300476    4.00000000    2.64000010
   11.83388901  180.33399963    3.99000001    2.64000010
   11.83694458  168.44500732    3.97000003    2.64000010
   11.84027767  151.64300537    3.97000003    2.64000010
   11.84333324  160.61300659    3.97000003    2.64000010
   11.84666634  151.99600220    3.97000003    2.64000010
   11.84972191  159.26600647    3.97000003    2.61999989
   11.85305595  146.90800476    3.97000003    2.61999989
   11.85611153   74.69799805    3.95000005    2.61999989
   11.85944462  156.90100098    3.97000003    2.64000010
   11.86250019  164.61000061    3.95000005    2.64000010
   11.86583328  151.33700562    3.95000005    2.61999989
   11.86999989  167.07000732    3.95000005    2.66000009
   11.87305546  163.43200684    3.97000003    2.64000010
   11.87666702  170.35000610    3.95000005    2.66000009
   11.87861156  167.58099365    3.95000005    2.64000010
   11.88027763  164.00700378    3.95000005    2.64000010
   11.88361073  173.60099792    3.95000005    2.64000010
   11.88666630  170.58099365    3.93000007    2.66000009
   11.89000034  175.02000427    3.93000007    2.64000010
   11.89305496  160.27099609    3.93000007    2.66000009
   11.89638901  166.61999512    3.91000009    2.64000010
   11.89972210  176.52900696    3.91000009    2.66000009
   11.90277767  195.05799866    3.91000009    2.64000010
   11.90611076  165.06100464    3.91000009    2.66000009
   11.90916634  162.65100098    3.91000009    2.64000010
   11.91249943  164.23800659    3.91000009    2.66000009
   11.91555500  171.58200073    3.91000009    2.64000010
   11.91888905  147.20300293    3.91000009    2.64000010
   11.92194462  154.85099792    3.89000010    2.66000009
   11.92527771  175.79899597    3.86999989    2.66000009
   11.92833328  149.35400391    3.86999989    2.66000009
   11.92888927  157.89399719    3.84999990    2.64000010
   11.93194485  158.65499878    3.86999989    2.66000009
   11.93527794  158.12399292    3.86999989    2.66000009
   11.93833351  199.15100098    3.84999990    2.66000009
   11.94166660  178.01600647    3.86999989    2.66000009
   11.94472218  177.58999634    3.86999989    2.66000009
   11.94805527  186.79699707    3.84999990    2.67000008
   11.95111084  174.52099609    3.86999989    2.66000009
   11.95444393  180.71699524    3.86999989    2.67000008
   11.95749950  165.93099976    3.86999989    2.67000008
   11.96083355  177.66299438    3.86999989    2.66000009
   11.96388912  159.32200623    3.86999989    2.66000009
   11.96722221  179.85000610    3.86999989    2.66000009
   11.97027779  173.18800354    3.89000010    2.66000009
   11.97361088  160.32699585    3.86999989    2.66000009
   11.97666645  177.39500427    3.86999989    2.66000009
   11.97888851  171.03700256    3.86999989    2.67000008
   11.98027706  181.45199585    3.86999989    2.67000008
   11.98361111  196.95199585    3.84999990    2.67000008
   11.98666668  184.94400024    3.84999990    2.66000009
   11.99000072  176.86500549    3.84999990    2.67000008
   11.99305534  172.67300415    3.82999992    2.67000008
   11.99638939  168.76199341    3.82999992    2.67000008
   11.99944496  181.83999634    3.82999992    2.67000008
   12.00277805  186.95500183    3.82999992    2.67000008
   12.00583363  177.45799255    3.82999992    2.67000008
   12.00916672  154.74600220    3.82999992    2.66000009
   12.01222229  162.85400391    3.82999992    2.67000008
   12.01555538  193.10899353    3.80999994    2.66000009
   12.01861095  136.03599548    3.82999992    2.67000008
   12.02194405  172.54699707    3.78999996    2.67000008
   12.02499962  171.40199280    3.80999994    2.66000009
   12.02861118  163.84500122    3.78999996    2.67000008
   12.02999973  187.70599365    3.78999996    2.67000008
   12.03333378  182.12100220    3.78999996    2.67000008
   12.03666687  200.56700134    3.76999998    2.67000008
   12.04083347  203.84599304    3.76999998    2.67000008
   12.04444504  191.88499451    3.73000002    2.67000008
   12.04833412  180.63600159    3.75000000    2.67000008
   12.05166721  188.77799988    3.73000002    2.67000008
   12.05500031  203.59599304    3.73000002    2.67000008
   12.05944443  190.73899841    3.73000002    2.67000008
   12.06305599  183.17300415    3.72000003    2.67000008
   12.06694412  222.95599365    3.72000003    2.67000008
   12.07055569  191.89599609    3.70000005    2.67000008
   12.07416630  199.26100159    3.72000003    2.67000008
   12.07805538  180.17500305    3.70000005    2.67000008
   12.07999992  198.74800110    3.68000007    2.67000008
   12.08277798  206.93800354    3.70000005    2.69000006
   12.08583260  189.29600525    3.70000005    2.67000008
   12.08916664  206.15899658    3.68000007    2.69000006
   12.09222221  160.55299377    3.68000007    2.67000008
   12.09555531  185.33999634    3.68000007    2.67000008
   12.09861088  197.36099243    3.68000007    2.69000006
   12.10194492  166.70700073    3.66000009    2.67000008
   12.10500050  185.29100037    3.68000007    2.67000008
   12.10833359  171.31399536    3.66000009    2.69000006
   12.11166668  144.47300720    3.68000007    2.67000008
   12.11500072  173.84700012    3.68000007    2.69000006
   12.11833382  166.79600525    3.68000007    2.69000006
   12.12138939  183.16700745    3.70000005    2.69000006
   12.12472248  159.47599792    3.70000005    2.69000006
   12.12777805  169.32499695    3.70000005    2.69000006
   12.12916660  161.56500244    3.68000007    2.69000006
   12.13194466  180.52499390    3.70000005    2.69000006
   12.13527775  183.75700378    3.70000005    2.71000004
   12.13833332  180.98899841    3.72000003    2.69000006
   12.14166641  178.47300720    3.70000005    2.69000006
   12.14472198  215.38499451    3.72000003    2.69000006
   12.14805508  200.25300598    3.72000003    2.69000006
   12.15138817  202.79899597    3.72000003    2.69000006
   12.15444374  210.34199524    3.72000003    2.69000006
   12.15777779  179.98199463    3.72000003    2.69000006
   12.16111088  164.57299805    3.72000003    2.71000004
   12.16527748  138.45199585    3.72000003    2.69000006
   12.16972256  135.24699402    3.73000002    2.69000006
   12.17361164  164.70799255    3.75000000    2.69000006
   12.17694473  186.83200073    3.78999996    2.69000006
   12.17972279  196.49600220    3.82999992    2.69000006
   12.18055630  179.19700623    3.82999992    2.69000006
   12.18388939  171.57600403    3.84999990    2.69000006
   12.18722248  149.24800110    3.82999992    2.69000006
   12.19055557  182.08999634    3.82999992    2.69000006
   12.19361115  178.05599976    3.80999994    2.69000006
   12.19694424  203.47399902    3.80999994    2.71000004
   12.20027733  195.39900208    3.80999994    2.71000004
   12.20333290  163.66400146    3.80999994    2.71000004
   12.20666695  174.44200134    3.76999998    2.69000006
   12.21000004  177.06300354    3.72000003    2.71000004
   12.21305561  173.90199280    3.68000007    2.69000006
   12.21638870  178.11000061    3.66000009    2.71000004
   12.21972179  184.80900574    3.61999989    2.71000004
   12.22277737  173.00999451    3.61999989    2.69000006
   12.22611046  151.14900208    3.64000010    2.71000004
   12.22944355  170.23500061    3.64000010    2.71000004
   12.22999954  164.84500122    3.66000009    2.71000004
   12.23333359  192.74400330    3.68000007    2.71000004
   12.23638916  186.86099243    3.70000005    2.71000004
   12.23972225  174.07400513    3.72000003    2.71000004
   12.24305534  194.40499878    3.72000003    2.71000004
   12.24638939  177.86900330    3.72000003    2.71000004
   12.24944496  204.52900696    3.75000000    2.71000004
   12.25277805  160.11199951    3.75000000    2.71000004
   12.25583363  174.86199951    3.76999998    2.71000004
   12.25916672  178.88400269    3.78999996    2.69000006
   12.26249981  191.14300537    3.80999994    2.71000004
   12.26583290  180.65899658    3.84999990    2.71000004
   12.26888847  157.91200256    3.84999990    2.71000004
   12.27222157  180.50799561    3.84999990    2.71000004
   12.27555561  137.91799927    3.82999992    2.73000002
   12.27888870  163.81399536    3.80999994    2.71000004
   12.28027725  156.25100708    3.80999994    2.71000004
   12.28249931  156.39100647    3.80999994    2.71000004
   12.28583336  149.98300171    3.72000003    2.69000006
   12.28888893  170.23100281    3.68000007    2.71000004
   12.29222298  175.20599365    3.66000009    2.71000004
   12.29527855  159.97099304    3.64000010    2.71000004
   12.31500053  147.79899597    3.75000000    2.73000002
   12.31833363  167.34300232    3.76999998    2.71000004
   12.32138920  141.69200134    3.76999998    2.71000004
   12.32472229  154.58599854    3.76999998    2.71000004
   12.32777786  155.45500183    3.80999994    2.71000004
   12.33027744  149.00599670    3.82999992    2.73000002
   12.33138847  171.16900635    3.82999992    2.71000004
   12.33472157  143.90600586    3.82999992    2.73000002
   12.33805561  152.03100586    3.89000010    2.73000002
   12.34111118  121.01499939    3.93000007    2.73000002
   12.34444427  140.75799561    3.93000007    2.71000004
   12.34749985  150.28999329    3.89000010    2.71000004
   12.35083389  139.89700317    3.93000007    2.71000004
   12.35388947  133.16900635    3.95000005    2.71000004
   12.35722256  140.09800720    3.97000003    2.73000002
   12.36027813  139.63099670    3.95000005    2.71000004
   12.36388969  140.52600098    3.89000010    2.73000002
   12.36722279  129.56399536    3.86999989    2.73000002
   12.37027836  130.64199829    3.86999989    2.73000002
   12.37361145  144.82899475    3.82999992    2.71000004
   12.37666702  127.82199860    3.82999992    2.71000004
   12.38000011  145.12399292    3.78999996    2.73000002
   12.38055611  120.92600250    3.78999996    2.73000002
   12.38361073  137.00500488    3.75000000    2.71000004
   12.38694477  157.58599854    3.70000005    2.73000002
   12.39000034  133.72399902    3.64000010    2.73000002
   12.39333344  136.07499695    3.59999990    2.73000002
   12.39638901  144.87300110    3.59999990    2.73000002
   12.39972210  144.34899902    3.55999994    2.73000002
   12.40305519  138.33200073    3.53999996    2.73000002
   12.40611076  133.23100281    3.53999996    2.73000002
   12.40944386  156.83399963    3.53999996    2.73000002
   12.41277695  143.15100098    3.53999996    2.75000000
   12.41583252  154.04100037    3.53999996    2.73000002
   12.41944504  143.02299500    3.51999998    2.75000000
   12.42250061  146.67799377    3.53999996    2.73000002
   12.42583370  130.72200012    3.53999996    2.75000000
   12.42916679  152.52499390    3.51999998    2.73000002
   12.43055630  159.45199585    3.53999996    2.73000002
   12.43305588  150.94099426    3.53999996    2.73000002
   12.43638897  156.87300110    3.53999996    2.73000002
   12.43944454  157.53700256    3.53999996    2.73000002
   12.44277763  132.80400085    3.55999994    2.73000002
   12.44611073  130.46800232    3.55999994    2.75000000
   12.44944477  134.31100464    3.55999994    2.73000002
   12.45277786  151.77799988    3.53999996    2.73000002
   12.45583344  149.81799316    3.53999996    2.73000002
   12.45916653  146.86999512    3.55999994    2.75000000
   12.46249962  153.84700012    3.55999994    2.73000002
   12.46555519  158.95300293    3.55999994    2.73000002
   12.46888828  145.88900757    3.57999992    2.73000002
   12.47222137  139.96600342    3.55999994    2.75000000
   12.47527695  145.34300232    3.53999996    2.75000000
   12.47861099  140.03199768    3.53999996    2.73000002
   12.48055553  131.15499878    3.53999996    2.75000000
   12.48249912  154.44900513    3.55999994    2.75000000
   12.48583317  132.05599976    3.57999992    2.75000000
   12.48916721  145.93200684    3.59999990    2.75000000
   12.49222279  124.74600220    3.61999989    2.75000000
   12.49555588  159.64700317    3.66000009    2.73000002
   12.49861145  151.97399902    3.72000003    2.75000000
   12.50194454  138.18800354    3.68000007    2.73000002
   12.50527763  136.67100525    3.64000010    2.75000000
   12.50833321  136.52799988    3.61999989    2.75000000
   12.51138878  132.64199829    3.66000009    2.73000002
   12.51472187  137.60299683    3.68000007    2.75000000
   12.51777744  110.76899719    3.68000007    2.76999998
   12.52111053  117.71299744    3.68000007    2.73000002
   12.52444458  118.77999878    3.66000009    2.75000000
   12.52750015  139.78399658    3.68000007    2.75000000
   12.53055573  136.52600098    3.70000005    2.75000000
   12.53111076  142.39599609    3.70000005    2.75000000
   12.53444481  139.35000610    3.70000005    2.73000002
   12.53777790  141.35800171    3.70000005    2.75000000
   12.54083347  144.69299316    3.72000003    2.75000000
   12.54416752  111.43800354    3.68000007    2.75000000
   12.54722309  136.97399902    3.64000010    2.75000000
   12.55055618  149.01600647    3.57999992    2.75000000
   12.55361176  148.82699585    3.55999994    2.75000000
   12.55749989  142.61500549    3.51999998    2.75000000
   12.56083393  144.65800476    3.46000004    2.75000000
   12.56388950  125.07099915    3.45000005    2.75000000
   12.56722260  120.01899719    3.43000007    2.75000000
   12.57055569  140.97799683    3.43000007    2.76999998
   12.57388878  143.00500488    3.41000009    2.76999998
   12.57722187  144.06599426    3.41000009    2.75000000
   12.58055592  140.02799988    3.41000009    2.75000000
   12.58083344  121.32399750    3.41000009    2.75000000
   12.58555508  140.09399414    3.41000009    2.75000000
   12.58972168  137.85600281    3.39000010    2.76999998
   12.59361076  104.61299896    3.41000009    2.75000000
   12.59722233  142.91900635    3.39000010    2.75000000
   12.60305595  135.01800537    3.39000010    2.75000000
   12.60638905  136.69700623    3.39000010    2.76999998
   12.60944462  126.30100250    3.41000009    2.76999998
   12.61277771  140.55400085    3.41000009    2.76999998
   12.61611176  127.92099762    3.41000009    2.75000000
   12.61972237  131.42599487    3.43000007    2.76999998
   12.62333393  127.22699738    3.45000005    2.76999998
   12.62666702  138.98699951    3.41000009    2.76999998
   12.63000011  149.34599304    3.43000007    2.76999998
   12.63055611  126.81800079    3.41000009    2.75000000
   12.63416672  144.61999512    3.39000010    2.76999998
   12.63833332  140.56300354    3.41000009    2.75000000
   12.64138889  154.23100281    3.48000002    2.75000000
   12.64472198  143.79699707    3.36999989    2.75000000
   12.64805508  156.44200134    3.36999989    2.75000000
   12.65111065  136.02999878    3.36999989    2.75000000
   12.65444374  175.57800293    3.34999990    2.76999998
   12.65777779  153.27999878    3.34999990    2.76999998
   12.66083336  166.75399780    3.32999992    2.76999998
   12.66416645  153.37699890    3.30999994    2.75000000
   12.66722298  172.19500732    3.30999994    2.76999998
   12.67055607  148.80799866    3.30999994    2.76999998
   12.67361164  148.69099426    3.32999992    2.76999998
   12.67694473  153.81399536    3.32999992    2.76999998
   12.68000031  148.00500488    3.34999990    2.76999998
   12.68055630  170.73199463    3.32999992    2.76999998
   12.68388939  156.60099792    3.34999990    2.76999998
   12.68694496  142.51100159    3.34999990    2.76999998
   12.69027805  161.65400696    3.34999990    2.78999996
   12.69333363  125.33699799    3.32999992    2.78999996
   12.69666672  131.16200256    3.32999992    2.76999998
   12.69972229  179.62500000    3.34999990    2.76999998
   12.70305538  183.21499634    3.32999992    2.78999996
   12.70611095  124.23200226    3.32999992    2.76999998
   12.70944405  137.88999939    3.32999992    2.76999998
   12.71249962  131.79499817    3.30999994    2.76999998
   12.71583271  161.33999634    3.28999996    2.76999998
   12.71888828  141.00199890    3.30999994    2.76999998
   12.72222137  147.02600098    3.30999994    2.76999998
   12.72527695  167.56100464    3.28999996    2.76999998
   12.72861099  140.85400391    3.26999998    2.76999998
   12.73055553  161.31900024    3.25000000    2.78999996
   12.73222160  153.28300476    3.25000000    2.78999996
   12.73527813  153.35600281    3.25000000    2.78999996
   12.73861122  145.12199402    3.23000002    2.78999996
   12.74166679  149.74200439    3.23000002    2.76999998
   12.74499989  135.02900696    3.23000002    2.76999998
   12.74805546  154.18899536    3.21000004    2.76999998
   12.75138855  148.35600281    3.20000005    2.76999998
   12.75444412  156.76100159    3.21000004    2.76999998
   12.75777817  155.27099609    3.20000005    2.78999996
   12.76083374  155.87199402    3.18000007    2.78999996
   12.76416683  144.15499878    3.20000005    2.78999996
   12.76722240  162.95700073    3.16000009    2.78999996
   12.77055550  160.73399353    3.18000007    2.78999996
   12.77361107  153.90899658    3.20000005    2.78999996
   12.77694416  156.31300354    3.18000007    2.78999996
   12.77999973  148.98100281    3.18000007    2.78999996
   12.78055573  140.93099976    3.18000007    2.78999996
   12.78361130  162.27200317    3.18000007    2.78999996
   12.78666687  155.12100220    3.20000005    2.78999996
   12.79000092  164.77400208    3.18000007    2.76999998
   12.79305553  172.17700195    3.18000007    2.78999996
   12.79638958  147.22900391    3.20000005    2.78999996
   12.79944515  155.04800415    3.18000007    2.76999998
   12.80277824  156.46600342    3.20000005    2.78999996
   12.80583382  149.06100464    3.18000007    2.78999996
   12.80916691  170.91600037    3.20000005    2.78999996
   12.81222248  194.80599976    3.18000007    2.78999996
   12.81555557  156.55499268    3.20000005    2.78999996
   12.81861115  161.00900269    3.18000007    2.78999996
   12.82194424  157.90600586    3.16000009    2.78999996
   12.82499981  158.82000732    3.18000007    2.78999996
   12.82833290  168.20899963    3.16000009    2.78999996
   12.83055592  181.20199585    3.18000007    2.78999996
   12.83194447  164.22200012    3.16000009    2.78999996
   12.83500004  173.13600159    3.16000009    2.78999996
   12.83833313  177.04100037    3.14000010    2.78999996
   12.84138870  150.00399780    3.14000010    2.78999996
   12.84472179  172.72500610    3.14000010    2.78999996
   12.84777737  157.30299377    3.14000010    2.78999996
   12.85111141  170.82499695    3.11999989    2.78999996
   12.85416698  180.79800415    3.11999989    2.78999996
   12.85750008  185.71299744    3.11999989    2.80999994
   12.86055565  191.32299805    3.14000010    2.80999994
   12.86388969  158.13800049    3.11999989    2.80999994
   12.86694431  197.79200745    3.11999989    2.78999996
   12.87027836  179.26100159    3.14000010    2.78999996
   12.87333393  206.06199646    3.14000010    2.78999996
   12.87666702  203.10499573    3.14000010    2.78999996
   12.87972260  183.60400391    3.16000009    2.80999994
   12.88055611  205.52499390    3.14000010    2.80999994
   12.88333321  230.54800415    3.14000010    2.78999996
   12.88638878  191.66200256    3.14000010    2.78999996
   12.88972187  267.33200073    3.16000009    2.78999996
   12.89277744  283.05099487    3.14000010    2.78999996
   12.89611053  286.13699341    3.14000010    2.78999996
   12.89916611  334.95700073    3.16000009    2.80999994
   12.90249920  247.31900024    3.16000009    2.78999996
   12.90555477  281.65100098    3.14000010    2.78999996
   12.90888882  294.03500366    3.11999989    2.80999994
   12.91194439  280.36801147    3.11999989    2.82999992
   12.91527748  293.59201050    3.11999989    2.78999996
   12.91833401  227.08900452    3.07999992    2.80999994
   12.92166710  281.32598877    3.07999992    2.80999994
   12.92472267  313.71398926    3.07999992    2.80999994
   12.92805576  298.06201172    3.07999992    2.80999994
   12.93055630  340.04098511    3.11999989    2.80999994
   12.93166733  290.18499756    3.07999992    2.80999994
   12.93472195  287.79598999    3.09999990    2.80999994
   12.93805599  289.67098999    3.11999989    2.80999994
   12.94111156  270.15200806    3.18000007    2.80999994
   12.94444466  269.46301270    3.21000004    2.80999994
   12.94750023  277.83200073    3.26999998    2.80999994
   12.95083332  261.87600708    3.26999998    2.82999992
   12.95388889  277.36898804    3.20000005    2.78999996
   12.95722198  303.53399658    3.16000009    2.80999994
   12.96027756  271.21600342    3.16000009    2.80999994
   12.96361065  286.73300171    3.25000000    2.78999996
   12.96666622  297.35400391    3.25000000    2.80999994
   12.96999931  328.29901123    3.26999998    2.80999994
   12.97305489  301.63000488    3.39000010    2.80999994
   12.97638798  232.63099670    3.25000000    2.80999994
   12.97944355  338.57000732    3.11999989    2.80999994
   12.98055553  383.03500366    3.09999990    2.78999996
   12.98305511  317.98699951    3.05999994    2.78999996
   12.98611164  317.83898926    3.05999994    2.82999992
   12.98944473  297.95001221    3.03999996    2.82999992
   12.99250031  313.41101074    3.00000000    2.80999994
   12.99583340  373.54299927    2.96000004    2.80999994
   12.99777794  324.95599365    2.96000004    2.80999994
   12.99916649  385.63699341    2.94000006    2.80999994
   13.00055599  323.80099487    2.96000004    2.80999994
   13.00194454  322.83499146    2.94000006    2.80999994
   13.00333309  325.35900879    2.94000006    2.82999992
   13.00472260  303.96398926    2.94000006    2.82999992
   13.00611115  296.73098755    2.94000006    2.80999994
   13.00611115  301.63000488    3.39000010    2.80999994
   13.00611115  232.63099670    3.25000000    2.80999994
   13.00638866  338.57000732    3.11999989    2.80999994
   13.00638866  317.98699951    3.05999994    2.78999996
   13.00666714  317.83898926    3.05999994    2.82999992
   13.00666714  297.95001221    3.03999996    2.82999992
   13.00666714  313.41101074    3.00000000    2.80999994
   13.00694466  373.54299927    2.96000004    2.80999994
   13.00694466  328.29901123    3.26999998    2.80999994
   13.00749969  310.46499634    2.94000006    2.80999994
   13.01055527  331.21099854    2.94000006    2.82999992
   13.01388931  346.50100708    2.94000006    2.82999992
   13.01694393  336.50201416    2.94000006    2.82999992
   13.02027798  351.15701294    2.96000004    2.82999992
   13.02222157  324.60400391    2.98000002    2.82999992
   13.02333355  335.76400757    2.96000004    2.80999994
   13.02472210  322.72900391    2.98000002    2.80999994
   13.02611065  297.17098999    2.98000002    2.80999994
   13.02638817  310.46499634    2.94000006    2.80999994
   13.02638817  331.21099854    2.94000006    2.82999992
   13.02666664  346.50100708    2.94000006    2.82999992
   13.02666664  336.50201416    2.94000006    2.82999992
   13.02666664  351.15701294    2.96000004    2.82999992
   13.02722168  340.77301025    2.98000002    2.80999994
   13.03055573  282.33099365    3.01999998    2.80999994
   13.03361130  296.50900269    3.00000000    2.80999994
   13.03694534  321.04598999    3.01999998    2.80999994
   13.04000092  293.04598999    3.01999998    2.80999994
   13.04333401  273.70901489    3.07999992    2.80999994
   13.04638958  286.21600342    3.25000000    2.80999994
   13.04972267  292.09298706    3.28999996    2.82999992
   13.05527782  292.09298706    3.18000007    2.80999994
   13.05944443  285.95498657    3.07999992    2.80999994
   13.06250000  284.92599487    3.03999996    2.80999994
   13.06583309  277.04699707    3.05999994    2.82999992
   13.06888866  293.23300171    3.05999994    2.80999994
   13.07222176  303.26699829    3.00000000    2.80999994
   13.07527733  292.80599976    3.00000000    2.82999992
   13.07666683  288.71301270    3.00000000    2.82999992
   13.07888889  277.67401123    3.00000000    2.80999994
   13.08194447  244.26600647    3.01999998    2.80999994
   13.08527756  275.86999512    3.00000000    2.82999992
   13.08861065  282.22698975    3.00000000    2.82999992
   13.09166622  281.14801025    3.00000000    2.80999994
   13.09499931  271.31500244    2.98000002    2.82999992
   13.09805489  260.18301392    3.03999996    2.80999994
   13.10138893  273.86300659    3.01999998    2.80999994
   13.10638905  273.86300659    3.00000000    2.80999994
   13.11055565  277.91500854    3.01999998    2.82999992
   13.11388969  272.13500977    3.07999992    2.82999992
   13.11694431  264.30200195    3.09999990    2.82999992
   13.12027836  244.15199280    3.11999989    2.80999994
   13.12333393  264.25299072    3.09999990    2.80999994
   13.12638855  257.67001343    3.09999990    2.82999992
   13.12694454  253.77099609    3.07999992    2.80999994
   13.13027763  236.53999329    3.07999992    2.82999992
   13.13333321  247.42900085    3.05999994    2.82999992
   13.13666630  253.19000244    3.05999994    2.80999994
   13.13972187  264.12399292    3.05999994    2.80999994
   13.14277744  224.20100403    3.05999994    2.82999992
   13.14611053  249.92799377    3.05999994    2.80999994
   13.14916611  254.68699646    3.07999992    2.80999994
   13.15249920  251.88800049    3.07999992    2.80999994
   13.15777779  251.88800049    3.11999989    2.82999992
   13.16166592  258.77398682    3.14000010    2.82999992
   13.16499996  254.12899780    3.16000009    2.82999992
   13.16805553  239.69900513    3.18000007    2.82999992
   13.17138958  228.45300293    3.18000007    2.80999994
   13.17444515  200.24000549    3.16000009    2.82999992
   13.17694473  215.32600403    3.14000010    2.80999994
   13.17805576  220.14300537    3.14000010    2.80999994
   13.18111134  221.38200378    3.11999989    2.82999992
   13.18444443  183.94099426    3.09999990    2.82999992
   13.18750000  238.84500122    3.05999994    2.82999992
   13.19055557  218.15199280    3.03999996    2.82999992
   13.19388866  217.21400452    3.03999996    2.82999992
   13.19694424  222.68299866    3.03999996    2.82999992
   13.20027733  237.50900269    3.01999998    2.80999994
   13.20333290  210.34899902    3.00000000    2.80999994
   13.20888901  210.34899902    2.98000002    2.82999992
   13.21305561  220.44700623    2.98000002    2.82999992
   13.21611118  191.44200134    3.00000000    2.82999992
   13.21944427  194.19700623    3.01999998    2.82999992
   13.22249985  204.08299255    3.03999996    2.82999992
   13.22555542  206.58700562    3.09999990    2.80999994
   13.22694397  189.57800293    3.18000007    2.82999992
   13.22916603  190.26100159    3.23000002    2.82999992
   13.23222160  201.28100586    3.39000010    2.82999992
   13.23555565  185.70700073    3.59999990    2.82999992
   13.23861122  199.81799316    3.89000010    2.80999994
   13.24194431  205.58500671    4.40999985    2.80999994
   13.24499989  210.41000366    4.78000021    2.78999996
   13.24805546  199.93899536    4.90999985    2.78999996
   13.25138855  194.51800537    4.90999985    2.76999998
   13.25444412  206.43400574    4.90999985    2.76999998
   13.26000023  206.43400574    4.90999985    2.71000004
   13.26416683  221.66000366    4.90999985    2.71000004
   13.26722240  217.32099915    4.90999985    2.75000000
   13.27055550  228.99000549    4.90999985    2.75000000
   13.27361107  217.92300415    4.90999985    2.71000004
   13.27694416  242.27000427    4.90999985    2.71000004
   13.27750015  233.63699341    4.90999985    2.71000004
   13.28055573  238.25999451    4.90999985    2.66000009
   13.28388977  243.31799316    4.90999985    2.64000010
   13.28694534  212.31599426    4.90999985    2.55999994
   13.29027843  207.96299744    4.90999985    2.53999996
   13.29333401  199.06199646    4.90999985    2.69000006
   13.29666710  216.10899353    4.90999985    2.67000008
   13.29972267  218.61599731    4.90999985    2.64000010
   13.30305576  190.38900757    4.90999985    2.59999990
   13.30611134  193.93200684    4.90999985    2.69000006
   13.31111145  193.93200684    4.90999985    2.75000000
   13.32972240  218.00900269    4.90999985    2.75000000
   13.33277798  207.57699585    4.90999985    2.76999998
   13.33611107  196.48699951    4.90999985    2.75000000
   13.33916664  184.76699829    4.90999985    2.71000004
   13.34249973  246.91600037    4.90999985    2.50000000
   13.34555531  250.97000122    4.90999985    2.46000004
   13.34888840  234.10800171    4.90999985    2.50000000
   13.35194492  238.05499268    4.90999985    2.36999989
   13.35527802  302.03201294    4.90999985    2.46000004
   13.35833359  647.06097412    4.90999985    2.13000011
   13.36027813  383.10000610    4.90999985    2.07999992
   13.36166668  249.97099304    4.90999985    2.13000011
   13.36166668  184.76699829    4.90999985    2.71000004
   13.36194515  246.91600037    4.90999985    2.50000000
   13.36194515  250.97000122    4.90999985    2.46000004
   13.36194515  234.10800171    4.90999985    2.50000000
   13.36222267  238.05499268    4.90999985    2.36999989
   13.36222267  302.03201294    4.90999985    2.46000004
   13.36250019  647.06097412    4.90999985    2.13000011
   13.36250019  207.57699585    4.90999985    2.76999998
   13.36250019  196.48699951    4.90999985    2.75000000
   13.36361122  270.53698730    4.90999985    2.30999994
   13.36666679  299.05801392    4.90999985    2.26999998
   13.36999989  511.61700439    4.90999985    1.96000004
   13.37194443  203.33999634    4.90999985    2.01999998
   13.37222195  270.53698730    4.90999985    2.30999994
   13.37222195  299.05801392    4.90999985    2.26999998
   13.37222195  511.61700439    4.90999985    1.96000004
   13.37416649  343.00299072    4.90999985    1.96000004
   13.37750053  137.22500610    4.90999985    1.94000006
   13.38055611  421.58898926    4.90999985    2.00000000
   13.38249969   23.57019997    4.90999985    2.03999996
   13.38249969  343.00299072    4.90999985    1.96000004
   13.38277817  137.22500610    4.90999985    1.94000006
   13.38277817  421.58898926    4.90999985    2.00000000
   13.38472176   90.25370026    4.90999985    1.83000004
   13.38805580   92.60559845    4.90999985    1.80999994
   13.39111137   23.57019997    4.90999985    1.73000002
   13.39444447   -1.00000000    4.90999985    1.63000000
   13.39750004   -1.00000000    4.90999985    1.44000006
   13.40055561   -1.00000000    4.90999985    1.46000004
   13.40388870   -1.00000000    4.90999985    1.34000003
   13.40694427   -1.00000000    4.90999985    1.36000001
   13.41166592   -1.00000000    4.90999985    1.66999996
   13.41583252   84.35359955    4.90999985    1.55999994
   13.41888905   -1.00000000    4.90999985    1.80999994
   13.42194462   -1.00000000    4.90999985    1.46000004
   13.42527771   -1.00000000    4.90999985    1.51999998
   13.42833328   -1.00000000    4.90999985    1.58000004
   13.43166733   -1.00000000    4.90999985    1.51999998
   13.43500042   -1.00000000    4.90999985    1.55999994
   13.43805599   -1.00000000    4.90999985    1.34000003
   13.44138908   -1.00000000    4.90999985    1.01999998
   13.44444466   -1.00000000    4.90999985    1.07000005
   13.44777775   -1.00000000    4.90999985    0.94000000
   13.45083332   -1.00000000    4.90999985    0.81999999
   13.45388889   -1.00000000    4.90999985    0.58999997
   13.45722198   -1.00000000    4.90999985    0.73000002
   13.46277714   -1.00000000    4.90999985    1.58000004
   13.46694374  249.79800415    4.90999985    1.89999998
   13.46999931   49.13290024    4.90999985    2.05999994
   13.47333336   -1.00000000    4.90999985    1.61000001
   13.47638798  282.12399292    4.90999985    2.01999998
   13.47972202  219.54800415    4.90999985    2.21000004
   13.48277760  187.80999756    4.90999985    2.28999996
   13.48333359  178.14199829    4.90999985    2.36999989
   13.48638916  181.57099915    4.90999985    2.59999990
   13.48972225  175.41200256    4.90999985    2.73000002
   13.49277782  184.17799377    4.90999985    2.76999998
   13.49611092  203.87899780    4.90999985    2.75000000
   13.49916649  182.36900330    4.90999985    2.53999996
   13.50249958  190.66099548    4.90999985    2.28999996
   13.50555515  201.70599365    4.90999985    2.17000008
   13.50888920  173.72900391    4.90999985    2.48000002
   13.51388931  173.72900391    4.90999985    2.53999996
   13.51805496  199.05700684    4.90999985    2.42000008
   13.52138901  193.49699402    4.90999985    2.36999989
   13.52444458  208.95399475    4.90999985    2.32999992
   13.52777767  193.10699463    4.90999985    2.39000010
   13.53083324  212.71299744    4.90999985    2.36999989
   13.53333378  265.17199707    4.90999985    2.34999990
   13.53444481  191.75799561    4.90999985    2.25000000
   13.53777790  348.25100708    4.90999985    2.15000010
   13.54083347  368.00799561    4.90999985    2.00000000
   13.54277802  293.35598755    4.90999985    2.01999998
   13.54305553  199.05700684    4.90999985    2.42000008
   13.54305553  193.49699402    4.90999985    2.36999989
   13.54333401  208.95399475    4.90999985    2.32999992
   13.54333401  193.10699463    4.90999985    2.39000010
   13.54333401  212.71299744    4.90999985    2.36999989
   13.54361153  191.75799561    4.90999985    2.25000000
   13.54361153  348.25100708    4.90999985    2.15000010
   13.54361153  368.00799561    4.90999985    2.00000000
   13.54388905  173.72900391    4.90999985    2.48000002
   13.54555607  348.33300781    4.90999985    1.86000001
   13.54888916   74.73000336    4.90999985    1.89999998
   13.55194473  322.97100830    4.90999985    1.83000004
   13.55527782  386.75500488    4.90999985    2.07999992
   13.55722237  547.57299805    4.90999985    2.00000000
   13.55861092  212.02000427    4.90999985    1.89999998
   13.55861092  348.33300781    4.90999985    1.86000001
   13.55861092   74.73000336    4.90999985    1.89999998
   13.55888939  322.97100830    4.90999985    1.83000004
   13.55888939  386.75500488    4.90999985    2.07999992
   13.56000042  211.49800110    4.90999985    2.11999989
   13.56305599  317.17300415    4.90999985    2.17000008
   13.56638908  167.20100403    4.90999985    2.17000008
   13.56944466  172.39900208    4.90999985    2.51999998
   13.57277775  179.11199951    4.90999985    2.55999994
   13.57583332  183.44599915    4.90999985    2.66000009
   13.57888889  166.87399292    4.90999985    2.69000006
   13.58222198  180.38299561    4.90999985    2.71000004
   13.58749962  180.38299561    4.90999985    2.73000002
   13.59166622  164.14199829    4.90999985    2.66000009
   13.59499931  178.68299866    4.90999985    2.61999989
   13.59805489  169.70399475    4.90999985    2.73000002
   13.60138893  156.54800415    4.90999985    2.76999998
   13.60444450  178.31799316    4.90999985    2.80999994
   13.60777855  163.51199341    4.90999985    2.76999998
   13.60888958  175.02600098    4.90999985    2.78999996
   13.61138916  173.94900513    4.90999985    2.80999994
   13.61444473  170.24000549    4.90999985    2.78999996
   13.61777782  195.67300415    4.90999985    2.78999996
   13.62083340  190.38999939    4.90999985    2.75000000
   13.62416649  188.61799622    4.90999985    2.75000000
   13.62722206  169.24099731    4.90999985    2.67000008
   13.63055611  178.15100098    4.90999985    2.71000004
   13.63388920  194.05700684    2.80999994    2.73000002
   13.63888836  194.05700684    0.76999998    0.40000001
   13.64277744  144.21400452    1.09000003    0.19000000
   13.64611053  171.50100708    2.00000000    0.01000000
   13.64916611  192.21200562    2.00000000    0.01000000
   13.67666721  196.30299377    2.00000000    0.01000000
   13.67972279  186.14300537    2.00000000    0.01000000
   13.68305588  184.67999268    2.00000000    0.01000000
   13.68611145  149.49000549    2.00000000    0.01000000
   13.68944454  273.75100708    2.00000000    0.01000000
   13.69250011  482.03601074    2.00000000    0.01000000
   13.69472218  518.34301758    2.00000000    0.01000000
   13.69583321  227.29600525    2.00000000    0.01000000
   13.69611073  186.14300537    2.00000000    0.01000000
   13.69611073  184.67999268    2.00000000    0.01000000
   13.69611073  149.49000549    2.00000000    0.01000000
   13.69638920  273.75100708    2.00000000    0.01000000
   13.69638920  482.03601074    2.00000000    0.01000000
   13.69750023  160.50999451    2.00000000    0.01000000
   13.70055580   88.80200195    2.00000000    0.01000000
   13.70388889   -1.00000000    2.00000000    0.01000000
   13.70694447   92.25800323    2.00000000    0.01000000
   13.71027756  611.60797119    2.00000000    0.01000000
   13.71222210  229.58399963    2.00000000    0.01000000
   13.71222210  160.50999451    2.00000000    0.01000000
   13.71222210   88.80200195    2.00000000    0.01000000
   13.71249962   -1.00000000    2.00000000    0.01000000
   13.71249962   92.25800323    2.00000000    0.01000000
   13.71249962  611.60797119    2.00000000    0.01000000
   13.71444416  178.43200684    2.00000000    0.01000000
   13.71777725  327.81799316    2.00000000    0.01000000
   13.72083282  253.54899597    2.00000000    0.01000000
   13.72416592  357.68899536    2.00000000    0.01000000
   13.72611046  309.79598999    2.00000000    0.01000000
   13.72749996  170.22599792    2.00000000    0.01000000
   13.72749996  178.43200684    2.00000000    0.01000000
   13.72749996  327.81799316    2.00000000    0.01000000
   13.72777748  253.54899597    2.00000000    0.01000000
   13.72777748  357.68899536    2.00000000    0.01000000
   13.72888851  379.69400024    2.00000000    0.01000000
   13.73083305  221.64900208    2.00000000    0.01000000
   13.73277760  183.13499451    2.00000000    0.01000000
   13.73583317  268.51000977    2.00000000    0.01000000
   13.73916721  229.24600220    2.00000000    0.01000000
   13.74222279  222.72399902    2.00000000    0.01000000
   13.74555588  233.89399719    2.00000000    0.01000000
   13.74888897  192.11000061    2.00000000    0.01000000
   13.75194454  159.83099365    2.00000000    0.01000000
   13.75500011  161.89300537    2.00000000    0.01000000
   13.76000023  161.89300537    2.00000000    0.01000000
   13.76388931  171.99200439    2.00000000    0.01000000
   13.76722240  160.78799438    2.00000000    0.01000000
   13.77027798  171.90899658    2.00000000    0.01000000
   13.77361107  159.91099548    2.00000000    0.01000000
   13.77666664  167.29299927    2.00000000    0.01000000
   13.88833332   -1.00000000   -1.00000000   -1.00000000
   13.98416710   -1.00000000   -1.00000000   -1.00000000
   14.08527756   -1.00000000   -1.00000000   -1.00000000
   14.12361145   68.11949921    2.00000000    0.01000000
   14.12694454  137.93400574    2.00000000    0.01000000
   14.13000011  136.74600220    2.00000000    0.01000000
   14.13333321  143.50100708    2.00000000    0.01000000
   14.13638878  142.74600220    2.00000000    0.01000000
   14.13972187  135.24699402    2.00000000    0.01000000
   14.14277744  143.72099304    2.00000000    0.01000000
   14.14611053  144.46400452    2.00000000    0.01000000
   14.15222168  144.46400452    2.00000000    0.01000000
   14.15638828  128.25300598    2.00000000    0.01000000
   14.15972137  133.63499451    2.00000000    0.01000000
   14.16277695  132.85400391    2.00000000    0.01000000
   14.16611099  140.21000671    2.00000000    0.01000000
   14.16916656  139.25399780    2.00000000    0.01000000
   14.17250061  132.41000366    2.00000000    0.01000000
   14.17361164  138.73300171    2.00000000    0.01000000
   14.17583370  135.96299744    2.00000000    0.01000000
   14.17888927  136.77900696    2.00000000    0.01000000
   14.18222237  131.62100220    2.00000000    0.01000000
   14.18527794  132.78199768    2.00000000    0.01000000
   14.18861103  142.05499268    2.00000000    0.01000000
   14.19166660  134.23500061    2.00000000    0.01000000
   14.19499969  129.69900513    2.00000000    0.01000000
   14.19805527  133.79499817    2.00000000    0.01000000
   14.20361137  133.79499817    2.00000000    0.01000000
   14.20749950  146.77699280    2.00000000    0.01000000
   14.21083355  129.24699402    2.00000000    0.01000000
   14.21416664  130.82400513    2.00000000    0.01000000
   14.21722221  126.56999969    2.00000000    0.01000000
   14.22055531  132.77099609    2.00000000    0.01000000
   14.22361088  131.08599854    2.00000000    0.01000000
   14.22416592  124.99099731    2.00000000    0.01000000
   14.22722149  124.75399780    2.00000000    0.01000000
   14.23055553  135.65699768    2.00000000    0.01000000
   14.23361111  133.26899719    2.00000000    0.01000000
   14.23694515  124.74800110    2.00000000    0.01000000
   14.24000072  136.07600403    2.00000000    0.01000000
   14.24333382  130.23500061    2.00000000    0.01000000
   14.24638939  143.11700439    2.00000000    0.01000000
   14.24972248  133.93299866    2.00000000    0.01000000
   14.25472260  133.93299866    2.00000000    0.01000000
   14.25888920  143.60600281    2.00000000    0.01000000
   14.26194477  148.45500183    2.00000000    0.01000000
   14.26527786  128.53399658    2.00000000    0.01000000
   14.26833344  149.10499573    2.00000000    0.01000000
   14.27166653  134.57000732    2.00000000    0.01000000
   14.27416611  129.28300476    2.00000000    0.01000000
   14.27499962  149.88000488    2.00000000    0.01000000
   14.27833271  128.58299255    2.00000000    0.01000000
   14.28138828  122.53800201    2.00000000    0.01000000
   14.28472233  128.16600037    2.00000000    0.01000000
   14.28777790  145.93600464    2.00000000    0.01000000
   14.29111195  137.03300476    2.00000000    0.01000000
   14.29416752  135.18400574    2.00000000    0.01000000
   14.29750061  118.84400177    2.00000000    0.01000000
   14.30055618  129.04400635    2.00000000    0.01000000
   14.30583382  129.04400635    2.00000000    0.01000000
   14.31000042  144.18600464    2.00000000    0.01000000
   14.31305599  133.36900330    2.00000000    0.01000000
   14.31638908  124.67500305    2.00000000    0.01000000
   14.31944466  126.84500122    2.00000000    0.01000000
   14.32277775  121.06500244    2.00000000    0.01000000
   14.32416630  131.24899292    2.00000000    0.01000000
   14.32611084  129.48899841    2.00000000    0.01000000
   14.32944393  145.34599304    2.00000000    0.01000000
   14.33249950  122.38600159    2.00000000    0.01000000
   14.33583260  138.84700012    2.00000000    0.01000000
   14.33888817  142.90299988    2.00000000    0.01000000
   14.34222221  125.57599640    2.00000000    0.01000000
   14.34527779  144.07899475    2.00000000    0.01000000
   14.34861088  139.78300476    2.00000000    0.01000000
   14.35166740  137.24200439    2.00000000    0.01000000
   14.35694504  137.24200439    2.00000000    0.01000000
   14.36111164  134.97200012    2.00000000    0.01000000
   14.36444473  136.17500305    2.00000000    0.01000000
   14.36750031  138.61399841    2.00000000    0.01000000
   14.37083340  127.50599670    2.00000000    0.01000000
   14.37388897  128.98100281    2.00000000    0.01000000
   14.37444496  123.42099762    2.00000000    0.01000000
   14.37777805  137.94999695    2.00000000    0.01000000
   14.38083363  130.09899902    2.00000000    0.01000000
   14.38416672  132.13099670    2.00000000    0.01000000
   14.38722229  125.22299957    2.00000000    0.01000000
   14.39055538  125.60199738    2.00000000    0.01000000
   14.39361095  134.34300232    2.00000000    0.01000000
   14.39694405  141.77099609    2.00000000    0.01000000
   14.39999962  126.55899811    2.00000000    0.01000000
   14.40333271  126.90399933    2.00000000    0.01000000
   14.40833282  126.90399933    2.00000000    0.01000000
   14.41222191  138.76800537    2.00000000    0.01000000
   14.41555500  122.91200256    2.00000000    0.01000000
   14.41861153  139.76600647    2.00000000    0.01000000
   14.42194462  116.79799652    2.00000000    0.01000000
   14.42444515  127.68499756    2.00000000    0.01000000
   14.42527771  125.44799805    2.00000000    0.01000000
   14.42861176  115.94400024    2.00000000    0.01000000
   14.43166733  122.63600159    2.00000000    0.01000000
   14.43500042  122.21900177    2.00000000    0.01000000
   14.43805599  123.58899689    2.00000000    0.01000000
   14.44138908  117.89800262    2.00000000    0.01000000
   14.44444466  119.32499695    2.00000000    0.01000000
   14.44777775  118.76899719    2.00000000    0.01000000
   14.45083332  127.26399994    2.00000000    0.01000000
   14.45416641  121.72499847    2.00000000    0.01000000
   14.45944405  121.72499847    2.00000000    0.01000000
   14.46361065  117.00499725    2.00000000    0.01000000
   14.46666622  121.53800201    2.00000000    0.01000000
   14.46999931  132.23599243    2.00000000    0.01000000
   14.47305489  144.64500427    2.00000000    0.01000000
   14.47472191  141.42399597    2.00000000    0.01000000
   14.47666645  147.56700134    2.00000000    0.01000000
   14.47999954  140.76499939    2.00000000    0.01000000
   14.48305511  112.88099670    2.00000000    0.01000000
   14.48638916  136.79200745    2.00000000    0.01000000
   14.48944473  115.65299988    2.00000000    0.01000000
   14.49277782  122.23899841    2.00000000    0.01000000
   14.49583340  117.82800293    2.00000000    0.01000000
   14.49916649  146.53500366    2.00000000    0.01000000
   14.50222206  148.05799866    2.00000000    0.01000000
   14.50555515  131.67900085    2.00000000    0.01000000
   14.51055527  131.67900085    2.00000000    0.01000000
   14.51472187  129.91299438    2.00000000    0.01000000
   14.51777744  126.51499939    2.00000000    0.01000000
   14.52111053  137.27099609    2.00000000    0.01000000
   14.52416611  132.40899658    2.00000000    0.01000000
   14.52472210  137.57600403    2.00000000    0.01000000
   14.52777767  134.76899719    2.00000000    0.01000000
   14.53083324  133.25199890    2.00000000    0.01000000
   14.53416729  131.95799255    2.00000000    0.01000000
   14.53722286  136.07699585    2.00000000    0.01000000
   14.54055595  137.57400513    2.00000000    0.01000000
   14.54361153  139.50799561    2.00000000    0.01000000
   14.54694462  135.08399963    2.00000000    0.01000000
   14.55000019  143.08000183    2.00000000    0.01000000
   14.55305576  137.14100647    2.00000000    0.01000000
   14.55638885  141.66400146    2.00000000    0.01000000
   14.56166649  141.66400146    2.00000000    0.01000000
   14.56583309  125.33699799    2.00000000    0.01000000
   14.56888866  127.59799957    2.00000000    0.01000000
   14.57222176  130.17199707    2.00000000    0.01000000
   14.57472229  123.09300232    2.00000000    0.01000000
   14.57583332  111.73500061    2.00000000    0.01000000
   14.57888889  123.73899841    2.00000000    0.01000000
   14.58194447  129.71400452    2.00000000    0.01000000
   14.58527756  131.56599426    2.00000000    0.01000000
   14.58833313  117.34200287    2.00000000    0.01000000
   14.59166622  130.31300354    2.00000000    0.01000000
   14.59472179  126.54100037    2.00000000    0.01000000
   14.59805489  128.55499268    2.00000000    0.01000000
   14.60111141  132.80499268    2.00000000    0.01000000
   14.60444450  126.93699646    2.00000000    0.01000000
   14.60750008  132.02999878    2.00000000    0.01000000
   14.61305618  132.02999878    2.00000000    0.01000000
   14.61694431  137.67199707    2.00000000    0.01000000
   14.62027836  125.83999634    2.00000000    0.01000000
   14.62333393  140.17300415    2.00000000    0.01000000
   14.62472248  132.24000549    2.00000000    0.01000000
   14.62694454  127.57900238    2.00000000    0.01000000
   14.63000011  125.75299835    2.00000000    0.01000000
   14.63333321  127.80400085    2.00000000    0.01000000
   14.63638878  133.22200012    2.00000000    0.01000000
   14.63972187  126.12300110    2.00000000    0.01000000
   14.64277744  128.39399719    2.00000000    0.01000000
   14.64611053  129.30700684    2.00000000    0.01000000
   14.64916611  128.11300659    2.00000000    0.01000000
   14.65222168  123.31800079    2.00000000    0.01000000
   14.65555477  122.92099762    2.00000000    0.01000000
   14.65861034  119.47899628    2.00000000    0.01000000
   14.66416645  119.47899628    2.00000000    0.01000000
   14.66805553  139.99000549    2.00000000    0.01000000
   14.67138958  143.31500244    2.00000000    0.01000000
   14.67444515  120.59400177    2.00000000    0.01000000
   14.67500019  131.03199768    2.00000000    0.01000000
   14.67805576  126.05000305    2.00000000    0.01000000
   14.68111134  126.84100342    2.00000000    0.01000000
   14.68444443  124.48200226    2.00000000    0.01000000
   14.68750000  122.41600037    2.00000000    0.01000000
   14.69083309  137.54299927    2.00000000    0.01000000
   14.69388866  122.31999969    2.00000000    0.01000000
   14.69722271  111.90000153    2.00000000    0.01000000
   14.70027733  118.62999725    2.00000000    0.01000000
   14.70361137  129.42900085    2.00000000    0.01000000
   14.70666695  114.40299988    2.00000000    0.01000000
   14.71000004  134.50100708    2.00000000    0.01000000
   14.71527767  134.50100708    2.00000000    0.01000000
   14.71944427  125.30200195    2.00000000    0.01000000
   14.72249985  133.09100342    2.00000000    0.01000000
   14.72499943  134.60200500    2.00000000    0.01000000
   14.72611046  131.48899841    2.00000000    0.01000000
   14.72916603  115.76399994    2.00000000    0.01000000
   14.73249912  127.79799652    2.00000000    0.01000000
   14.73555565  135.20100403    2.00000000    0.01000000
   14.73888874  127.32099915    2.00000000    0.01000000
   14.74194431  123.79100037    2.00000000    0.01000000
   14.74527836  128.83700562    2.00000000    0.01000000
   14.74833393  118.44100189    2.00000000    0.01000000
   14.75166702  100.81099701    2.00000000    0.01000000
   14.75472260  108.63300323    2.00000000    0.01000000
   14.75805569  106.56700134    2.00000000    0.01000000
   14.76111126  128.23899841    2.00000000    0.01000000
   14.76638889  128.23899841    2.00000000    0.01000000
   14.77055550  116.60800171    2.00000000    0.01000000
   14.77361107  127.99600220    2.00000000    0.01000000
   14.77499962  103.33999634    2.00000000    0.01000000
   14.77722168  109.95500183    2.00000000    0.01000000
   14.78027725  120.99600220    2.00000000    0.01000000
   14.78361130  122.83599854    2.00000000    0.01000000
   14.78666687  123.18199921    2.00000000    0.01000000
   14.79000092  113.32399750    2.00000000    0.01000000
   14.79305553  135.39300537    2.00000000    0.01000000
   14.79638958  122.11299896    2.00000000    0.01000000
   14.79944515  139.60899353    2.00000000    0.01000000
   14.80277824  129.41900635    2.00000000    0.01000000
   14.80583382  153.78599548    2.00000000    0.01000000
   14.80916691  125.03600311    2.00000000    0.01000000
   14.81222248  123.47899628    2.00000000    0.01000000
   14.81777763  123.47899628    2.00000000    0.01000000
   14.82166672  134.34100342    2.00000000    0.01000000
   14.82499981  150.04299927    2.00000000    0.01000000
   14.82527733  134.33299255    2.00000000    0.01000000
   14.82861137  159.71800232    2.00000000    0.01000000
   14.83166695  163.46400452    2.00000000    0.01000000
   14.83500004  142.77000427    2.00000000    0.01000000
   14.83805561  182.34800720    2.00000000    0.01000000
   14.84138870  152.68200684    2.00000000    0.01000000
   14.84444427  157.14199829    2.00000000    0.01000000
   14.84777737  173.46600342    2.00000000    0.01000000
   14.85083389  168.19999695    2.00000000    0.01000000
   14.85416698  169.46899414    2.00000000    0.01000000
   14.85722256  148.21800232    2.00000000    0.01000000
   14.86055565  142.17399597    2.00000000    0.01000000
   14.86361122  139.04299927    2.00000000    0.01000000
   14.86888885  139.04299927    2.00000000    0.01000000
   14.87305546  133.17500305    2.00000000    0.01000000
   14.87555599  130.24699402    2.00000000    0.01000000
   14.87638855  165.01199341    2.00000000    0.01000000
   14.87944412  178.62899780    2.00000000    0.01000000
   14.88277817  145.56900024    2.00000000    0.01000000
   14.88583279  167.10800171    2.00000000    0.01000000
   14.88916683  164.72399902    2.00000000    0.01000000
   14.89222240  151.80400085    2.00000000    0.01000000
   14.89555550  154.08200073    2.00000000    0.01000000
   14.89888859  140.35200500    2.00000000    0.01000000
   14.90194416  131.84800720    2.00000000    0.01000000
   14.90499973  147.99099731    2.00000000    0.01000000
   14.90833282  122.18099976    2.00000000    0.01000000
   14.91138840  141.29100037    2.00000000    0.01000000
   14.91472149  185.19900513    2.00000000    0.01000000
   14.92000008  185.19900513    2.00000000    0.01000000
   14.92416668  156.43899536    2.00000000    0.01000000
   14.92555618  125.83399963    2.00000000    0.01000000
   14.92750072  158.26199341    2.00000000    0.01000000
   14.93055630  284.60900879    2.00000000    0.01000000
   14.93388939  233.74899292    2.00000000    0.01000000
   14.93694496  232.22700500    2.00000000    0.01000000
   14.94027805  164.10400391    2.00000000    0.01000000
   14.94333363  238.54100037    2.00000000    0.01000000
   14.94666672  291.42898560    2.00000000    0.01000000
   14.94972229  328.75299072    2.00000000    0.01000000
   14.95305538  313.96600342    2.00000000    0.01000000
   14.95611095  387.74499512    2.00000000    0.01000000
   14.95833302  233.29100037    2.00000000    0.01000000
   14.95833302  328.75299072    2.00000000    0.01000000
   14.95833302  313.96600342    2.00000000    0.01000000
   14.95861053  387.74499512    2.00000000    0.01000000
   14.95861053  284.60900879    2.00000000    0.01000000
   14.95861053  233.74899292    2.00000000    0.01000000
   14.95888901  232.22700500    2.00000000    0.01000000
   14.95888901  164.10400391    2.00000000    0.01000000
   14.95888901  238.54100037    2.00000000    0.01000000
   14.95916653  291.42898560    2.00000000    0.01000000
   14.96111107  364.77398682    2.00000000    0.01000000
   14.96305561  297.44699097    2.00000000    0.01000000
   14.96500015  303.03900146    2.00000000    0.01000000
   14.96805477  392.38400269    2.00000000    0.01000000
   14.96999931  260.82501221    2.00000000    0.01000000
   14.97027779  303.03900146    2.00000000    0.01000000
   14.97027779  392.38400269    2.00000000    0.01000000
   14.97222137  296.81298828    2.00000000    0.01000000
   14.97527695  186.39900208    2.00000000    0.01000000
   14.97861099  338.81900024    2.00000000    0.01000000
   14.98166656  312.37200928    2.00000000    0.01000000
   14.98500061  471.51098633    2.00000000    0.01000000
   14.98694515  347.85800171    2.00000000    0.01000000
   14.98833370  279.39300537    2.00000000    0.01000000
   14.98833370  296.81298828    2.00000000    0.01000000
   14.98833370  186.39900208    2.00000000    0.01000000
   14.98861122  338.81900024    2.00000000    0.01000000
   14.98861122  312.37200928    2.00000000    0.01000000
   14.98861122  471.51098633    2.00000000    0.01000000
   14.98972225  377.26800537    2.00000000    0.01000000
   14.99166679  484.64099121    2.00000000    0.01000000
   14.99305534  428.86599731    2.00000000    0.01000000
   14.99444485  198.30200195    2.00000000    0.01000000
   14.99444485  377.26800537    2.00000000    0.01000000
   14.99499989  276.67498779    2.00000000    0.01000000
   14.99833393  341.39498901    2.00000000    0.01000000
   15.00138855  250.45599365    2.00000000    0.01000000
   15.00472260  215.04299927    2.00000000    0.01000000
   15.00777817  405.02099609    2.00000000    0.01000000
   15.00972176  262.86499023    2.00000000    0.01000000
   15.01000023  276.67498779    2.00000000    0.01000000
   15.01000023  341.39498901    2.00000000    0.01000000
   15.01000023  250.45599365    2.00000000    0.01000000
   15.01027775  215.04299927    2.00000000    0.01000000
   15.01027775  405.02099609    2.00000000    0.01000000
   15.01222229  228.46400452    2.00000000    0.01000000
   15.01527786  184.69200134    2.00000000    0.01000000
   15.01861095  188.04299927    2.00000000    0.01000000
   15.02166653  179.51400757    2.00000000    0.01000000
   15.02472210  212.42700195    2.00000000    0.01000000
   15.02805519  219.30900574    2.00000000    0.01000000
   15.03111076  325.48800659    2.00000000    0.01000000
   15.03444481  221.87100220    2.00000000    0.01000000
   15.03888893  221.87100220    2.00000000    0.01000000
   15.04305553  299.45700073    2.00000000    0.01000000
   15.04611111  237.67399597    2.00000000    0.01000000
   15.04944515  251.95300293    2.00000000    0.01000000
   15.05249977  178.20899963    2.00000000    0.01000000
   15.05583382  190.85099792    2.00000000    0.01000000
   15.05888939  209.66499329    2.00000000    0.01000000
   15.06027794  165.99099731    2.00000000    0.01000000
   15.06222248  169.02600098    2.00000000    0.01000000
