    HOUR (UT)   FLARE FACTOR    SKY TESTER    SUN TESTER
   11.61027813   -1.00000000   -1.00000000   -1.00000000
   11.67250061   73.23429871    4.90999985    2.86999989
   11.67555618   77.68840027    4.90999985    2.89000010
   11.67888927   74.56610107    4.90999985    2.89000010
   11.68194485   73.42960358    4.90999985    2.91000009
   11.68500042   73.10610199    4.90999985    2.91000009
   11.68833351   73.97339630    4.90999985    2.89000010
   11.69138908   75.96140289    4.90999985    2.89000010
   11.69472218   74.37020111    4.90999985    2.89000010
   11.70111084   74.37020111    4.90999985    2.89000010
   11.70499992   73.43879700    4.90999985    2.89000010
   11.70833302   74.99469757    4.90999985    2.91000009
   11.71138859   73.29080200    4.90999985    2.89000010
   11.71444416   75.59580231    4.90999985    2.89000010
   11.71777725   81.28549957    4.90999985    2.91000009
   11.72083282   77.06700134    4.90999985    2.89000010
   11.72249985   79.06359863    4.90999985    2.89000010
   11.72444439   76.90489960    4.90999985    2.89000010
   11.72777748   81.40160370    4.90999985    2.89000010
   11.73083305   78.08769989    4.90999985    2.89000010
   11.73388958   79.07350159    4.90999985    2.89000010
   11.73722267   78.09799957    4.90999985    2.89000010
   11.74027824   77.81359863    4.90999985    2.91000009
   11.74333382   75.13289642    4.90999985    2.89000010
   11.74666691   75.39279938    4.90999985    2.91000009
   11.75222206   75.39279938    4.90999985    2.91000009
   11.75638866   75.77960205    4.90999985    2.91000009
   11.75944424   75.59860229    4.90999985    2.91000009
   11.76249981   78.22599792    4.90999985    2.91000009
   11.76583290   77.38600159    4.90999985    2.91000009
   11.76888847   76.99340057    4.90999985    2.91000009
   11.77194405   80.63269806    4.90999985    2.91000009
   11.77250004   78.30709839    4.90999985    2.91000009
   11.77583313   80.54560089    4.90999985    2.91000009
   11.77888870   77.63359833    4.90999985    2.91000009
   11.78194427   77.91840363    4.90999985    2.91000009
   11.78527832   77.84100342    4.90999985    2.91000009
   11.78833389   76.96379852    4.90999985    2.91000009
   11.79166698   76.47560120    4.90999985    2.91000009
   11.79472256   78.56490326    4.90999985    2.91000009
   11.79777813   78.40350342    4.90999985    2.91000009
   11.80333328   78.40350342    4.90999985    2.91000009
   11.80749989   78.52770233    4.90999985    2.91000009
   11.81055546   77.00090027    4.90999985    2.91000009
   11.81416702   76.93990326    4.90999985    2.93000007
   11.81722260   75.03029633    4.90999985    2.91000009
   11.82027817   79.18990326    4.90999985    2.91000009
   11.82250023   77.71970367    4.90999985    2.91000009
   11.82388878   78.18840027    4.90999985    2.91000009
   11.82694435   78.32589722    4.90999985    2.91000009
   11.82999992   78.76460266    4.90999985    2.91000009
   11.83333302   79.97570038    4.90999985    2.91000009
   11.83638859   81.65540314    4.90999985    2.93000007
   11.83972168   79.17500305    4.90999985    2.91000009
   11.84277725   77.46800232    4.90999985    2.91000009
   11.84583282   77.57620239    4.90999985    2.93000007
   11.84916592   80.60089874    4.90999985    2.93000007
   11.85444450   80.60089874    4.90999985    2.91000009
   11.85861111   75.75340271    4.90999985    2.91000009
   11.86166668   79.60099792    4.90999985    2.93000007
   11.86500072   77.53530121    4.90999985    2.93000007
   11.86805534   76.72949982    4.90999985    2.93000007
   11.87138939   75.70680237    4.90999985    2.93000007
   11.87250042   75.62020111    4.90999985    2.91000009
   11.87500000   76.08470154    4.90999985    2.93000007
   11.87805557   79.26640320    4.90999985    2.93000007
   11.88111115   77.40399933    4.90999985    2.93000007
   11.88444424   80.20059967    4.90999985    2.93000007
   11.88749981   76.39129639    4.90999985    2.93000007
   11.89083290   75.97080231    4.90999985    2.93000007
   11.89388847   79.59089661    4.90999985    2.94000006
   11.89722252   76.02610016    4.90999985    2.93000007
   11.90027714   76.00920105    4.90999985    2.93000007
   11.90583324   76.00920105    4.90999985    2.93000007
   11.90972137   78.14579773    4.90999985    2.93000007
   11.91305542   79.13069916    4.90999985    2.93000007
   11.91611099   78.16369629    4.90999985    2.93000007
   11.91916656   75.76470184    4.90999985    2.93000007
   11.92250061   76.19629669    4.90999985    2.94000006
   11.92305565   75.73120117    4.90999985    2.94000006
   11.92611122   76.43520355    4.90999985    2.93000007
   11.92916679   76.07599640    4.90999985    2.94000006
   11.93249989   75.71530151    4.90999985    2.93000007
   11.93555546   73.97879791    4.90999985    2.93000007
   11.93888855   77.70600128    4.90999985    2.93000007
   11.94194412   75.05609894    4.90999985    2.93000007
   11.94499969   76.09400177    4.90999985    2.91000009
   11.94833374   74.81559753    4.90999985    2.93000007
   11.95138836   78.48349762    4.90999985    2.93000007
   11.95694447   78.48349762    4.90999985    2.94000006
   11.96111107   83.25240326    4.90999985    2.93000007
   11.96416664   79.75569916    4.90999985    2.94000006
   11.96722221   80.16429901    4.90999985    2.94000006
   11.97055531   77.39990234    4.90999985    2.94000006
   11.97305489   75.27390289    4.90999985    2.94000006
   11.97388840   77.61370087    4.90999985    2.93000007
   11.97694397   77.62490082    4.90999985    2.94000006
   11.98027706   78.07140350    4.90999985    2.94000006
   11.98333359   80.71669769    4.90999985    2.93000007
   11.98666668   77.79360199    4.90999985    2.93000007
   11.98972225   78.44879913    4.90999985    2.94000006
   11.99277782   79.80090332    4.90999985    2.94000006
   11.99611092   79.75450134    4.90999985    2.94000006
   11.99916649   77.09089661    4.90999985    2.94000006
   12.00249958   74.57340240    4.90999985    2.94000006
   12.00805569   74.57340240    4.90999985    2.93000007
   12.01222229   76.35109711    4.90999985    2.94000006
   12.01527786   74.23449707    4.90999985    2.94000006
   12.01861095   78.55280304    4.90999985    2.94000006
   12.02166653   75.82340240    4.90999985    2.94000006
   12.02305508   74.84970093    4.90999985    2.94000006
   12.02583313   77.57430267    4.90999985    2.94000006
   12.02999973   76.11399841    4.90999985    2.94000006
   12.03333378   74.43009949    4.90999985    2.94000006
   12.03638935   77.25520325    4.90999985    2.94000006
   12.04138947   77.77780151    4.90999985    2.94000006
   12.04527855   75.15070343    4.90999985    2.94000006
   12.04888916   75.18640137    4.90999985    2.94000006
   12.05222225   77.11560059    4.90999985    2.94000006
   12.05749989   75.02469635    4.90999985    2.94000006
   12.06194496   75.02469635    4.90999985    2.94000006
   12.06722260   76.31320190    4.90999985    2.94000006
   12.07111073   76.59549713    4.90999985    2.94000006
   12.07388878   76.79440308    4.90999985    2.94000006
   12.07555580   75.69100189    4.90999985    2.94000006
   12.07861137   79.10359955    4.90999985    2.94000006
   12.08194447   76.72219849    4.90999985    2.94000006
   12.08527756   76.33129883    4.90999985    2.96000004
   12.08861065   76.01190186    4.90999985    2.96000004
   12.09194374   78.35810089    4.90999985    2.94000006
   12.09499931   79.21240234    4.90999985    2.94000006
   12.09833336   78.93640137    4.90999985    2.94000006
   12.10138893   77.39060211    4.90999985    2.94000006
   12.10472298   79.06109619    4.90999985    2.94000006
   12.10777855   79.13860321    4.90999985    2.96000004
   12.11277771   79.13860321    4.90999985    2.94000006
   12.11694431   80.60389709    4.90999985    2.94000006
   12.11999989   75.21910095    4.90999985    2.96000004
   12.12333393   78.10160065    4.90999985    2.96000004
   12.12388897   77.41159821    4.90999985    2.96000004
   12.12694454   76.67990112    4.90999985    2.94000006
   12.13055611   80.83360291    4.90999985    2.98000002
   12.13361073   78.64800262    4.90999985    2.96000004
   12.13694477   80.14420319    4.90999985    2.96000004
   12.14000034   76.87200165    4.90999985    2.96000004
   12.14333344   73.95010376    4.90999985    2.94000006
   12.14638901   75.76969910    4.90999985    2.96000004
   12.14999962   73.27529907    4.90999985    2.94000006
   12.15333271   81.65560150    4.90999985    2.96000004
   12.15638828   78.52159882    4.90999985    2.96000004
   12.16111088   79.87660217    4.90999985    2.96000004
   12.16833401   79.87660217    4.90999985    2.98000002
   12.17277813   75.81340027    4.90999985    2.98000002
   12.17472267   76.91899872    4.90999985    2.96000004
   12.17638874   78.38539886    4.90999985    2.96000004
   12.17972279   77.05130005    4.90999985    2.96000004
   12.18277836   78.86620331    4.90999985    2.96000004
   12.18611145   79.80300140    4.90999985    2.96000004
   12.18944454   77.87609863    4.90999985    2.96000004
   12.19250011   77.14230347    4.90999985    2.96000004
   12.19583321   73.86100006    4.90999985    2.96000004
   12.19888878   77.47399902    4.90999985    2.98000002
   12.20222187   76.82859802    4.90999985    2.96000004
   12.20555496   74.98290253    4.90999985    2.98000002
   12.20861053   76.17279816    4.90999985    2.96000004
   12.21194458   76.15480042    4.90999985    2.96000004
   12.21666622   76.15480042    4.90999985    2.96000004
   12.22083282   75.06479645    4.90999985    2.96000004
   12.22416592   77.62729645    4.90999985    2.96000004
   12.22499943   76.87359619    4.90999985    2.98000002
   12.22777748   79.38050079    4.90999985    2.96000004
   12.23111057   77.56710052    4.90999985    2.96000004
   12.23444462   78.78320313    4.90999985    2.98000002
   12.23777771   75.53520203    4.90999985    2.98000002
   12.24111176   73.82559967    4.90999985    2.98000002
   12.24416733   73.70469666    4.90999985    2.98000002
   12.24750042   76.93730164    4.90999985    2.98000002
   12.25083351   75.83419800    4.90999985    2.96000004
   12.25388908   76.76779938    4.90999985    2.96000004
   12.25722218   77.36199951    4.90999985    2.96000004
   12.26055527   77.61830139    4.90999985    2.98000002
   12.26361084   76.29350281    4.90999985    2.98000002
   12.26777744   76.29350281    4.90999985    2.98000002
   12.27222157   74.34359741    4.90999985    2.98000002
   12.27499962   76.64900208    4.90999985    2.96000004
   12.27583313   78.79270172    4.90999985    2.98000002
   12.27944374   77.51219940    4.90999985    2.98000002
   12.28249931   80.52639771    4.90999985    2.98000002
   12.28583336   76.22779846    4.90999985    2.96000004
   12.28888893   77.39440155    4.90999985    2.98000002
   12.29222298   80.84329987    4.90999985    2.98000002
   12.29527855   77.56680298    4.90999985    2.98000002
   12.29861164   76.81410217    4.90999985    2.96000004
   12.30166721   75.04070282    4.90999985    2.98000002
   12.30500031   74.90399933    4.90999985    2.98000002
   12.30833340   78.46640015    4.90999985    2.98000002
   12.31138897   78.99400330    4.90999985    2.98000002
   12.31444454   74.69989777    4.90999985    2.98000002
   12.31916618   74.69989777    4.90999985    2.98000002
   12.32305527   75.53289795    4.90999985    2.98000002
   12.32472229   76.76869965    4.90999985    2.98000002
   12.32694435   76.74340057    4.90999985    2.98000002
   12.32999992   77.63189697    4.90999985    2.98000002
   12.33333302   78.13449860    4.90999985    2.98000002
   12.33638859   78.24829865    4.90999985    3.00000000
   12.33972168   77.08209991    4.90999985    3.00000000
   12.34277725   77.61250305    4.90999985    3.00000000
   12.34611034   81.15609741    4.90999985    3.00000000
   12.34916592   82.30249786    4.90999985    2.98000002
   12.35249996   77.25109863    4.90999985    2.98000002
   12.35555553   75.72979736    4.90999985    2.98000002
   12.35888958   77.67790222    4.90999985    3.00000000
   12.36222267   76.86219788    4.90999985    2.98000002
   12.36583328   77.55729675    4.90999985    2.98000002
   12.37027836   77.55729675    4.90999985    2.98000002
   12.37444496   78.35310364    4.90999985    3.00000000
   12.37500000   78.31240082    4.90999985    3.00000000
   12.37777805   77.40139771    4.90999985    2.98000002
   12.38083363   75.28990173    4.90999985    3.00000000
   12.38416672   75.27179718    4.90999985    3.00000000
   12.38722229   72.12419891    4.90999985    2.98000002
   12.39055538   77.43470001    4.90999985    3.00000000
   12.39361095   77.09880066    4.90999985    2.98000002
   12.39777756   80.00700378    4.90999985    2.98000002
   12.40111065   79.57080078    4.90999985    2.98000002
   12.40444374   82.23139954    4.90999985    3.00000000
   12.40749931   80.50930023    4.90999985    3.00000000
   12.41083336   76.55639648    4.90999985    3.00000000
   12.41416645   77.08979797    4.90999985    2.98000002
   12.41750050   74.70570374    4.90999985    3.00000000
   12.42166710   74.70570374    4.90999985    3.00000000
   12.42611122   77.22930145    4.90999985    3.00000000
   12.42944431   74.59190369    4.90999985    3.00000000
   12.43277836   73.03440094    4.90999985    3.00000000
   12.43583298   77.31529999    4.90999985    3.00000000
   12.43916702   75.05580139    4.90999985    3.00000000
   12.44250011   76.97570038    4.90999985    3.00000000
   12.44555569   76.80310059    4.90999985    3.00000000
   12.44888878   78.88030243    4.90999985    3.00000000
   12.45194435   81.79850006    4.90999985    3.00000000
   12.45527744   76.02310181    4.90999985    3.00000000
   12.45833302   77.11920166    4.90999985    3.00000000
   12.46166611   77.19270325    4.90999985    3.00000000
   12.46500015   76.04759979    4.90999985    3.00000000
   12.46833324   74.51219940    4.90999985    3.00000000
   12.47277737   74.51219940    4.90999985    3.00000000
   12.47694397   78.63809967    4.90999985    3.00000000
   12.47999954   82.82150269    4.90999985    3.00000000
   12.48333359   74.66480255    4.90999985    3.00000000
   12.48666668   72.81529999    4.90999985    3.00000000
   12.48972225   76.08070374    4.90999985    3.00000000
   12.49305534   76.89990234    4.90999985    3.00000000
   12.49638939   76.39810181    4.90999985    3.00000000
   12.49944496   78.53829956    4.90999985    3.00000000
   12.50277805   75.58439636    4.90999985    3.00000000
   12.50611115   76.86360168    4.90999985    3.00000000
   12.50916672   75.99079895    4.90999985    3.00000000
   12.51249981   75.45989990    4.90999985    3.00000000
   12.51555538   76.76229858    4.90999985    3.00000000
   12.51944447   76.03019714    4.90999985    3.01999998
   12.52388859   76.03019714    4.90999985    3.01999998
   12.52805519   76.88420105    4.90999985    3.00000000
   12.53138828   82.53089905    4.90999985    3.00000000
   12.53444481   77.49210358    4.90999985    3.00000000
   12.53777790   77.06649780    4.90999985    3.00000000
   12.54111195   75.52639771    4.90999985    3.01999998
   12.54416752   73.70670319    4.90999985    3.00000000
   12.54750061   76.74030304    4.90999985    3.00000000
   12.55055618   73.72709656    4.90999985    3.01999998
   12.55388927   77.38099670    4.90999985    3.01999998
   12.55694485   81.75209808    4.90999985    3.01999998
   12.56027794   76.24579620    4.90999985    3.00000000
   12.56361103   79.74649811    4.90999985    3.00000000
   12.56666660   78.01619720    4.90999985    3.00000000
   12.56999969   76.36599731    4.90999985    3.00000000
   12.57527733   76.36599731    4.90999985    3.00000000
   12.57944393   76.19960022    4.90999985    3.00000000
   12.58249950   75.02349854    4.90999985    3.00000000
   12.58583260   76.89379883    4.90999985    3.01999998
   12.58916664   75.13459778    4.90999985    3.01999998
   12.59388828   78.28659821    4.90999985    3.01999998
   12.59861088   75.55300140    4.90999985    3.00000000
   12.60500050   75.72560120    4.90999985    3.01999998
   12.61166668   75.98549652    4.90999985    3.01999998
   12.61555576   79.35009766    4.90999985    3.01999998
   12.61888885   80.02380371    4.90999985    3.01999998
   12.62222195   81.26699829    4.90999985    3.01999998
   12.62972260   81.26699829    4.90999985    3.01999998
   12.63388920   77.67919922    4.90999985    3.01999998
   12.63722229   81.24199677    4.90999985    3.01999998
   12.64055538   77.39939880    4.90999985    3.00000000
   12.64527798   77.38729858    4.90999985    3.01999998
   12.64833355   78.67169952    4.90999985    3.01999998
   12.65166664   78.09750366    4.90999985    3.01999998
   12.65499973   79.23819733    4.90999985    3.01999998
   12.65805531   77.28019714    4.90999985    3.01999998
   12.66138840   77.42680359    4.90999985    3.01999998
   12.66472149   81.18499756    4.90999985    3.01999998
   12.66805553   83.88339996    4.90999985    3.01999998
   12.67111111   74.61889648    4.90999985    3.01999998
   12.69000053   79.51740265    4.90999985    3.01999998
   12.69444466   79.51740265    4.90999985    3.01999998
   12.69861126   77.27950287    4.90999985    3.01999998
   12.70166683   78.21369934    4.90999985    3.01999998
   12.70499992   80.77639771    4.90999985    3.01999998
   12.70805550   81.52169800    4.90999985    3.01999998
   12.71138859   85.27369690    4.90999985    3.01999998
   12.71444416   76.99970245    4.90999985    3.01999998
   12.71777725   78.07740021    4.90999985    3.01999998
   12.72249985   79.21679688    4.90999985    3.01999998
   12.72583294   80.91519928    4.90999985    3.01999998
   12.72944355   76.30280304    4.90999985    3.03999996
   12.73305511   76.09030151    4.90999985    3.03999996
   12.73638916   79.58940125    4.90999985    3.01999998
   12.73972225   79.39019775    4.90999985    3.01999998
   12.74027824   76.33789825    4.90999985    3.01999998
   12.74611092   76.33789825    4.90999985    3.01999998
   12.75055599   79.05249786    4.90999985    3.01999998
   12.75444412   75.84519958    4.90999985    3.01999998
   12.75833321   75.27919769    4.90999985    3.01999998
   12.76194477   75.27290344    4.90999985    3.03999996
   12.76583290   73.69840240    4.90999985    3.03999996
   12.76916599   75.61090088    4.90999985    3.03999996
   12.77222157   76.71980286    4.90999985    3.03999996
   12.77583313   79.19950104    4.90999985    3.03999996
   12.77916622   75.64459991    4.90999985    3.01999998
   12.78249931   75.97560120    4.90999985    3.03999996
   12.78583336   80.60630035    4.90999985    3.05999994
   12.78888893   78.19290161    4.90999985    3.01999998
   12.79055595   78.40950012    4.90999985    3.03999996
   12.79250050   80.27999878    4.90999985    3.01999998
   12.79805565   80.27999878    4.90999985    3.03999996
   12.80249977   74.80509949    4.90999985    3.03999996
   12.80583382   75.96690369    4.90999985    3.03999996
   12.80916691   77.86750031    4.90999985    3.03999996
   12.81250000   78.85829926    4.90999985    3.03999996
   12.81555557   77.52819824    4.90999985    3.01999998
   12.81888866   77.90270233    4.90999985    3.03999996
   12.82194424   79.62860107    4.90999985    3.03999996
   12.82583332   75.99770355    4.90999985    3.03999996
   12.82916641   74.44159698    4.90999985    3.03999996
   12.83249950   75.14550018    4.90999985    3.05999994
   12.83555508   73.94210052    4.90999985    3.03999996
   12.83888817   77.77919769    4.90999985    3.03999996
   12.84055519   74.67630005    4.90999985    3.03999996
   12.84249973   74.90889740    4.90999985    3.03999996
   12.84805489   74.90889740    4.90999985    3.03999996
   12.85194492   76.35569763    4.90999985    3.03999996
   12.85527802   74.90090179    4.90999985    3.03999996
   12.85833359   76.66200256    4.90999985    3.03999996
   12.86166668   73.48049927    4.90999985    3.03999996
   12.86500072   77.67980194    4.90999985    3.03999996
   12.86833382   74.49179840    4.90999985    3.03999996
   12.87166691   77.11889648    4.90999985    3.01999998
   12.87472248   76.60169983    4.90999985    3.01999998
   12.87805557   74.85079956    4.90999985    3.03999996
   12.88138866   80.48580170    4.90999985    3.03999996
   12.88444424   76.69309998    4.90999985    3.03999996
   12.88777733   76.54270172    4.90999985    3.03999996
   12.89083290   75.59110260    4.90999985    3.03999996
   12.89166641   76.13600159    4.90999985    3.03999996
   12.89472198   76.72640228    4.90999985    3.03999996
   12.89916611   76.72640228    4.90999985    3.03999996
   12.90388870   82.76979828    4.90999985    3.03999996
   12.90777779   72.19879913    4.90999985    3.05999994
   12.91138840   74.74490356    4.90999985    3.03999996
   12.91472149   77.86799622    4.90999985    3.03999996
   12.91833401   75.61650085    4.90999985    3.03999996
   12.92194462   73.60720062    4.90999985    3.03999996
   12.92555618   75.85639954    4.90999985    3.03999996
   12.92916679   73.11070251    4.90999985    3.03999996
   12.93277836   76.78250122    4.90999985    3.03999996
   12.93694496   74.30840302    4.90999985    3.01999998
   12.94055557   75.96440125    4.90999985    3.03999996
   12.94194412   78.40789795    4.90999985    3.05999994
   12.94555569   75.58489990    4.90999985    3.03999996
   12.95111084   75.58489990    4.90999985    3.03999996
   12.95583344   74.54070282    4.90999985    3.03999996
   12.96000004   79.97119904    4.90999985    3.03999996
   12.96361065   76.71779633    4.90999985    3.03999996
   12.96722221   78.66030121    4.90999985    3.03999996
   12.97138882   73.49539948    4.90999985    3.05999994
   12.97555542   75.85990143    4.90999985    3.05999994
   12.97944355   75.98200226    4.90999985    3.05999994
   12.98361111   76.72660065    4.90999985    3.05999994
   12.98694515   76.71829987    4.90999985    3.03999996
   12.99027824   79.24819946    4.90999985    3.03999996
   12.99166679   75.95790100    4.90999985    3.03999996
   12.99472237   78.25150299    4.90999985    3.03999996
   12.99805546   77.09649658    4.90999985    3.03999996
   13.00249958   77.09649658    4.90999985    3.03999996
   13.00666714   75.86419678    4.90999985    3.03999996
   13.01000023   78.41770172    4.90999985    3.05999994
   13.01333332   78.64170074    4.90999985    3.05999994
   13.01666641   79.04149628    4.90999985    3.05999994
   13.01972198   79.12249756    4.90999985    3.05999994
   13.02305508   82.22160339    4.90999985    3.03999996
   13.02638817   83.99759674    4.90999985    3.05999994
   13.02972221   78.85299683    4.90999985    3.03999996
   13.03305531   77.30290222    4.90999985    3.05999994
   13.03666687   76.54540253    4.90999985    3.03999996
   13.03972244   76.92400360    4.90999985    3.05999994
   13.04138947   77.60520172    4.90999985    3.05999994
   13.04416752   77.95729828    4.90999985    3.03999996
   13.04750061   82.49659729    4.90999985    3.05999994
   13.05361176   82.49659729    4.90999985    3.03999996
   13.05805588   76.60019684    4.90999985    3.05999994
   13.06111145   76.24400330    4.90999985    3.05999994
   13.06444454   78.04820251    4.90999985    3.05999994
   13.06777763   80.02439880    4.90999985    3.05999994
   13.07111073   77.03050232    4.90999985    3.05999994
   13.07444477   78.70770264    4.90999985    3.03999996
   13.07777786   76.01689911    4.90999985    3.05999994
   13.08111095   76.09149933    4.90999985    3.05999994
   13.08444405   77.25009918    4.90999985    3.05999994
   13.08777714   78.52040100    4.90999985    3.05999994
   13.09111118   74.59780121    4.90999985    3.05999994
   13.09194374   76.80570221    4.90999985    3.03999996
   13.09527779   78.59670258    4.90999985    3.03999996
   13.09888840   78.56909943    4.90999985    3.03999996
   13.10500050   78.56909943    4.90999985    3.07999992
   13.10916710   73.06469727    4.90999985    3.05999994
   13.11250019   74.92639923    4.90999985    3.07999992
   13.11583328   74.54669952    4.90999985    3.05999994
   13.11944485   73.59130096    4.90999985    3.05999994
   13.12277794   77.12650299    4.90999985    3.07999992
   13.12611103   82.06120300    4.90999985    3.07999992
   13.13000011   81.51370239    4.90999985    3.07999992
   13.13305569   75.67579651    4.90999985    3.05999994
   13.13638878   77.69059753    4.90999985    3.05999994
   13.13944435   78.39700317    4.90999985    3.05999994
   13.14166641   79.80030060    4.90999985    3.05999994
   13.14333344   79.96530151    4.90999985    3.05999994
   13.14666653   76.46640015    4.90999985    3.05999994
   13.14999962   76.38359833    4.90999985    3.05999994
   13.15638828   76.38359833    4.90999985    3.07999992
   13.16083336   76.62259674    4.90999985    3.07999992
   13.16416645   80.20259857    4.90999985    3.07999992
   13.16750050   78.53230286    4.90999985    3.05999994
   13.17083359   80.71859741    4.90999985    3.07999992
   13.17388916   78.60260010    4.90999985    3.07999992
   13.17722225   79.33679962    4.90999985    3.07999992
   13.18055630   78.35089874    4.90999985    3.05999994
   13.18416691   82.42680359    4.90999985    3.05999994
   13.18722248   77.63500214    4.90999985    3.05999994
   13.19083309   74.24479675    4.90999985    3.05999994
   13.19499969   83.97460175    4.90999985    3.07999992
   13.19861126   76.13469696    4.90999985    3.07999992
   13.20222187   75.00559998    4.90999985    3.07999992
   13.21000004   75.00559998    4.90999985    3.07999992
   13.21472168   76.64839935    4.90999985    3.07999992
   13.21805477   78.08390045    4.90999985    3.07999992
   13.22166634   78.37290192    4.90999985    3.07999992
   13.22499943   77.49220276    4.90999985    3.07999992
   13.22833252   79.13430023    4.90999985    3.07999992
   13.23138809   81.25910187    4.90999985    3.07999992
   13.23472214   78.02880096    4.90999985    3.07999992
   13.23777771   79.58390045    4.90999985    3.07999992
   13.24111176   70.85820007    4.90999985    3.07999992
   13.24305534   73.59649658    4.90999985    3.07999992
   13.24499989   80.49819946    4.90999985    3.07999992
   13.24833393   74.94619751    4.90999985    3.07999992
   13.25166702   84.43910217    4.90999985    3.07999992
   13.25888920   84.43910217    4.90999985    3.07999992
   13.26305580   74.97029877    4.90999985    3.07999992
   13.26611137   73.11109924    4.90999985    3.05999994
   13.26944447   83.76090240    4.90999985    3.07999992
   13.27250004   74.78070068    4.90999985    3.05999994
   13.27555561   79.15709686    4.90999985    3.05999994
   13.27888870   69.91729736    4.90999985    3.05999994
   13.28194427   78.83979797    4.90999985    3.03999996
   13.28527832   76.76730347    4.90999985    3.07999992
   13.28833389   73.07900238    4.90999985    3.07999992
   13.29138947   77.99060059    4.90999985    3.07999992
   13.29250050   79.98139954    4.90999985    3.07999992
   13.29500008   82.86229706    4.90999985    3.07999992
   13.29833412   77.62120056    4.90999985    3.07999992
   13.30138874   80.79920197    4.90999985    3.07999992
   13.30472279   77.44529724    4.90999985    3.07999992
   13.30916691   77.44529724    4.90999985    3.05999994
   13.31333351   73.32189941    4.90999985    3.07999992
   13.31666660   80.12940216    4.90999985    3.07999992
   13.31972218   77.80699921    4.90999985    3.07999992
   13.32277775   83.36419678    4.90999985    3.07999992
   13.32611084   76.89289856    4.90999985    3.07999992
   13.32916641   81.50430298    4.90999985    3.07999992
   13.33222198   80.88099670    4.90999985    3.07999992
   13.33555508   79.26460266    4.90999985    3.07999992
   13.33861065   75.11990356    4.90999985    3.07999992
   13.34194374   73.67849731    4.90999985    3.07999992
   13.34249973   76.30370331    4.90999985    3.07999992
   13.34527779   81.39409637    4.90999985    3.07999992
   13.34861088   75.92240143    4.90999985    3.07999992
   13.35166740   84.41909790    4.90999985    3.07999992
   13.35500050   79.92569733    4.90999985    3.07999992
   13.36055565   79.92569733    4.90999985    3.07999992
   13.36444473   78.86000061    4.90999985    3.07999992
   13.36777782   82.76789856    4.90999985    3.07999992
   13.37083340   77.05719757    4.90999985    3.07999992
   13.37416649   86.98439789    4.90999985    3.07999992
   13.37722206   93.18979645    4.90999985    3.07999992
   13.38027763   80.54450226    4.90999985    3.07999992
   13.38361073   83.07099915    4.90999985    3.09999990
   13.38666630   79.58059692    4.90999985    3.07999992
   13.39000034   79.13150024    4.90999985    3.07999992
   13.39249992   78.85369873    4.90999985    3.07999992
   13.39333344   76.50050354    4.90999985    3.05999994
   13.39666653   74.11730194    4.90999985    3.07999992
   13.39972210   75.78820038    4.90999985    3.07999992
   13.40305519   71.28189850    4.90999985    3.07999992
   13.40611076   73.00430298    4.90999985    3.07999992
   13.41166592   73.00430298    4.90999985    3.07999992
   13.41583252   78.83010101    4.90999985    3.07999992
   13.41888905   74.23670197    4.90999985    3.07999992
   13.42194462   74.26110077    4.90999985    3.07999992
   13.42527771   79.32460022    4.90999985    3.07999992
   13.42833328   78.37490082    4.90999985    3.07999992
   13.43166733   76.81289673    4.90999985    3.09999990
   13.43472195   77.25309753    4.90999985    3.07999992
   13.43777752   75.17350006    4.90999985    3.09999990
   13.44111156   77.49590302    4.90999985    3.07999992
   13.44250011   87.39289856    4.90999985    3.07999992
   13.44444466   77.57330322    4.90999985    3.07999992
   13.44777775   83.69339752    4.90999985    3.07999992
   13.45083332   83.45870209    4.90999985    3.07999992
   13.45416641   79.23100281    4.90999985    3.07999992
   13.45722198   79.58489990    4.90999985    3.07999992
   13.46277714   79.58489990    4.90999985    3.07999992
   13.46694374   83.03549957    4.90999985    3.07999992
   13.46999931   83.07659912    4.90999985    3.09999990
   13.47333336   74.34750366    4.90999985    3.09999990
   13.47638798   77.15769958    4.90999985    3.07999992
   13.47944355   76.48509979    4.90999985    3.07999992
   13.48277760   80.04949951    4.90999985    3.07999992
   13.48583317   84.22989655    4.90999985    3.09999990
   13.48916721   83.12300110    4.90999985    3.09999990
   13.49222279   83.79730225    4.90999985    3.07999992
   13.49277782   78.62750244    4.90999985    3.07999992
   13.49583340   87.71920013    4.90999985    3.07999992
   13.49916649   77.12500000    4.90999985    3.07999992
   13.50222206   84.10659790    4.90999985    3.07999992
   13.50527763   73.43360138    4.90999985    3.09999990
   13.50861073   80.69059753    4.90999985    3.09999990
   13.51388931   80.69059753    4.90999985    3.09999990
   13.51805496   87.67189789    4.90999985    3.07999992
   13.52138901   78.83070374    4.90999985    3.07999992
   13.52444458   77.90930176    4.90999985    3.09999990
   13.52750015   75.46299744    4.90999985    3.09999990
   13.53083324   83.04679871    4.90999985    3.07999992
   13.53388977   84.78240204    4.90999985    3.09999990
   13.53694534   80.93409729    4.90999985    3.07999992
   13.54027843   84.19020081    4.90999985    3.07999992
   13.54277802   80.74970245    4.90999985    3.07999992
   13.54361153   80.51339722    4.90999985    3.07999992
   13.54694462   81.11830139    4.90999985    3.09999990
   13.55000019   77.60060120    4.90999985    3.07999992
   13.55333328   80.55460358    4.90999985    3.07999992
   13.55638885   77.72669983    4.90999985    3.09999990
   13.55944443   85.62850189    4.90999985    3.09999990
   13.56527805   85.62850189    4.90999985    3.09999990
   13.56916618   88.62300110    4.90999985    3.09999990
   13.57250023   77.70939636    4.90999985    3.11999989
   13.57555580   76.99939728    4.90999985    3.09999990
   13.57888889   74.47399902    4.90999985    3.09999990
   13.58194447   78.05190277    4.90999985    3.07999992
   13.58500004   76.76280212    4.90999985    3.09999990
   13.58833313   73.82369995    4.90999985    3.09999990
   13.59138870   90.00550079    4.90999985    3.07999992
   13.59277725   80.66300201    4.90999985    3.07999992
   13.59472179   76.76889801    4.90999985    3.07999992
   13.59805489   77.81569672    4.90999985    3.09999990
   13.60111141   76.25530243    4.90999985    3.09999990
   13.60444450   80.42489624    4.90999985    3.09999990
   13.60750008   87.67250061    4.90999985    3.07999992
   13.61055565   78.58260345    4.90999985    3.09999990
   13.61638927   78.58260345    4.90999985    3.09999990
   13.62055588   82.53420258    4.90999985    3.09999990
   13.62361145   94.06169891    4.90999985    3.09999990
   13.62666702   83.67849731    4.90999985    3.07999992
   13.63000011   79.59510040    4.90999985    3.09999990
   13.63305569   84.72329712    4.90999985    3.07999992
   13.63638878   84.81310272    4.90999985    3.09999990
   13.63944435   81.16699982    4.90999985    3.09999990
   13.64249992   77.53630066    4.90999985    3.09999990
   13.64305496   84.72660065    4.90999985    3.09999990
   13.64611053   91.87000275    4.90999985    3.09999990
   13.64944458   84.51450348    4.90999985    3.09999990
   13.65249920   89.87879944    4.90999985    3.09999990
   13.65583324   83.90339661    4.90999985    3.09999990
   13.65888882   91.54450226    4.90999985    3.09999990
   13.66194439   88.00060272    4.90999985    3.09999990
   13.66750050   88.00060272    4.90999985    3.07999992
   13.67166710   98.03500366    4.90999985    3.09999990
   13.67472267   96.23609924    4.90999985    3.09999990
   13.67805576   88.90589905    4.90999985    3.09999990
   13.68111134   92.90679932    4.90999985    3.09999990
   13.68416691   90.98709869    4.90999985    3.09999990
   13.68750000   87.35980225    4.90999985    3.09999990
   13.69055557   83.34459686    4.90999985    3.09999990
   13.70749950   83.69529724    4.90999985    3.09999990
   13.71055508   79.02189636    4.90999985    3.09999990
   13.71361065   82.14019775    4.90999985    3.09999990
   13.71888828   82.14019775    4.90999985    3.09999990
   13.72305489   84.56719971    4.90999985    3.09999990
   13.72611046   85.97779846    4.90999985    3.09999990
   13.72944355   84.99749756    4.90999985    3.09999990
   13.73249912   82.22840118    4.90999985    3.09999990
   13.73583317   85.33709717    4.90999985    3.09999990
   13.73888874   81.63410187    4.90999985    3.09999990
   13.74194431   85.43340302    4.90999985    3.09999990
   13.74527836   78.66510010    4.90999985    3.11999989
   13.74833393   78.54370117    4.90999985    3.09999990
   13.75138855   79.67549896    4.90999985    3.09999990
   13.75472260   82.34179688    4.90999985    3.09999990
   13.75749969   74.60079956    4.90999985    3.09999990
   13.75805569   79.06220245    4.90999985    3.09999990
   13.76138878   84.50140381    4.90999985    3.09999990
   13.76444435   85.46089935    4.90999985    3.09999990
   13.77027798   85.46089935    4.90999985    3.09999990
   13.77416611   83.04160309    4.90999985    3.09999990
   13.77750015   79.81890106    4.90999985    3.09999990
   13.78055573   76.23000336    4.90999985    3.09999990
   13.78361130   80.37359619    4.90999985    3.09999990
   13.78694534   84.28450012    4.90999985    3.09999990
   13.79000092   78.92630005    4.90999985    3.09999990
   13.79333401   77.48500061    4.90999985    3.09999990
   13.79638958   77.45639801    4.90999985    3.09999990
   13.79944515   91.25890350    4.90999985    3.09999990
   13.80277824   83.01779938    4.90999985    3.09999990
   13.80583382   84.64489746    4.90999985    3.09999990
   13.80749989   81.65709686    4.90999985    3.11999989
   13.80916691   95.91500092    4.90999985    3.09999990
   13.81250000   86.62439728    4.90999985    3.09999990
   13.81555557   83.35459900    4.90999985    3.09999990
   13.82138920   83.35459900    4.90999985    3.09999990
   13.82527733   82.47579956    4.90999985    3.09999990
   13.82861137   73.88960266    4.90999985    3.09999990
   13.83166695   79.92379761    4.90999985    3.09999990
   13.83500004   77.64959717    4.90999985    3.09999990
   13.83805561   74.06199646    4.90999985    3.09999990
   13.84111118   72.70549774    4.90999985    3.09999990
   13.84444427   79.74250031    4.90999985    3.09999990
   13.84749985   82.62010193    4.90999985    3.09999990
   13.85083389   74.23709869    4.90999985    3.09999990
   13.85388947   78.85459900    4.90999985    3.09999990
   13.85694504   79.46630096    4.90999985    3.09999990
   13.85750008   74.62190247    4.90999985    3.09999990
   13.86055565   71.36759949    4.90999985    3.09999990
   13.86361122   83.44480133    4.90999985    3.11999989
   13.86666679   76.48750305    4.90999985    3.09999990
   13.87250042   76.48750305    4.90999985    3.11999989
   13.87666702   84.09459686    4.90999985    3.11999989
   13.87972260   85.97679901    4.90999985    3.09999990
   13.88277817   79.81999969    4.90999985    3.09999990
   13.88611126   76.04090118    4.90999985    3.11999989
   13.88916683   87.29139709    4.90999985    3.09999990
   13.89249992   81.80670166    4.90999985    3.11999989
   13.89555550   75.34980011    4.90999985    3.11999989
   13.89861107   85.36450195    4.90999985    3.11999989
   13.90194416   88.08840179    4.90999985    3.09999990
   13.90499973   83.00499725    4.90999985    3.09999990
   13.90749931   82.75620270    4.90999985    3.09999990
   13.90861034   86.09239960    4.90999985    3.09999990
   13.91166592   88.98500061    4.90999985    3.09999990
   13.91472149   77.65660095    4.90999985    3.11999989
   13.91805553   86.70929718    4.90999985    3.11999989
   13.92361164   86.70929718    4.90999985    3.09999990
   13.92777824   83.73629761    4.90999985    3.11999989
   13.93083382   74.29969788    4.90999985    3.11999989
   13.93416691   81.73539734    4.90999985    3.09999990
   13.93722248   85.40769958    4.90999985    3.11999989
   13.94055557   86.82659912    4.90999985    3.09999990
   13.94361115   86.42030334    4.90999985    3.09999990
   13.94666672   90.28189850    4.90999985    3.11999989
   13.94999981   85.35610199    4.90999985    3.11999989
   13.95305538   96.46369934    4.90999985    3.11999989
   13.95611095   87.32479858    4.90999985    3.09999990
   13.95749950   97.47660065    4.90999985    3.11999989
   13.96000004   78.41629791    4.90999985    3.09999990
   13.96305561   94.32420349    4.90999985    3.11999989
   13.96611118   98.42250061    4.90999985    3.11999989
   13.96944427   94.14630127    4.90999985    3.11999989
   13.97499943   94.14630127    4.90999985    3.11999989
   13.97888851   85.64749908    4.90999985    3.11999989
   13.98222160   83.36000061    4.90999985    3.11999989
   13.98527813   77.64749908    4.90999985    3.09999990
   13.98833370   82.84870148    4.90999985    3.11999989
   13.99166679   76.76580048    4.90999985    3.09999990
   13.99472237   84.12500000    4.90999985    3.09999990
   13.99805546   88.02300262    4.90999985    3.09999990
   14.00111103   72.23220062    4.90999985    3.11999989
   14.00416660   77.80750275    4.90999985    3.11999989
   14.00749969   84.27880096    4.90999985    3.09999990
   14.00777817   90.74620056    4.90999985    3.09999990
   14.01111126   87.31880188    4.90999985    3.11999989
   14.01416683   83.58070374    4.90999985    3.11999989
   14.01749992   94.16709900    4.90999985    3.09999990
   14.02055550   90.43550110    4.90999985    3.09999990
   14.02611065   90.43550110    4.90999985    3.11999989
   14.02999973   87.45390320    4.90999985    3.11999989
   14.03333378   85.59919739    4.90999985    3.11999989
   14.03638935   89.86609650    4.90999985    3.11999989
   14.03972244   88.58319855    4.90999985    3.11999989
   14.04277802   84.66089630    4.90999985    3.09999990
   14.04583359   79.79900360    4.90999985    3.14000010
   14.04916668   86.02690125    4.90999985    3.11999989
   14.05222225   87.59010315    4.90999985    3.11999989
   14.05555534   81.10040283    4.90999985    3.11999989
   14.05777836   77.78410339    4.90999985    3.11999989
   14.05888939   81.36620331    4.90999985    3.11999989
   14.06194496   80.29489899    4.90999985    3.11999989
   14.06527805   82.61009979    4.90999985    3.11999989
   14.06833363   89.82730103    4.90999985    3.11999989
   14.07138920   86.65239716    4.90999985    3.11999989
   14.07722187   86.65239716    4.90999985    3.11999989
   14.08138847   85.76309967    4.90999985    3.11999989
   14.08444405   83.97699738    4.90999985    3.11999989
   14.08749962   81.07080078    4.90999985    3.11999989
   14.09083271   83.54399872    4.90999985    3.11999989
   14.09388828   86.84079742    4.90999985    3.11999989
   14.09722233   84.50910187    4.90999985    3.11999989
   14.10027790   79.84140015    4.90999985    3.11999989
   14.10333347   89.36119843    4.90999985    3.11999989
   14.10666752   78.34200287    4.90999985    3.14000010
   14.10777855   79.66960144    4.90999985    3.11999989
   14.11027813   85.42769623    4.90999985    3.11999989
   14.11333370   85.38099670    4.90999985    3.11999989
   14.11666679   85.10410309    4.90999985    3.11999989
   14.11972237   78.60299683    4.90999985    3.11999989
   14.12277794   91.07099915    4.90999985    3.11999989
   14.12833309   91.07099915    4.90999985    3.09999990
   14.13249969   82.43170166    4.90999985    3.11999989
   14.13555527   87.25199890    4.90999985    3.11999989
   14.13888836   78.05650330    4.90999985    3.11999989
   14.14194393   84.11710358    4.90999985    3.11999989
   14.14499950   88.30190277    4.90999985    3.11999989
   14.14833355   90.98539734    4.90999985    3.11999989
   14.15138817   80.90319824    4.90999985    3.09999990
   14.15472221   77.82710266    4.90999985    3.11999989
   14.15777779   85.32479858    4.90999985    3.09999990
   14.15833282   82.86299896    4.90999985    3.09999990
   14.16138840   86.12239838    4.90999985    3.11999989
   14.16472149   77.23220062    4.90999985    3.11999989
   14.16777802   76.32469940    4.90999985    3.11999989
   14.17083359   82.74140167    4.90999985    3.11999989
   14.17416668   76.39659882    4.90999985    3.11999989
   14.17972279   76.39659882    4.90999985    3.11999989
   14.18361092   85.58480072    4.90999985    3.14000010
   14.18694496   86.30879974    4.90999985    3.11999989
   14.19000053   81.50279999    4.90999985    3.11999989
   14.19305515   78.31069946    4.90999985    3.11999989
   14.19638920   82.85970306    4.90999985    3.11999989
   14.19944477   81.71869659    4.90999985    3.11999989
   14.20277786   74.98200226    4.90999985    3.11999989
   14.20583344   75.98490143    4.90999985    3.11999989
   14.20833302   75.65489960    4.90999985    3.14000010
   14.20916653   80.46230316    4.90999985    3.11999989
   14.21249962   87.47309875    4.90999985    3.11999989
   14.21555519   90.90959930    4.90999985    3.11999989
   14.21888828   86.54019928    4.90999985    3.11999989
   14.22194386   83.79570007    4.90999985    3.14000010
   14.22499943   81.90010071    4.90999985    3.09999990
   14.23083305   81.90010071    4.90999985    3.11999989
   14.23472214   86.17870331    4.90999985    3.11999989
   14.23805618   96.65709686    4.90999985    3.11999989
   14.24111176   92.31230164    4.90999985    3.11999989
   14.24444485   92.47920227    4.90999985    3.11999989
   14.24750042   86.39029694    4.90999985    3.14000010
   14.25055599   83.65119934    4.90999985    3.14000010
   14.25388908   87.28029633    4.90999985    3.14000010
   14.25694466   83.25540161    4.90999985    3.11999989
   14.25833321   87.92389679    4.90999985    3.11999989
   14.26027775   81.63359833    4.90999985    3.14000010
   14.26361084   89.31310272    4.90999985    3.11999989
   14.26666641   83.85379791    4.90999985    3.14000010
   14.26999950   85.64579773    4.90999985    3.11999989
   14.27305508   76.07140350    4.90999985    3.11999989
   14.27611065   84.76100159    4.90999985    3.11999989
   14.28194427   84.76100159    4.90999985    3.14000010
   14.28611183   89.64109802    4.90999985    3.11999989
   14.28916740   79.21459961    4.90999985    3.11999989
   14.29222298   78.55549622    4.90999985    3.11999989
   14.29555607   85.39029694    4.90999985    3.11999989
   14.29861164   84.67189789    4.90999985    3.11999989
   14.30194473   86.23639679    4.90999985    3.14000010
   14.30500031   90.02570343    4.90999985    3.11999989
   14.30805588   89.06279755    4.90999985    3.11999989
   14.30861092   87.83229828    4.90999985    3.11999989
   14.31194496   79.79360199    4.90999985    3.14000010
   14.31500053   90.10289764    4.90999985    3.11999989
   14.31805515   90.42870331    4.90999985    3.14000010
   14.32138920   88.78060150    4.90999985    3.11999989
   14.32444477   79.69570160    4.90999985    3.11999989
   14.32750034   80.15730286    4.90999985    3.11999989
   14.33305550   80.15730286    4.90999985    3.11999989
   14.33722210   80.17330170    4.90999985    3.11999989
   14.34027767   81.73909760    4.90999985    3.11999989
   14.34361076   79.85019684    4.90999985    3.14000010
   14.34666634   85.59020233    4.90999985    3.11999989
   14.34972191   86.32309723    4.90999985    3.11999989
   14.35305595   84.03610229    4.90999985    3.14000010
   14.35611153   81.84020233    4.90999985    3.11999989
   14.35861111   76.37699890    4.90999985    3.11999989
   14.35972214   84.10399628    4.90999985    3.11999989
   14.36277771   83.43139648    4.90999985    3.14000010
   14.36583328   86.85849762    4.90999985    3.09999990
   14.36916637   84.28949738    4.90999985    3.11999989
   14.37222195   79.36070251    4.90999985    3.11999989
   14.37555599   83.57420349    4.90999985    3.14000010
   14.37861156   80.38220215    4.90999985    3.11999989
   14.38444424   80.38220215    4.90999985    3.11999989
   14.38833332   77.07589722    4.90999985    3.11999989
   14.39166641   83.08059692    4.90999985    3.11999989
   14.39472198   80.08239746    4.90999985    3.11999989
   14.39777756   83.18250275    4.90999985    3.11999989
   14.40111065   77.92870331    4.90999985    3.09999990
   14.40416622   83.79599762    4.90999985    3.11999989
   14.40722179   80.39070129    4.90999985    3.11999989
   14.40861034   87.04299927    4.90999985    3.09999990
   14.41111088   81.72049713    4.90999985    3.11999989
   14.41416645   78.12329865    4.90999985    3.11999989
   14.41722298   82.48709869    4.90999985    3.11999989
   14.42055607   78.76689911    4.90999985    3.14000010
   14.42361164   82.99700165    4.90999985    3.14000010
   14.42694473   80.97899628    4.90999985    3.14000010
   14.43000031   78.11720276    4.90999985    3.11999989
   14.43555546   78.11720276    4.90999985    3.11999989
   14.43944454   74.34839630    4.90999985    3.11999989
   14.44277763   76.33219910    4.90999985    3.11999989
   14.44583321   79.50370026    4.90999985    3.11999989
   14.44916630   72.20980072    4.90999985    3.11999989
   14.45222187   77.15859985    4.90999985    3.11999989
   14.45527744   71.71320343    4.90999985    3.11999989
   14.45861053   81.72630310    4.90999985    3.11999989
   14.45888901   76.38439941    4.90999985    3.14000010
   14.46222210   76.35520172    4.90999985    3.14000010
   14.46527767   77.36879730    4.90999985    3.14000010
   14.46861076   72.75029755    4.90999985    3.11999989
   14.47166634   76.86100006    4.90999985    3.11999989
   14.47472191   74.68820190    4.90999985    3.11999989
   14.47805500   77.70960236    4.90999985    3.11999989
   14.48111057   80.27339935    4.90999985    3.14000010
   14.48666668   80.27339935    4.90999985    3.11999989
   14.49083328   82.64669800    4.90999985    3.11999989
   14.49388885   81.21330261    4.90999985    3.14000010
   14.49694443   80.35479736    4.90999985    3.14000010
   14.50027752   82.14289856    4.90999985    3.14000010
   14.50333309   81.35759735    4.90999985    3.11999989
   14.50666714   81.55370331    4.90999985    3.11999989
   14.50916672   83.68669891    4.90999985    3.14000010
   14.51000023   83.59899902    4.90999985    3.14000010
   14.51305580   77.02059937    4.90999985    3.11999989
   14.51638889   77.44650269    4.90999985    3.11999989
   14.51944447   89.51059723    4.90999985    3.14000010
   14.52250004   86.60420227    4.90999985    3.11999989
   14.52583313   83.46600342    4.90999985    3.14000010
   14.52888870   82.29499817    4.90999985    3.14000010
   14.53222179   82.96219635    4.90999985    3.11999989
   14.53777790   82.96219635    4.90999985    3.14000010
   14.54194450   82.68679810    4.90999985    3.14000010
   14.54500008   79.30329895    4.90999985    3.11999989
   14.54833412   72.86370087    4.90999985    3.14000010
   14.55138874   83.98989868    4.90999985    3.11999989
   14.55444431   86.29429626    4.90999985    3.14000010
   14.55777836   76.37509918    4.90999985    3.11999989
   14.55916691   76.47550201    4.90999985    3.14000010
   14.56138897   72.88890076    4.90999985    3.14000010
   14.56444454   81.72949982    4.90999985    3.14000010
   14.56777763   76.90509796    4.90999985    3.11999989
   14.57083321   75.03700256    4.90999985    3.14000010
   14.57416630   78.77359772    4.90999985    3.14000010
   14.57722187   79.11370087    4.90999985    3.11999989
   14.58027744   79.96810150    4.90999985    3.14000010
   14.58361053   79.98739624    4.90999985    3.14000010
   14.58888817   79.98739624    4.90999985    3.14000010
   14.59305477   84.88839722    4.90999985    3.11999989
   14.59611034   77.77269745    4.90999985    3.11999989
   14.59944439   79.91110229    4.90999985    3.14000010
   14.60249996   84.45539856    4.90999985    3.14000010
   14.60583401   88.93820190    4.90999985    3.14000010
   14.60888958   78.33969879    4.90999985    3.11999989
   14.60944462   83.20719910    4.90999985    3.14000010
   14.61250019   73.93379974    4.90999985    3.11999989
   14.61583328   83.20659637    4.90999985    3.14000010
   14.61888885   80.72290039    4.90999985    3.14000010
   14.62194443   80.08969879    4.90999985    3.11999989
   14.62527752   79.40460205    4.90999985    3.14000010
   14.62833309   84.54900360    4.90999985    3.11999989
   14.63166714   76.73629761    4.90999985    3.11999989
   14.63472176   81.27629852    4.90999985    3.11999989
   14.64027786   81.27629852    4.90999985    3.14000010
   14.64416695   80.31559753    4.90999985    3.14000010
   14.64750004   73.62480164    4.90999985    3.14000010
   14.65055561   76.34799957    4.90999985    3.11999989
   14.65388870   80.51460266    4.90999985    3.14000010
   14.65694427   72.89589691    4.90999985    3.11999989
   14.65944386   74.15509796    4.90999985    3.14000010
   14.66027737   76.48359680    4.90999985    3.11999989
   14.66361046   81.70480347    4.90999985    3.14000010
   14.66666698   76.73190308    4.90999985    3.14000010
   14.66972256   80.21859741    4.90999985    3.14000010
   14.67305565   84.00180054    4.90999985    3.11999989
   14.67611122   79.27680206    4.90999985    3.11999989
   14.67944431   79.20230103    4.90999985    3.14000010
   14.68249989   74.51519775    4.90999985    3.14000010
   14.68555546   83.73169708    4.90999985    3.11999989
   14.69138908   83.73169708    4.90999985    3.14000010
   14.69555569   78.77860260    4.90999985    3.14000010
   14.69861126   76.48750305    4.90999985    3.14000010
   14.70166683   81.65200043    4.90999985    3.14000010
   14.70499992   74.12979889    4.90999985    3.14000010
   14.72444439   72.96179962    4.90999985    3.11999989
   14.72472191   73.78109741    4.90999985    3.11999989
   14.72777748   78.77079773    4.90999985    3.11999989
   14.84166622   -1.00000000   -1.00000000   -1.00000000
   14.97305489   -1.00000000   -1.00000000   -1.00000000
   15.07611084   -1.00000000   -1.00000000   -1.00000000
   15.12944412   61.20330048    4.90999985    3.14000010
   15.13249969   80.57740021    4.90999985    3.16000009
   15.13583279   76.47080231    4.90999985    3.14000010
   15.13888836   72.44629669    4.90999985    3.14000010
   15.14222240   78.44049835    4.90999985    3.14000010
   15.14527798   74.34739685    4.90999985    3.14000010
   15.14861107   78.88230133    4.90999985    3.14000010
   15.15166664   79.87989807    4.90999985    3.14000010
   15.15805531   79.87989807    4.90999985    3.14000010
   15.16222191   82.85289764    4.90999985    3.14000010
   15.16527748   74.21469879    4.90999985    3.14000010
   15.16833401   78.43730164    4.90999985    3.14000010
   15.17166710   74.86869812    4.90999985    3.11999989
   15.17472267   79.24649811    4.90999985    3.14000010
   15.17805576   77.31809998    4.90999985    3.14000010
   15.17944431   80.03589630    4.90999985    3.14000010
   15.18138885   81.17209625    4.90999985    3.14000010
   15.18472195   76.16519928    4.90999985    3.14000010
   15.18777752   81.08999634    4.90999985    3.14000010
   15.19111156   84.11579895    4.90999985    3.14000010
   15.19416714   87.05410004    4.90999985    3.14000010
   15.19722271   74.54170227    4.90999985    3.14000010
   15.20055580   77.23410034    4.90999985    3.14000010
   15.20361137   84.70610046    4.90999985    3.14000010
   15.20916653   84.70610046    4.90999985    3.14000010
   15.21333313   77.99199677    4.90999985    3.14000010
   15.21638870   82.48519897    4.90999985    3.14000010
   15.21972179   79.22090149    4.90999985    3.14000010
   15.22277737   77.80680084    4.90999985    3.14000010
   15.22583294   81.22560120    4.90999985    3.11999989
   15.22916603   76.79340363    4.90999985    3.14000010
   15.22972202   72.10040283    4.90999985    3.14000010
   15.23277760   73.54989624    4.90999985    3.14000010
   15.23583317   81.07779694    4.90999985    3.14000010
   15.23916721   79.37139893    4.90999985    3.14000010
   15.24222279   84.46469879    4.90999985    3.14000010
   15.24527836   80.35019684    4.90999985    3.14000010
   15.24861145   85.22149658    4.90999985    3.14000010
   15.25166702   86.75810242    4.90999985    3.14000010
   15.25500011   90.84729767    4.90999985    3.14000010
   15.26027775   90.84729767    4.90999985    3.14000010
   15.26444435   85.21970367    4.90999985    3.14000010
   15.26749992   82.95999908    4.90999985    3.14000010
   15.27083302   79.81590271    4.90999985    3.14000010
   15.27388859   83.62220001    4.90999985    3.14000010
   15.27722168   89.02040100    4.90999985    3.14000010
   15.27972221   94.79630280    4.90999985    3.16000009
   15.28055573   83.96250153    4.90999985    3.14000010
   15.28361130   84.40249634    4.90999985    3.14000010
   15.28694534   84.64859772    4.90999985    3.14000010
   15.29000092   85.61900330    4.90999985    3.14000010
   15.29333401   89.72229767    4.90999985    3.16000009
   15.29638958   82.53970337    4.90999985    3.14000010
   15.29944515   93.55930328    4.90999985    3.14000010
   15.30277824   89.52020264    4.90999985    3.14000010
   15.30583382   94.40399933    4.90999985    3.14000010
   15.31166649   94.40399933    4.90999985    3.14000010
   15.31555557   83.70140076    4.90999985    3.14000010
   15.31888866   76.12220001    4.90999985    3.16000009
   15.32194424   84.02929688    4.90999985    3.14000010
   15.32499981   84.94909668    4.90999985    3.14000010
   15.32833290   82.42440033    4.90999985    3.14000010
   15.32972240   75.89289856    4.90999985    3.16000009
   15.33194447   90.77500153    4.90999985    3.14000010
   15.33500004   85.65979767    4.90999985    3.16000009
   15.33833313   87.20680237    4.90999985    3.18000007
   15.34138870   91.31420135    4.90999985    3.14000010
   15.34472179   77.98169708    4.90999985    3.14000010
   15.34777737   86.80599976    4.90999985    3.14000010
   15.35083389   87.43969727    4.90999985    3.14000010
   15.35416698   85.28309631    4.90999985    3.16000009
   15.35722256   87.42669678    4.90999985    3.14000010
   15.36277771   87.42669678    4.90999985    3.14000010
   15.36694431   88.69010162    4.90999985    3.16000009
   15.36999989   84.75520325    4.90999985    3.14000010
   15.37305546   84.52010345    4.90999985    3.16000009
   15.37638855   87.85530090    4.90999985    3.16000009
   15.37944412   86.11530304    4.90999985    3.14000010
   15.38000011   86.37609863    4.90999985    3.16000009
   15.38305569   82.45709991    4.90999985    3.14000010
   15.38638878   84.98100281    4.90999985    3.14000010
   15.38944435   79.39109802    4.90999985    3.14000010
   15.39277744   88.56430054    4.90999985    3.14000010
   15.39583302   83.64350128    4.90999985    3.14000010
   15.39916611   89.02239990    4.90999985    3.14000010
   15.40222168   92.26619720    4.90999985    3.14000010
   15.40527725   84.67630005    4.90999985    3.14000010
   15.40861034   85.64679718    4.90999985    3.16000009
   15.41388893   85.64679718    4.90999985    3.14000010
   15.41805553   79.31369781    4.90999985    3.14000010
   15.42111111   77.94699860    4.90999985    3.14000010
   15.42444515   75.99199677    4.90999985    3.14000010
   15.42750072   83.53079987    4.90999985    3.14000010
   15.43000031   78.13269806    4.90999985    3.14000010
   15.43083382   75.20099640    4.90999985    3.14000010
   15.43416691   79.42610168    4.90999985    3.14000010
   15.43722248   81.85720062    4.90999985    3.14000010
   15.44055557   76.92420197    4.90999985    3.14000010
   15.44361115   96.74659729    4.90999985    3.14000010
   15.44666672   98.59539795    4.90999985    3.16000009
   15.44999981   89.92769623    4.90999985    3.14000010
   15.45305538   84.78710175    4.90999985    3.14000010
   15.45611095   85.83409882    4.90999985    3.14000010
   15.45944405   81.16040039    4.90999985    3.14000010
   15.46500015   81.16040039    4.90999985    3.14000010
   15.46916580   93.14820099    4.90999985    3.14000010
   15.47222137   84.52580261    4.90999985    3.14000010
   15.47555542   91.17040253    4.90999985    3.14000010
   15.47861099   94.80560303    4.90999985    3.14000010
   15.47999954   93.65000153    4.90999985    3.14000010
   15.48222160   94.73359680    4.90999985    3.16000009
   15.48527813   90.03720093    4.90999985    3.14000010
   15.48861122   89.23069763    4.90999985    3.14000010
   15.49166679   89.04820251    4.90999985    3.14000010
   15.49472237   91.41780090    4.90999985    3.14000010
   15.49805546   81.99659729    4.90999985    3.14000010
   15.50111103   87.83999634    4.90999985    3.14000010
   15.50416660   80.44390106    4.90999985    3.14000010
   15.50749969   83.27929688    4.90999985    3.14000010
   15.51055527   86.99559784    4.90999985    3.14000010
   15.51638889   86.99559784    4.90999985    3.16000009
   15.52027798   83.30169678    4.90999985    3.16000009
   15.52361107   96.81890106    4.90999985    3.14000010
   15.52666664   74.54979706    4.90999985    3.14000010
   15.52972221   89.33219910    4.90999985    3.16000009
   15.53027725   87.88400269    4.90999985    3.16000009
   15.53361130   94.45120239    4.90999985    3.14000010
   15.53666687   92.51170349    4.90999985    3.14000010
   15.53972244   99.58959961    4.90999985    3.16000009
   15.54305553   91.52429962    4.90999985    3.16000009
   15.54611111   97.54329681    4.90999985    3.16000009
   15.54944515   89.42649841    4.90999985    3.14000010
   15.55249977   85.38629913    4.90999985    3.16000009
   15.55555534   86.47560120    4.90999985    3.14000010
   15.55888939   95.37680054    4.90999985    3.14000010
   15.56194496   86.17919922    4.90999985    3.14000010
   15.56750011   86.17919922    4.90999985    3.16000009
   15.57166672   90.17710114    4.90999985    3.16000009
   15.57472229   88.58519745    4.90999985    3.14000010
   15.57777786   86.02249908    4.90999985    3.16000009
   15.58027744   97.01709747    4.90999985    3.16000009
   15.58138847   93.59459686    4.90999985    3.14000010
   15.58444405   95.45829773    4.90999985    3.14000010
   15.58749962   86.20729828    4.90999985    3.14000010
   15.59083271   89.59750366    4.90999985    3.16000009
   15.59388828   90.10829926    4.90999985    3.16000009
   15.59722233   87.03089905    4.90999985    3.16000009
   15.60027790   91.16470337    4.90999985    3.16000009
   15.60333347  106.99400330    4.90999985    3.16000009
   15.60666752   99.06790161    4.90999985    3.14000010
   15.60972214   93.82759857    4.90999985    3.14000010
   15.61305618   97.05210114    4.90999985    3.14000010
   15.61861134   97.05210114    4.90999985    3.16000009
   15.62277794   94.96900177    4.90999985    3.14000010
   15.62583351   91.82800293    4.90999985    3.16000009
   15.62916660   89.42320251    4.90999985    3.14000010
   15.63027763   90.40399933    4.90999985    3.16000009
   15.63277817  105.32700348    4.90999985    3.16000009
   15.63583279  103.66500092    4.90999985    3.14000010
   15.63888836   99.08059692    4.90999985    3.16000009
   15.64222240   97.74590302    4.90999985    3.16000009
   15.64527798  104.43800354    4.90999985    3.14000010
   15.64861107   99.12969971    4.90999985    3.14000010
   15.65166664  107.16500092    4.90999985    3.16000009
   15.65472221   90.99639893    4.90999985    3.16000009
   15.65805531  109.11900330    4.90999985    3.14000010
   15.66111088   95.35209656    4.90999985    3.16000009
   15.66444397   91.80899811    4.90999985    3.14000010
   15.66972256   91.80899811    4.90999985    3.14000010
   15.67388916   93.97720337    4.90999985    3.14000010
   15.67694473   88.45510101    4.90999985    3.16000009
   15.68027782   91.28759766    4.90999985    3.14000010
   15.68083382   82.25669861    4.90999985    3.14000010
   15.68388939   90.12819672    4.90999985    3.16000009
   15.68694496   86.84660339    4.90999985    3.14000010
   15.69027805  101.26599884    4.90999985    3.14000010
   15.69333363  103.25499725    4.90999985    3.14000010
   15.69666672   94.55840302    4.90999985    3.16000009
   15.69972229   93.39199829    4.90999985    3.14000010
   15.70277786   95.98549652    4.90999985    3.14000010
   15.70611095   88.71720123    4.90999985    3.16000009
   15.70916653   81.45040131    4.90999985    3.14000010
   15.71222210   87.97969818    4.90999985    3.16000009
   15.71555519   82.30210114    4.90999985    3.16000009
   15.72111034   82.30210114    4.90999985    3.16000009
   15.72499943   80.92240143    4.90999985    3.14000010
   15.72833252   90.49449921    4.90999985    3.16000009
   15.73083305   95.57109833    4.90999985    3.16000009
   15.73166656   90.87779999    4.90999985    3.14000010
   15.73472214   90.16950226    4.90999985    3.16000009
   15.73805618   91.33509827    4.90999985    3.16000009
   15.74111176   97.05319977    4.90999985    3.16000009
   15.74444485   90.98739624    4.90999985    3.14000010
   15.74750042   81.11779785    4.90999985    3.16000009
   15.75055599   85.08550262    4.90999985    3.14000010
   15.75388908   86.99349976    4.90999985    3.16000009
   15.75694466   91.73000336    4.90999985    3.16000009
   15.76000023   89.14820099    4.90999985    3.14000010
   15.76333332   98.04129791    4.90999985    3.16000009
   15.76638889   80.82550049    4.90999985    3.16000009
   15.77222157   80.82550049    4.90999985    3.16000009
   15.77638817   89.15290070    4.90999985    3.14000010
   15.77944374   90.81770325    4.90999985    3.14000010
   15.78083324   95.37590027    4.90999985    3.14000010
   15.78305531   92.23629761    4.90999985    3.16000009
   15.78611183   88.87100220    4.90999985    3.14000010
   15.78944492   80.31400299    4.90999985    3.16000009
   15.79250050   95.63529968    4.90999985    3.14000010
   15.79583359   84.66000366    4.90999985    3.16000009
   15.79888916   90.28459930    4.90999985    3.16000009
   15.80194473   93.68979645    4.90999985    3.16000009
   15.80527782   85.45459747    4.90999985    3.16000009
   15.80833340   93.93979645    4.90999985    3.16000009
   15.81166649   96.12830353    4.90999985    3.14000010
   15.81472206   82.82679749    4.90999985    3.16000009
   15.81777763   95.20079803    4.90999985    3.14000010
   15.82333374   95.20079803    4.90999985    3.14000010
   15.82750034  100.98200226    4.90999985    3.16000009
   15.83055592   94.04969788    4.90999985    3.14000010
   15.83111095   91.20770264    4.90999985    3.14000010
   15.83416653   93.13449860    4.90999985    3.16000009
   15.83749962   94.70179749    4.90999985    3.16000009
   15.84055519   79.07569885    4.90999985    3.16000009
   15.84361076   84.91940308    4.90999985    3.16000009
   15.84694386   70.64219666    4.90999985    3.14000010
   15.85000038   82.62480164    4.90999985    3.16000009
   15.85333347   84.13999939    4.90999985    3.16000009
   15.85638905   84.69439697    4.90999985    3.16000009
   15.85944462   82.70559692    4.90999985    3.14000010
   15.86277771   80.91049957    4.90999985    3.16000009
   15.86583328   76.67359924    4.90999985    3.16000009
   15.86916637   74.78079987    4.90999985    3.16000009
   15.87444496   74.78079987    4.90999985    3.16000009
   15.87861156   92.34909821    4.90999985    3.16000009
   15.88111115   83.16999817    4.90999985    3.16000009
   15.88194466   91.31610107    4.90999985    3.16000009
   15.88527775   87.68640137    4.90999985    3.14000010
   15.88833332   86.17929840    4.90999985    3.16000009
   15.89138889   86.33830261    4.90999985    3.16000009
   15.89472198   85.68070221    4.90999985    3.16000009
   15.89777756   80.55000305    4.90999985    3.14000010
   15.90111065   87.12270355    4.90999985    3.16000009
   15.90416622   88.06549835    4.90999985    3.14000010
   15.90722179   82.36710358    4.90999985    3.14000010
   15.91055489   86.10710144    4.90999985    3.14000010
   15.91361046   85.22899628    4.90999985    3.14000010
   15.91694450   78.09140015    4.90999985    3.16000009
   15.92000008   81.59239960    4.90999985    3.14000010
   15.92583370   81.59239960    4.90999985    3.14000010
   15.92972279   92.74590302    4.90999985    3.18000007
   15.93111134   92.38480377    4.90999985    3.16000009
   15.93333340   89.65830231    4.90999985    3.16000009
   15.93666649   92.72579956    4.90999985    3.16000009
   15.93972206   83.84850311    4.90999985    3.14000010
   15.94305515   88.88220215    4.90999985    3.16000009
   15.94611073   93.31490326    4.90999985    3.16000009
   15.94916630   90.96140289    4.90999985    3.16000009
   15.95249939   86.79740143    4.90999985    3.14000010
   15.95555496   92.93689728    4.90999985    3.14000010
   15.95861053   85.60939789    4.90999985    3.16000009
   15.96194458   94.95690155    4.90999985    3.14000010
   15.96500015   90.57240295    4.90999985    3.14000010
   15.96833324   81.16750336    4.90999985    3.16000009
   15.97138882   86.64170074    4.90999985    3.16000009
   15.97694397   86.64170074    4.90999985    3.16000009
   15.98083305   82.28220367    4.90999985    3.16000009
   15.98138809   75.73359680    4.90999985    3.16000009
   15.98472214   74.97630310    4.90999985    3.16000009
   15.98777771   78.26760101    4.90999985    3.16000009
   15.99083328   81.20559692    4.90999985    3.16000009
   15.99416733   85.07790375    4.90999985    3.16000009
   15.99722290   85.34700012    4.90999985    3.14000010
   16.00055504   84.41790009    4.90999985    3.16000009
   16.00361061   83.68849945    4.90999985    3.16000009
   16.00666618   80.34030151    4.90999985    3.16000009
   16.01000023   87.40850067    4.90999985    3.16000009
   16.01305580   84.51979828    4.90999985    3.14000010
   16.01638794   83.20020294    4.90999985    3.16000009
   16.01944351   83.37719727    4.90999985    3.16000009
   16.02249908   88.34680176    4.90999985    3.14000010
   16.02805519   88.34680176    4.90999985    3.16000009
   16.03222275   81.85140228    4.90999985    3.16000009
   16.03527641   80.62149811    4.90999985    3.16000009
   16.03833199   80.97619629    4.90999985    3.16000009
   16.04166603   80.04419708    4.90999985    3.16000009
   16.04472160   85.30259705    4.90999985    3.16000009
   16.04805565   71.22699738    4.90999985    3.16000009
   16.05111122   76.91570282    4.90999985    3.14000010
   16.05416679   80.22000122    4.90999985    3.16000009
   16.05749893   87.14610291    4.90999985    3.14000010
   16.06055450   81.98090363    4.90999985    3.16000009
   16.06388855   91.02719879    4.90999985    3.16000009
   16.06694603   86.96790314    4.90999985    3.14000010
   16.07000160   94.33860016    4.90999985    3.16000009
   16.07333374   86.05400085    4.90999985    3.16000009
   16.07916832   86.05400085    4.90999985    3.16000009
   16.08333397   88.75920105    4.90999985    3.16000009
   16.08638954   83.28179932    4.90999985    3.14000010
   16.08972359   81.50530243    4.90999985    3.14000010
   16.09277916   86.68599701    4.90999985    3.16000009
   16.09611130   85.85150146    4.90999985    3.16000009
   16.09916687   86.86669922    4.90999985    3.14000010
   16.10222244   86.49179840    4.90999985    3.14000010
   16.10555649   83.31220245    4.90999985    3.16000009
   16.10861206   82.55860138    4.90999985    3.14000010
   16.11166763   75.94699860    4.90999985    3.14000010
   16.11499977   82.63169861    4.90999985    3.16000009
   16.11805534   84.63909912    4.90999985    3.14000010
   16.12138939   80.02719879    4.90999985    3.14000010
   16.12444496   85.65010071    4.90999985    3.14000010
   16.14666748   87.70230103    4.90999985    3.16000009
   16.14694405   92.14830017    4.90999985    3.16000009
   16.14999962   92.11740112    4.90999985    3.14000010
   16.15333366   80.16040039    4.90999985    3.16000009
   16.15638924   89.82409668    4.90999985    3.16000009
   16.15972137  100.77600098    4.90999985    3.16000009
   16.16277695   83.92600250    4.90999985    3.16000009
   16.16611099   88.16889954    4.90999985    3.16000009
   16.16916656   80.40239716    4.90999985    3.16000009
   16.17222214   88.04319763    4.90999985    3.16000009
   16.17555428   87.18199921    4.90999985    3.16000009
   16.18166542   87.18199921    4.90999985    3.16000009
   16.18583298   93.61640167    4.90999985    3.16000009
   16.18888855   90.57679749    4.90999985    3.16000009
   16.19222069   90.33439636    4.90999985    3.16000009
   16.19527626   88.94640350    4.90999985    3.16000009
   16.19638824   90.45760345    4.90999985    3.16000009
   16.19861031   92.44689941    4.90999985    3.16000009
   16.20194435   93.27850342    4.90999985    3.16000009
   16.20499992   92.67870331    4.90999985    3.16000009
   16.20833397   96.41989899    4.90999985    3.16000009
   16.21138954   87.69159698    4.90999985    3.16000009
   16.21444511   96.91660309    4.90999985    3.14000010
   16.21777916   75.72599792    4.90999985    3.16000009
   16.22083473   89.33670044    4.90999985    3.16000009
   16.22389030   85.98609924    4.90999985    3.16000009
   16.22722244   86.06829834    4.90999985    3.14000010
   16.23277855   86.06829834    4.90999985    3.14000010
   16.23694420   74.47239685    4.90999985    3.16000009
   16.23999977   80.64040375    4.90999985    3.16000009
   16.24333382   80.58260345    4.90999985    3.16000009
   16.24638939   80.38289642    4.90999985    3.14000010
   16.24666786   78.08159637    4.90999985    3.14000010
   16.25000000   85.15969849    4.90999985    3.14000010
   16.25305557   87.07279968    4.90999985    3.14000010
   16.25638962   99.11730194    4.90999985    3.14000010
   16.25944519   95.36070251    4.90999985    3.14000010
   16.26277733   75.69319916    4.90999985    3.11999989
   16.26583290   95.88420105    4.90999985    3.11999989
   16.26888847   73.31960297    4.90999985    3.09999990
   16.27222252   88.16600037    4.90999985    3.09999990
   16.27527809   95.33619690    4.90999985    3.09999990
   16.27861023  107.05400085    4.90999985    3.07999992
   16.28416634  107.05400085    4.90999985    3.09999990
   16.28805542   73.74490356    4.90999985    3.07999992
   16.29138756   76.62180328    4.90999985    3.09999990
   16.29444313   85.22720337    4.90999985    3.07999992
   16.29638863   90.26670074    4.90999985    3.07999992
   16.29777718   89.50309753    4.90999985    3.07999992
   16.30111122   86.90859985    4.90999985    3.07999992
   16.30416679   86.16429901    4.90999985    3.07999992
   16.30749893   78.00469971    4.90999985    3.07999992
   16.31055450   84.50769806    4.90999985    3.07999992
   16.31361008   79.63690186    4.90999985    3.07999992
   16.31694603   76.73549652    4.90999985    3.05999994
   16.32000160   89.42279816    4.90999985    3.07999992
   16.32333374   92.37629700    4.90999985    3.05999994
   16.32638931   82.77300262    4.90999985    3.05999994
   16.32944489   72.59010315    4.90999985    3.05999994
   16.33527756   72.59010315    4.90999985    3.05999994
   16.33944511   87.54570007    4.90999985    3.05999994
   16.34250069   86.50710297    4.90999985    3.03999996
   16.34555626   83.67530060    4.90999985    3.03999996
   16.34638977   86.01989746    4.90999985    3.03999996
   16.34916687   91.00520325    4.90999985    3.03999996
   16.35222244   88.24279785    4.46999979    3.05999994
   16.35555649   85.59719849    3.66000009    3.03999996
   16.35861206   87.32740021    3.14000010    3.05999994
   16.36166763   88.31040192    2.80999994    3.05999994
   16.36499977   89.30290222    2.66000009    3.05999994
   16.36805534   88.03440094    2.53999996    3.05999994
   16.37138939   86.03810120    2.48000002    3.05999994
   16.37444496   80.35700226    2.44000006    3.05999994
   16.37750053   79.85910034    2.48000002    3.05999994
   16.38083267   82.84609985    2.55999994    3.07999992
   16.38638878   82.84609985    2.73000002    3.07999992
   16.39055634   77.89649963    2.98000002    3.07999992
   16.39361191   82.26480103    3.09999990    3.05999994
   16.39638901   80.79090118    0.07000000    0.52999997
   16.39722252   79.19120026    0.07000000    0.52999997
   16.40027809   85.51290131    0.03000000    0.25000000
   16.40333366   74.80979919    0.01000000    0.05000000
   16.40666580   75.93199921    0.01000000    0.05000000
   16.40972137   80.24839783    0.01000000    0.05000000
   16.41305542   73.97250366    0.01000000    0.05000000
   16.41611099   72.51550293    0.01000000    0.05000000
   16.41916656   72.10839844    0.01000000    0.05000000
   16.42249870   76.47489929    0.01000000    0.05000000
   16.42555428   76.75399780    0.01000000    0.05000000
   16.42860985   76.85769653    0.01000000    0.05000000
   16.43194389   80.61710358    0.01000000    0.05000000
   16.43750000   80.61710358    0.01000000    0.05000000
   16.44166565   90.74780273    0.01000000    0.05000000
   16.44472122   77.88929749    0.01000000    0.05000000
   16.44638824   75.53520203    0.01000000    0.05000000
   16.44833183   74.31870270    0.01000000    0.05000000
   16.45138931   74.22499847    0.01000000    0.05000000
   16.45472336   92.18910217    0.01000000    0.05000000
   16.45777893   87.67870331    0.01000000    0.05000000
   16.46083450   88.35099792    0.01000000    0.05000000
   16.46416664   76.97509766    0.01000000    0.05000000
   16.46722221   87.01470184    0.01000000    0.05000000
   16.47055626   81.67420197    0.01000000    0.05000000
   16.47361183   82.26889801    0.01000000    0.05000000
   16.47666740   83.97619629    0.01000000    0.05000000
   16.48000145   85.42140198    0.01000000    0.05000000
   16.48305511   74.76349640    0.01000000    0.05000000
   16.48888969   74.76349640    0.01000000    0.05000000
   16.49277878   82.77880096    0.01000000    0.05000000
   16.49611092   88.80229950    0.01000000    0.05000000
   16.49638939   88.37719727    0.01000000    0.05000000
   16.49944496   77.37220001    0.01000000    0.05000000
   16.50250053   80.21520233    0.01000000    0.05000000
   16.50583267   71.66310120    0.01000000    0.05000000
   16.50888824   86.04409790    0.01000000    0.05000000
   16.51194382   91.61620331    0.01000000    0.05000000
   16.51527786   77.89790344    0.01000000    0.05000000
   16.51833344   83.70510101    0.01000000    0.05000000
   16.52166557   88.41079712    0.01000000    0.05000000
   16.52472115   94.00769806    0.01000000    0.05000000
   16.52777672   86.31610107    0.01000000    0.05000000
   16.53111076   82.33319855    0.01000000    0.05000000
   16.53416634   91.73249817    0.01000000    0.05000000
   16.53999901   91.73249817    0.01000000    0.05000000
   16.54416656   92.51719666    0.01000000    0.05000000
   16.54638863   90.45839691    0.01000000    0.05000000
   16.54749870   83.37689972    0.01000000    0.05000000
   16.55055428   80.53109741    0.01000000    0.05000000
   16.55388832   86.66590118    0.01000000    0.05000000
   16.55694389   71.61869812    0.01000000    0.05000000
   16.56027794   70.87329865    0.01000000    0.05000000
   16.56333351   79.21369934    0.01000000    0.05000000
   16.56638718   77.62490082    0.01000000    0.05000000
   16.56972313   72.02290344    0.01000000    0.05000000
   16.57277870   85.63960266    0.01000000    0.05000000
   16.57611275   80.83709717    0.01000000    0.05000000
   16.57916832   79.56549835    0.01000000    0.05000000
   16.58222389   85.99189758    0.01000000    0.05000000
   16.58555603   79.11940002    0.01000000    0.05000000
   16.59111214   79.11940002    0.01000000    0.05000000
   16.59527779   74.22429657    0.01000000    0.05000000
   16.59638977   72.41120148    0.01000000    0.05000000
   16.59889030   75.56719971    0.01000000    0.05000000
   16.60194397   81.76959991    0.01000000    0.05000000
   16.60527802   86.70189667    0.01000000    0.05000000
   16.60833359   74.39579773    0.01000000    0.05000000
   16.61138916   78.44429779    0.01000000    0.05000000
   16.61472321   82.99549866    0.01000000    0.05000000
   16.61777878   82.90779877    0.01000000    0.05000000
   16.62111092   86.74400330    0.01000000    0.05000000
   16.62416649   81.68379974    0.01000000    0.05000000
   16.62722206   83.90950012    0.01000000    0.05000000
   16.63055611   83.18620300    0.01000000    0.05000000
   16.63361168   84.40070343    0.01000000    0.05000000
   16.63694382   85.12329865    0.01000000    0.05000000
   16.64222145   85.12329865    0.01000000    0.05000000
   16.64638901   92.27169800    0.01000000    0.05000000
   16.64694405   82.97760010    0.01000000    0.05000000
   16.64999962   85.39679718    0.01000000    0.05000000
   16.65333366   78.38899994    0.01000000    0.05000000
   16.65638924   81.90070343    0.01000000    0.05000000
   16.65972137   87.77359772    0.01000000    0.05000000
   16.66277695   85.12329865    0.01000000    0.05000000
   16.66583252   80.29630280    0.01000000    0.05000000
   16.66916656   90.98269653    0.01000000    0.05000000
   16.67222214   86.98509979    0.01000000    0.05000000
   16.67555428   86.59410095    0.01000000    0.05000000
   16.67860985   91.47810364    0.01000000    0.05000000
   16.68166542   90.26840210    0.01000000    0.05000000
   16.68499947   97.01210022    0.01000000    0.05000000
   16.68805504   87.00800323    0.01000000    0.05000000
   16.69361115   87.00800323    0.01000000    0.05000000
   16.69749832   92.21510315    0.01000000    0.05000000
   16.70083427   68.79049683    0.01000000    0.05000000
   16.70388985   78.12799835    0.01000000    0.05000000
   16.70694542   95.77040100    0.01000000    0.05000000
   16.71027946   98.01689911    0.01000000    0.05000000
   16.71333504   93.99749756    0.01000000    0.05000000
   16.71666718  108.60700226    0.01000000    0.05000000
   16.71972275  101.00499725    0.01000000    0.05000000
   16.72277832  110.98899841    0.01000000    0.05000000
   16.72611237   98.97049713    0.01000000    0.05000000
   16.72916794   84.43000031    0.01000000    0.05000000
   16.73250008   93.68009949    0.01000000    0.05000000
   16.73555565   85.29139709    0.01000000    0.05000000
   16.73861122   93.07720184    0.01000000    0.05000000
   16.74472237   93.07720184    0.01000000    0.05000000
   16.74888992   93.22029877    0.01000000    0.05000000
   16.75194359   92.65010071    0.01000000    0.05000000
   16.75527763   91.79699707    0.01000000    0.05000000
   16.75833321   89.16310120    0.01000000    0.05000000
   16.76138878   81.08049774    0.01000000    0.05000000
   16.76472282   91.84110260    0.01000000    0.05000000
   16.76777840   96.19799805    0.01000000    0.05000000
   16.77083397   93.92800140    0.01000000    0.05000000
   16.77416611   88.78060150    0.01000000    0.05000000
   16.77722168   84.82869720    0.01000000    0.05000000
   16.78055573   76.92299652    0.01000000    0.05000000
   16.78361130   94.67259979    0.01000000    0.05000000
   16.78666687   90.91609955    0.01000000    0.05000000
   16.78999901   86.87079620    0.01000000    0.05000000
   16.79583359   86.87079620    0.01000000    0.05000000
   16.79999924   99.82369995    0.01000000    0.05000000
   16.80305481   86.66290283    0.01000000    0.05000000
   16.80638885   86.09049988    0.01000000    0.05000000
   16.80944443   83.17549896    0.01000000    0.05000000
   16.81277657   92.03849792    0.01000000    0.05000000
   16.81583214   98.59249878    0.01000000    0.05000000
   16.81888962   89.76889801    0.01000000    0.05000000
   16.82222366   89.12339783    0.01000000    0.05000000
   16.82527924   77.12539673    0.01000000    0.05000000
   16.82833481   79.02970123    0.01000000    0.05000000
   16.83166695   89.56400299    0.01000000    0.05000000
   16.83472252   90.22560120    0.01000000    0.05000000
   16.83805656   86.00299835    0.01000000    0.05000000
   16.84111214   91.40380096    0.01000000    0.05000000
   16.84722328   91.40380096    0.01000000    0.05000000
   16.85111237   94.16970062    0.01000000    0.05000000
   16.85444450   88.27629852    0.01000000    0.05000000
   16.85750008   82.18399811    0.01000000    0.05000000
   16.86055565   86.59970093    0.01000000    0.05000000
   16.86388969   81.07849884    0.01000000    0.05000000
   16.86694527   89.40720367    0.01000000    0.05000000
   16.87027740   91.88030243    0.01000000    0.05000000
   16.87333298   87.21640015    0.01000000    0.05000000
   16.87638855   93.82510376    0.01000000    0.05000000
   16.87972260   87.72720337    0.01000000    0.05000000
   16.88277817   92.59040070    0.01000000    0.05000000
   16.88611031   93.13169861    0.01000000    0.05000000
   16.88916588   91.77339935    0.01000000    0.05000000
   16.89222145   88.24449921    0.01000000    0.05000000
   16.89833260   88.24449921    0.01000000    0.05000000
   16.90222168   86.01049805    0.01000000    0.05000000
   16.90555573   84.42430115    0.01000000    0.05000000
   16.90861130   90.13459778    0.01000000    0.05000000
   16.91194344   77.96240234    0.01000000    0.05000000
   16.91499901   89.62650299    0.01000000    0.05000000
   16.91805458   92.02870178    0.01000000    0.05000000
   16.92138863   92.14119720    0.01000000    0.05000000
   16.92444420   88.56189728    0.01000000    0.05000000
   16.92777634   87.01149750    0.01000000    0.05000000
   16.93083191   81.10050201    0.01000000    0.05000000
   16.93388748   78.22540283    0.01000000    0.05000000
   16.93722153   81.20490265    0.01000000    0.05000000
   16.94027710   82.48829651    0.01000000    0.05000000
   16.94361115   83.47879791    0.01000000    0.05000000
   16.94944382   83.47879791    0.01000000    0.05000000
   16.95361137   77.47000122    0.01000000    0.05000000
   16.95666695   74.47769928    0.01000000    0.05000000
   16.95972252   90.06359863    0.01000000    0.05000000
   16.96305656   87.55919647    0.01000000    0.05000000
   16.96611214   75.85140228    0.01000000    0.05000000
   16.96944427   88.62509918    0.01000000    0.05000000
   16.97249985   77.36100006    0.01000000    0.05000000
   16.97555542   82.92620087    0.01000000    0.05000000
   16.97888947   76.09629822    0.01000000    0.05000000
   16.98194504   93.91110229    0.01000000    0.05000000
   16.98527718   86.01020050    0.01000000    0.05000000
   16.98833275   78.91000366    0.01000000    0.05000000
   16.99138832   90.35350037    0.01000000    0.05000000
   16.99472237   75.99230194    0.01000000    0.05000000
   17.00055504   75.99230194    0.01000000    0.05000000
   17.00472260   79.53459930    0.01000000    0.05000000
   17.00777817   75.27850342    0.01000000    0.05000000
   17.01111031   79.30020142    0.01000000    0.05000000
   17.01416588   77.16639709    0.01000000    0.05000000
   17.01722145   79.56929779    0.01000000    0.05000000
   17.02055550   88.38009644    0.01000000    0.05000000
   17.02361107   84.82270050    0.01000000    0.05000000
   17.02694511   79.45570374    0.01000000    0.05000000
   17.03000069   80.70929718    0.01000000    0.05000000
   17.03305435   75.62090302    0.01000000    0.05000000
   17.03638840   82.92030334    0.01000000    0.05000000
   17.03944397   85.05760193    0.01000000    0.05000000
   17.04277802   88.47969818    0.01000000    0.05000000
   17.04583359   79.70520020    0.01000000    0.05000000
   17.05194283   79.70520020    0.01000000    0.05000000
   17.05583191   82.57119751    0.01000000    0.05000000
   17.05916595   77.70249939    0.01000000    0.05000000
   17.06222153   71.02839661    0.01000000    0.05000000
   17.06527710   75.86090088    0.01000000    0.05000000
   17.06861115   74.43299866    0.01000000    0.05000000
   17.07166672   73.38939667    0.01000000    0.05000000
   17.07500076   75.20330048    0.01000000    0.05000000
   17.07805634   73.46499634    0.01000000    0.05000000
   17.08111191   73.99960327    0.01000000    0.05000000
   17.08444595   84.58260345    0.01000000    0.05000000
   17.08750153   83.49089813    0.01000000    0.05000000
   17.09055710   92.34359741    0.01000000    0.05000000
   17.09388924   77.75849915    0.01000000    0.05000000
   17.09694481   81.26830292    0.01000000    0.05000000
   17.10305595   81.26830292    0.01000000    0.05000000
   17.10694504   85.48229980    0.01000000    0.05000000
   17.11027908   87.52809906    0.01000000    0.05000000
   17.11333466   83.48000336    0.01000000    0.05000000
   17.11666679   79.45449829    0.01000000    0.05000000
   17.11972237   81.10620117    0.01000000    0.05000000
   17.12277794   78.30599976    0.01000000    0.05000000
   17.12611198   74.53489685    0.01000000    0.05000000
   17.12916756   71.54389954    0.01000000    0.05000000
   17.13249969   71.98480225    0.01000000    0.05000000
   17.13555527   69.40399933    0.01000000    0.05000000
   17.13861084   74.96880341    0.01000000    0.05000000
   17.14194489   77.34049988    0.01000000    0.05000000
   17.14500046   77.99559784    0.01000000    0.05000000
   17.16694450   77.99559784    0.01000000    0.05000000
   17.17083359   80.05449677    0.01000000    0.05000000
   17.17416573   72.76059723    0.01000000    0.05000000
   17.17722130   77.75080109    0.01000000    0.05000000
   17.18055534   70.08509827    0.01000000    0.05000000
   17.18361092   81.78050232    0.01000000    0.05000000
   17.18666649   73.66490173    0.01000000    0.05000000
   17.18999863   85.27290344    0.01000000    0.05000000
   17.19305420   79.02200317    0.01000000    0.05000000
   17.19638824   77.89399719    0.01000000    0.05000000
   17.19944382   85.80519867    0.01000000    0.05000000
   17.20250130   80.29409790    0.01000000    0.05000000
   17.20583344   84.38120270    0.01000000    0.05000000
   17.20888901   78.39489746    0.01000000    0.05000000
   17.21222305   77.49250031    0.01000000    0.05000000
   17.21444511   77.58940125    0.01000000    0.05000000
   17.21833420   77.58940125    0.01000000    0.05000000
   17.22249985   74.00509644    0.01000000    0.05000000
   17.22555542   85.05290222    0.01000000    0.05000000
   17.22888947   86.05280304    0.01000000    0.05000000
   17.23194504   77.38780212    0.01000000    0.05000000
   17.23527718   77.22450256    0.01000000    0.05000000
   17.23833275   77.68779755    0.01000000    0.05000000
   17.24138832   82.04889679    0.01000000    0.05000000
   17.24472237   78.94239807    0.01000000    0.05000000
   17.24777794   83.97979736    0.01000000    0.05000000
   17.25111198   76.52729797    0.01000000    0.05000000
   17.25416756   73.86730194    0.01000000    0.05000000
   17.25722313   77.65460205    0.01000000    0.05000000
   17.26055527   77.69869995    0.01000000    0.05000000
   17.26361084   76.83889771    0.01000000    0.05000000
   17.26444435   74.37030029    0.01000000    0.05000000
   17.26972198   74.37030029    0.01000000    0.05000000
   17.27361107   76.17530060    0.01000000    0.05000000
   17.27694511   82.28130341    0.01000000    0.05000000
   17.28000069   79.75939941    0.01000000    0.05000000
   17.28333282   82.39939880    0.01000000    0.05000000
   17.28638840   84.40470123    0.01000000    0.05000000
   17.28944397   93.54409790    0.01000000    0.05000000
   17.29277802   84.22250366    0.01000000    0.05000000
   17.29583359   74.57270050    0.01000000    0.05000000
   17.29888916   86.30449677    0.01000000    0.05000000
   17.30222130   81.34429932    0.01000000    0.05000000
   17.30527687   75.68710327    0.01000000    0.05000000
   17.30861092   73.80180359    0.01000000    0.05000000
   17.31166649   72.48680115    0.01000000    0.05000000
   17.31444359   73.90789795    0.01000000    0.05000000
   17.31527710   75.52480316    0.01000000    0.05000000
   17.32083511   75.52480316    0.01000000    0.05000000
   17.32500076   70.57689667    0.01000000    0.05000000
   17.32805634   69.02549744    0.01000000    0.05000000
   17.33111191   71.84010315    0.01000000    0.05000000
   17.33444595   73.69149780    0.01000000    0.05000000
   17.33750153   80.84380341    0.01000000    0.05000000
   17.34055710   74.36060333    0.01000000    0.05000000
   17.34388924   81.60070038    0.01000000    0.05000000
   17.34694481   81.29309845    0.01000000    0.05000000
   17.35027885   80.61699677    0.01000000    0.05000000
   17.35333443   79.10690308    0.01000000    0.05000000
   17.35639000   77.59210205    0.01000000    0.05000000
   17.35972214   71.04730225    0.01000000    0.05000000
   17.36277771   70.04180145    0.01000000    0.05000000
   17.36444473   74.88469696    0.01000000    0.05000000
   17.36638832   74.67800140    0.01000000    0.05000000
   17.37194443   74.67800140    0.01000000    0.05000000
   17.37611198   72.91190338    0.01000000    0.05000000
   17.37916756   80.03430176    0.01000000    0.05000000
   17.38249969   78.29489899    0.01000000    0.05000000
   17.38555527   79.41510010    0.01000000    0.05000000
   17.38861084   80.63680267    0.01000000    0.05000000
   17.39194489   75.47579956    0.01000000    0.05000000
   17.39500046   72.63870239    0.01000000    0.05000000
   17.39805603   77.18689728    0.01000000    0.05000000
   17.40138817   71.39800262    0.01000000    0.05000000
   17.40444374   75.53620148    0.01000000    0.05000000
   17.40777779   71.89640045    0.01000000    0.05000000
   17.41083336   76.53430176    0.01000000    0.05000000
   17.41388893   76.82849884    0.01000000    0.05000000
   17.41444397   76.86599731    0.01000000    0.05000000
   17.41749954   77.44779968    0.01000000    0.05000000
   17.42305565   77.44779968    0.01000000    0.05000000
   17.42722130   77.45069885    0.01000000    0.05000000
   17.43027687   76.04949951    0.01000000    0.05000000
   17.43361092   72.04720306    0.01000000    0.05000000
   17.43666649   81.81500244    0.01000000    0.05000000
   17.43999863   74.47850037    0.01000000    0.05000000
   17.44305420   72.86280060    0.01000000    0.05000000
   17.44610977   75.38800049    0.01000000    0.05000000
   17.44944382   87.27610016    0.01000000    0.05000000
   17.45250130   79.38390350    0.01000000    0.05000000
   17.45583344   75.30860138    0.01000000    0.05000000
   17.45888901   80.30419922    0.01000000    0.05000000
   17.46194458   78.01830292    0.01000000    0.05000000
   17.46444511   82.86509705    0.01000000    0.05000000
   17.46555710   80.07759857    0.01000000    0.05000000
   17.46861076   76.41369629    0.01000000    0.05000000
   17.47444534   76.41369629    0.01000000    0.05000000
   17.47833443   83.86609650    0.01000000    0.05000000
   17.48166656   80.89869690    0.01000000    0.05000000
   17.48472214   79.91049957    0.01000000    0.05000000
   17.48777771   83.52510071    0.01000000    0.05000000
   17.49111176   75.01809692    0.01000000    0.05000000
   17.49416733   76.72889709    0.01000000    0.05000000
   17.49749947   88.02040100    0.01000000    0.05000000
   17.50055504   79.78109741    0.01000000    0.05000000
   17.50361061   79.22519684    0.01000000    0.05000000
   17.50694466   80.96890259    0.01000000    0.05000000
   17.51000023   80.18199921    0.01000000    0.05000000
   17.51333427   74.55139923    0.01000000    0.05000000
   17.51444435   81.54750061    0.01000000    0.05000000
   17.51666641   78.96579742    0.01000000    0.05000000
   17.51972198   78.76370239    0.01000000    0.05000000
   17.52555466   78.76370239    0.01000000    0.05000000
   17.52972221   77.21749878    0.01000000    0.05000000
   17.53277779   78.01540375    0.01000000    0.05000000
   17.53583336   83.37979889    0.01000000    0.05000000
   17.53916550   81.53939819    0.01000000    0.05000000
   17.54222107   77.42500305    0.01000000    0.05000000
   17.54527664   79.62519836    0.01000000    0.05000000
   17.54861069   83.53949738    0.01000000    0.05000000
   17.55166626   81.14810181    0.01000000    0.05000000
   17.55499840   85.59700012    0.01000000    0.05000000
   17.55805397   76.38659668    0.01000000    0.05000000
   17.56110954   86.14679718    0.01000000    0.05000000
   17.56444359   81.30380249    0.01000000    0.05000000
   17.56499863   79.73069763    0.01000000    0.05000000
   17.56805611   88.32150269    0.01000000    0.05000000
   17.57111168   83.69190216    0.01000000    0.05000000
   17.57666779   83.69190216    0.01000000    0.05000000
   17.58083344   88.95259857    0.01000000    0.05000000
   17.58388901   80.58709717    0.01000000    0.05000000
   17.58722305   83.11080170    0.01000000    0.05000000
   17.59027863   81.36219788    0.01000000    0.05000000
   17.59333420   77.67579651    0.01000000    0.05000000
   17.59666824   77.74009705    0.01000000    0.05000000
   17.59972191   76.38449860    0.01000000    0.05000000
   17.60305595   76.74559784    0.01000000    0.05000000
   17.60611153   78.48619843    0.01000000    0.05000000
   17.60916710   75.75479889    0.01000000    0.05000000
   17.61250114   72.69640350    0.01000000    0.05000000
   17.61499977   76.28880310    0.01000000    0.05000000
   17.61583328   72.16549683    0.01000000    0.05000000
   17.61888885   75.63670349    0.01000000    0.05000000
   17.62222290   74.51920319    0.01000000    0.05000000
   17.62777710   74.51920319    0.01000000    0.05000000
   17.63194466   71.75319672    0.01000000    0.05000000
   17.63500023   72.91929626    0.01000000    0.05000000
   17.63833237   72.63659668    0.01000000    0.05000000
   17.64138794   76.03679657    0.01000000    0.05000000
   17.64472198   74.91100311    0.01000000    0.05000000
   17.64777756   74.59899902    0.01000000    0.05000000
   17.65083313   74.83319855    0.01000000    0.05000000
   17.65416718  151.27099609    0.01000000    0.05000000
   17.65722275   77.21440125    0.01000000    0.05000000
   17.66055489   86.52780151    0.01000000    0.05000000
   17.66361046   73.76760101    0.01000000    0.05000000
   17.66499901   74.87490082    0.01000000    0.05000000
   17.66694450   77.09709930    0.01000000    0.05000000
   17.67000008   76.66300201    0.01000000    0.05000000
   17.67333221   76.00630188    0.01000000    0.05000000
   17.67916679   76.00630188    0.01000000    0.05000000
   17.68305397   78.48380280    0.01000000    0.05000000
   17.68638802   80.70290375    0.01000000    0.05000000
   17.68944359   81.98149872    0.01000000    0.05000000
   17.69249916   79.22219849    0.01000000    0.05000000
   17.69583321   83.63659668    0.01000000    0.05000000
   17.69888878   75.50720215    0.01000000    0.05000000
   17.70222282   84.93180084    0.01000000    0.05000000
   17.70527840   78.44439697    0.01000000    0.05000000
   17.70833397   86.99849701    0.01000000    0.05000000
   17.71166801   82.27259827    0.01000000    0.05000000
   17.71472359   83.89489746    0.01000000    0.05000000
   17.71527863   82.73190308    0.01000000    0.05000000
   17.71833420   82.67050171    0.01000000    0.05000000
   17.72166634   81.93679810    0.01000000    0.05000000
   17.72472191   87.51080322    0.01000000    0.05000000
   17.73027802   87.51080322    0.01000000    0.05000000
   17.73416710   83.32569885    0.01000000    0.05000000
   17.73750114   74.27320099    0.01000000    0.05000000
   17.74055672   84.44550323    0.01000000    0.05000000
   17.74388885   73.74320221    0.01000000    0.05000000
   17.74694443   74.32119751    0.01000000    0.05000000
   17.75000000   75.49359894    0.01000000    0.05000000
   17.75333405   84.16210175    0.01000000    0.05000000
   17.75638962   85.66510010    0.01000000    0.05000000
   17.75972176   79.35440063    0.01000000    0.05000000
   17.76277733   75.60990143    0.01000000    0.05000000
   17.76527786   84.00430298    0.01000000    0.05000000
   17.76611137   82.25119781    0.01000000    0.05000000
   17.76944351   81.48889923    0.01000000    0.05000000
   17.77249908   78.15879822    0.01000000    0.05000000
   17.77583313   75.75769806    0.01000000    0.05000000
   17.78138924   75.75769806    0.01000000    0.05000000
   17.78555489   76.38629913    0.01000000    0.05000000
   17.78861046   76.95290375    0.01000000    0.05000000
   17.79194450   81.91829681    0.01000000    0.05000000
   17.79527664   79.13939667    0.01000000    0.05000000
   17.79833221   81.57579803    0.01000000    0.05000000
   17.80138779   79.48770142    0.01000000    0.05000000
   17.80472183   79.50890350    0.01000000    0.05000000
   17.80777740   82.26750183    0.01000000    0.05000000
   17.81110954   83.96309662    0.01000000    0.05000000
   17.81416512   84.36750031    0.01000000    0.05000000
   17.81527710   80.33149719    0.01000000    0.05000000
   17.81750107   76.98919678    0.01000000    0.05000000
   17.82083511   78.45480347    0.01000000    0.05000000
   17.82389069   82.86029816    0.01000000    0.05000000
   17.82722282   82.73970032    0.01000000    0.05000000
   17.83277893   82.73970032    0.01000000    0.05000000
   17.83666801   77.71170044    0.01000000    0.05000000
   17.84000015   82.08670044    0.01000000    0.05000000
   17.84305573   76.87200165    0.01000000    0.05000000
   17.84638977   78.23040009    0.01000000    0.05000000
   17.84944534   77.57890320    0.01000000    0.05000000
   17.85250092   74.41960144    0.01000000    0.05000000
   17.85583305   77.05870056    0.01000000    0.05000000
   17.85888863   83.46880341    0.01000000    0.05000000
   17.86222267   75.75520325    0.01000000    0.05000000
   17.86527824   77.35430145    0.01000000    0.05000000
   17.86555672   82.90989685    0.01000000    0.05000000
   17.86888885   78.73899841    0.01000000    0.05000000
   17.87194443   85.01930237    0.01000000    0.05000000
   17.87527847   81.01260376    0.01000000    0.05000000
   17.87833405   79.64250183    0.01000000    0.05000000
   17.88388824   79.64250183    0.01000000    0.05000000
   17.88805580   89.01770020    0.01000000    0.05000000
   17.89111137   89.25969696    0.01000000    0.05000000
   17.89416695   86.28140259    0.01000000    0.05000000
   17.89749908   91.22879791    0.01000000    0.05000000
   17.90055466   90.40740204    0.01000000    0.05000000
   17.90388870   90.16680145    0.01000000    0.05000000
   17.90694427   88.20449829    0.01000000    0.05000000
   17.90999985   86.69509888    0.01000000    0.05000000
   17.91333389   82.45549774    0.01000000    0.05000000
   17.91527748   91.27220154    0.01000000    0.05000000
   17.91666603   95.01239777    0.01000000    0.05000000
   17.92000008   84.60260010    0.01000000    0.05000000
   17.92305565   80.12180328    0.01000000    0.05000000
   17.92638779   84.28489685    0.01000000    0.05000000
   17.92944336   88.68299866    0.01000000    0.05000000
   17.93499947   88.68299866    0.01000000    0.05000000
   17.93916512   80.22570038    0.01000000    0.05000000
   17.94222069   80.01390076    0.01000000    0.05000000
   17.94555473   77.68060303    0.01000000    0.05000000
   17.94861031   86.82849884    0.01000000    0.05000000
   17.95194435   77.61150360    0.01000000    0.05000000
   17.95499992   78.09760284    0.01000000    0.05000000
   17.95833397   88.15499878    0.01000000    0.05000000
   17.96138954   85.18820190    0.01000000    0.05000000
   17.96444511   72.63400269    0.01000000    0.05000000
   17.96527863   76.73760223    0.01000000    0.05000000
   17.96805573   71.50229645    0.01000000    0.05000000
   17.97138977   75.37449646    0.01000000    0.05000000
   17.97444534   75.30780029    0.01000000    0.05000000
   17.97777748   70.83889771    0.01000000    0.05000000
   17.98083305   73.02690125    0.01000000    0.05000000
   17.98611069   73.02690125    0.01000000    0.05000000
   17.99055672   76.92939758    0.01000000    0.05000000
   17.99361229   86.70909882    0.01000000    0.05000000
   17.99666786   81.95059967    0.01000000    0.05000000
   18.00027847   71.53730011    0.01000000    0.05000000
   18.00333405   72.75589752    0.01000000    0.05000000
   18.00666618   85.56680298    0.01000000    0.05000000
   18.01000023   82.98210144    0.01000000    0.05000000
   18.01305580   88.14749908    0.01000000    0.05000000
   18.01527786   85.27519989    0.01000000    0.05000000
   18.01666641   76.71230316    0.01000000    0.05000000
   18.02000046   74.51969910    0.01000000    0.05000000
   18.02305603   80.86720276    0.01000000    0.05000000
   18.02611160   84.85800171    0.01000000    0.05000000
   18.02944374   79.19349670    0.01000000    0.05000000
   18.03249931   86.20179749    0.01000000    0.05000000
   18.03750038   86.20179749    0.01000000    0.05000000
   18.04166603   86.30370331    0.01000000    0.05000000
   18.04472160   83.95110321    0.01000000    0.05000000
   18.04805565   74.67949677    0.01000000    0.05000000
   18.05111122   75.89040375    0.01000000    0.05000000
   18.05444336   77.27490234    0.01000000    0.05000000
   18.05749893   89.39330292    0.01000000    0.05000000
   18.06055450   73.95989990    0.01000000    0.05000000
   18.06388855   84.41770172    0.01000000    0.05000000
   18.06527710   75.01380157    0.01000000    0.05000000
   18.06750107   83.19360352    0.01000000    0.05000000
   18.07055664   82.86530304    0.01000000    0.05000000
   18.07361221   87.28579712    0.01000000    0.05000000
   18.07694626   90.22049713    0.01000000    0.05000000
   18.08000183   84.29190063    0.01000000    0.05000000
   18.08333397   81.13099670    0.01000000    0.05000000
   18.08861160   81.13099670    0.01000000    0.05000000
   18.09277916   76.79720306    0.01000000    0.05000000
   18.09611130   78.26999664    0.01000000    0.05000000
   18.09916687   85.02420044    0.01000000    0.05000000
   18.10222244   82.82230377    0.01000000    0.05000000
   18.10555649   82.29889679    0.01000000    0.05000000
   18.10861206   79.52729797    0.01000000    0.05000000
   18.11166763   84.67810059    0.01000000    0.05000000
   18.11499977   81.57140350    0.01000000    0.05000000
   18.11555672   88.04900360    0.01000000    0.05000000
   18.11833382   82.25350189    0.01000000    0.05000000
   18.12138939   76.75099945    0.01000000    0.05000000
   18.12472153   75.31520081    0.01000000    0.05000000
   18.12777710   77.30480194    0.01000000    0.05000000
   18.13111115   78.44170380    0.01000000    0.05000000
   18.13416672   75.26629639    0.01000000    0.05000000
   18.13999939   75.26629639    0.01000000    0.05000000
   18.14388847   75.17620087    0.01000000    0.05000000
   18.14722252   77.06259918    0.01000000    0.05000000
   18.15027809   80.36049652    0.01000000    0.05000000
   18.15361023   74.78359985    0.01000000    0.05000000
   18.15666580   79.69770050    0.01000000    0.05000000
   18.15972137   76.83730316    0.01000000    0.05000000
   18.16305542   75.12560272    0.01000000    0.05000000
   18.18027687   77.23100281    0.01000000    0.05000000
   18.18277740   77.77010345    0.01000000    0.05000000
   18.18583298   76.09300232    0.01000000    0.05000000
   18.19138718   76.09300232    0.01000000    0.05000000
   18.19555473   72.59380341    0.01000000    0.05000000
   18.19861031   71.81880188    0.01000000    0.05000000
   18.20166779   74.66230011    0.01000000    0.05000000
   18.20499992   75.86810303    0.01000000    0.05000000
   18.20805550   77.96700287    0.01000000    0.05000000
   18.21138954   79.31950378    0.01000000    0.05000000
   18.21444511   72.95939636    0.01000000    0.05000000
   18.21750069   73.32170105    0.01000000    0.05000000
   18.22083473   73.90640259    0.01000000    0.05000000
   18.22389030   73.35150146    0.01000000    0.05000000
   18.22694588   72.78820038    0.01000000    0.05000000
   18.23027802   72.44010162    0.01000000    0.05000000
   18.23055649   77.70999908    0.01000000    0.05000000
   18.23388863   73.05000305    0.01000000    0.05000000
   18.23694420   77.49349976    0.01000000    0.05000000
   18.24250031   77.49349976    0.01000000    0.05000000
   18.24666786   77.54949951    0.01000000    0.05000000
   18.24972153   77.34310150    0.01000000    0.05000000
   18.25305557   71.56179810    0.01000000    0.05000000
   18.25611115   72.87590027    0.01000000    0.05000000
   18.25916672   75.04060364    0.01000000    0.05000000
   18.26250076   73.72360229    0.01000000    0.05000000
   18.26555634   70.85469818    0.01000000    0.05000000
   18.26888847   75.19930267    0.01000000    0.05000000
   18.27194405   72.82029724    0.01000000    0.05000000
   18.27499962   76.57430267    0.01000000    0.05000000
   18.27833366   76.88770294    0.01000000    0.05000000
   18.28027725   78.06860352    0.01000000    0.05000000
   18.28166580   86.90409851    0.01000000    0.05000000
   18.28499985   81.94799805    0.01000000    0.05000000
   18.28805542   73.26660156    0.01000000    0.05000000
   18.29361153   73.26660156    0.01000000    0.05000000
   18.29777718   78.38890076    0.01000000    0.05000000
   18.30083275   77.73950195    0.01000000    0.05000000
   18.30416679   76.61239624    0.01000000    0.05000000
   18.30722237   72.94110107    0.01000000    0.05000000
   18.31055450   75.87400055    0.01000000    0.05000000
   18.31361008   74.76869965    0.01000000    0.05000000
   18.31666756   73.88819885    0.01000000    0.05000000
   18.32000160   74.52369690    0.01000000    0.05000000
   18.32305717   76.00859833    0.01000000    0.05000000
   18.32638931   73.80960083    0.01000000    0.05000000
   18.32944489   75.43129730    0.01000000    0.05000000
   18.33027840   73.83249664    0.01000000    0.05000000
   18.33277893   75.91470337    0.01000000    0.05000000
   18.33611107   76.50749969    0.01000000    0.05000000
   18.33916664   77.64299774    0.01000000    0.05000000
   18.34500122   77.64299774    0.01000000    0.05000000
   18.34889030   72.17669678    0.01000000    0.05000000
   18.35222244   74.97319794    0.01000000    0.05000000
   18.35527802   82.00980377    0.01000000    0.05000000
   18.35833359   72.85849762    0.01000000    0.05000000
   18.36166763   75.03260040    0.01000000    0.05000000
   18.36472321   76.06289673    0.01000000    0.05000000
   18.36805534   78.16870117    0.01000000    0.05000000
   18.37111092   76.90280151    0.01000000    0.05000000
   18.37416649   74.35079956    0.01000000    0.05000000
   18.37750053   75.34130096    0.01000000    0.05000000
   18.38027763   75.93779755    0.01000000    0.05000000
   18.38083267   74.63780212    0.01000000    0.05000000
   18.38416672   77.17199707    0.01000000    0.05000000
   18.38722229   78.72679901    0.01000000    0.05000000
   18.39027786   76.48570251    0.01000000    0.05000000
   18.39611053   76.48570251    0.01000000    0.05000000
   18.40027809   76.47139740    0.01000000    0.05000000
   18.40333366   79.47859955    0.01000000    0.05000000
   18.40638924   74.73850250    0.01000000    0.05000000
   18.40972137   76.03500366    0.01000000    0.05000000
   18.41277695   76.70790100    0.01000000    0.05000000
   18.41611099   77.95310211    0.01000000    0.05000000
   18.41916656   77.59300232    0.01000000    0.05000000
   18.42222214   78.84700012    0.01000000    0.05000000
   18.42555428   80.29769897    0.01000000    0.05000000
   18.42860985   72.00379944    0.01000000    0.05000000
   18.43027687   75.20149994    0.01000000    0.05000000
   18.43194389   85.92749786    0.01000000    0.05000000
   18.43527603   74.87840271    0.01000000    0.05000000
   18.43833160   78.20690155    0.01000000    0.05000000
   18.44166565   80.96019745    0.01000000    0.05000000
   18.44722176   80.96019745    0.01000000    0.05000000
   18.45138931   74.04219818    0.01000000    0.05000000
   18.45444489   73.71679688    0.01000000    0.05000000
   18.45777893   80.31539917    0.01000000    0.05000000
   18.46083450   76.30719757    0.01000000    0.05000000
   18.46389008   74.38710022    0.01000000    0.05000000
   18.46722221   78.32559967    0.01000000    0.05000000
   18.47027779   72.66829681    0.01000000    0.05000000
   18.47361183   75.30100250    0.01000000    0.05000000
   18.47666740   73.53890228    0.01000000    0.05000000
   18.47972298   78.71420288    0.01000000    0.05000000
   18.48055649   74.46320343    0.01000000    0.05000000
   18.48333359   75.67130280    0.01000000    0.05000000
   18.48638916   83.36930084    0.01000000    0.05000000
   18.48972321   79.78430176    0.01000000    0.05000000
   18.49277878   84.57820129    0.01000000    0.05000000
   18.49833298   84.57820129    0.01000000    0.05000000
   18.50250053   76.13700104    0.01000000    0.05000000
   18.50555611   77.74320221    0.01000000    0.05000000
   18.50888824   75.79669952    0.01000000    0.05000000
   18.51194382   82.92839813    0.01000000    0.05000000
   18.51527786   71.48000336    0.01000000    0.05000000
   18.51833344   80.26619720    0.01000000    0.05000000
   18.52138901   82.61360168    0.01000000    0.05000000
   18.52472115   74.25270081    0.01000000    0.05000000
   18.52777672   80.09320068    0.01000000    0.05000000
   18.53055573   79.23300171    0.01000000    0.05000000
   18.53138924   83.31490326    0.01000000    0.05000000
   18.53444481   80.31819916    0.01000000    0.05000000
   18.53777695   75.05010223    0.01000000    0.05000000
   18.54083252   82.46350098    0.01000000    0.05000000
   18.54416656   84.90329742    0.01000000    0.05000000
   18.54972076   84.90329742    0.01000000    0.05000000
   18.55360985   73.95110321    0.01000000    0.05000000
   18.55694389   76.66510010    0.01000000    0.05000000
   18.55999947   79.28549957    0.01000000    0.05000000
   18.56305504   73.28859711    0.01000000    0.05000000
   18.56638718   80.97350311    0.01000000    0.05000000
   18.56944466   82.87100220    0.01000000    0.05000000
   18.57277870   75.30919647    0.01000000    0.05000000
   18.57583427   74.39299774    0.01000000    0.05000000
   18.57888985   75.33580017    0.01000000    0.05000000
   18.58055687   78.87840271    0.01000000    0.05000000
   18.58250046   74.17320251    0.01000000    0.05000000
   18.58555603   75.68289948    0.01000000    0.05000000
   18.58889008   75.95829773    0.01000000    0.05000000
   18.59194565   75.93039703    0.01000000    0.05000000
   18.59527779   77.02580261    0.01000000    0.05000000
   18.60083389   77.02580261    0.01000000    0.05000000
   18.60499954   78.42220306    0.01000000    0.05000000
   18.60805511   81.19429779    0.01000000    0.05000000
   18.61111069   75.81800079    0.01000000    0.05000000
   18.61444473   73.89109802    0.01000000    0.05000000
   18.61750031   83.01360321    0.01000000    0.05000000
   18.62055588   78.32730103    0.01000000    0.05000000
   18.62388992   77.28189850    0.01000000    0.05000000
   18.62694550   85.75299835    0.01000000    0.05000000
   18.63027763   79.88259888    0.01000000    0.05000000
   18.63055611   75.31469727    0.01000000    0.05000000
   18.63388824   74.64040375    0.01000000    0.05000000
   18.63694382   85.43499756    0.01000000    0.05000000
   18.64027786   76.57379913    0.01000000    0.05000000
   18.64333344   74.40499878    0.01000000    0.05000000
   18.64638901   74.41560364    0.01000000    0.05000000
   18.65194321   74.41560364    0.01000000    0.05000000
   18.65611076   73.76260376    0.01000000    0.05000000
   18.65916634   78.25789642    0.01000000    0.05000000
   18.66250038   77.40419769    0.01000000    0.05000000
   18.66555595   78.42549896    0.01000000    0.05000000
   18.66860962   80.57219696    0.01000000    0.05000000
   18.67194366   83.31580353    0.01000000    0.05000000
   18.67499924   76.11679840    0.01000000    0.05000000
   18.67833328   72.97049713    0.01000000    0.05000000
   18.68083191   79.41919708    0.01000000    0.05000000
   18.68166542   79.11789703    0.01000000    0.05000000
   18.68472099   76.14260101    0.01000000    0.05000000
   18.68805504   72.24659729    0.01000000    0.05000000
   18.69111061   74.14749908    0.01000000    0.05000000
   18.69444275   70.61170197    0.01000000    0.05000000
   18.69749832   74.43139648    0.01000000    0.05000000
   18.70305634   74.43139648    0.01000000    0.05000000
   18.70722389   74.85320282    0.01000000    0.05000000
   18.71055603   72.77140045    0.01000000    0.05000000
   18.71361160   75.95059967    0.01000000    0.05000000
   18.71694565   73.12149811    0.01000000    0.05000000
   18.72000122   81.03130341    0.01000000    0.05000000
   18.72333336   78.08730316    0.01000000    0.05000000
   18.72638893   72.70439911    0.01000000    0.05000000
   18.72944450   77.97270203    0.01000000    0.05000000
   18.73083305   78.24579620    0.01000000    0.05000000
   18.73305511   75.93569946    0.01000000    0.05000000
   18.73611069   81.00640106    0.01000000    0.05000000
   18.73944473   78.38210297    0.01000000    0.05000000
   18.74250031   72.35639954    0.01000000    0.05000000
   18.74583435   72.06580353    0.01000000    0.05000000
   18.74888992   75.01889801    0.01000000    0.05000000
   18.75444412   75.01889801    0.01000000    0.05000000
   18.75833321   75.29029846    0.01000000    0.05000000
   18.76166725   78.26349640    0.01000000    0.05000000
   18.76472282   77.11519623    0.01000000    0.05000000
   18.76777840   80.03929901    0.01000000    0.05000000
   18.77111053   76.04160309    0.01000000    0.05000000
   18.77416611   75.91429901    0.01000000    0.05000000
   18.77750015   73.26750183    0.01000000    0.05000000
   18.78055573   70.05680084    0.01000000    0.05000000
   18.78111076   73.11730194    0.01000000    0.05000000
   18.78416634   72.19390106    0.01000000    0.05000000
   18.78750038   76.34179688    0.01000000    0.05000000
   18.79055595   78.68479919    0.01000000    0.05000000
   18.79361153   74.74610138    0.01000000    0.05000000
   18.79694366   78.38939667    0.01000000    0.05000000
   18.79999924   78.87729645    0.01000000    0.05000000
   18.80555534   78.87729645    0.01000000    0.05000000
   18.80944443   71.90390015    0.01000000    0.05000000
   18.81277657   79.20320129    0.01000000    0.05000000
   18.81583214   77.60240173    0.01000000    0.05000000
   18.81916809   79.27929688    0.01000000    0.05000000
   18.82222366   80.06390381    0.01000000    0.05000000
   18.82527924   83.00839996    0.01000000    0.05000000
   18.82861137   80.71150208    0.01000000    0.05000000
   18.83111191   82.62909698    0.01000000    0.05000000
   18.83194542   82.24459839    0.01000000    0.05000000
   18.83527756   83.12960052    0.01000000    0.05000000
   18.83833313   77.20230103    0.01000000    0.05000000
   18.84138870   82.95210266    0.01000000    0.05000000
   18.84472275   79.68520355    0.01000000    0.05000000
   18.84777832   82.07720184    0.01000000    0.05000000
   18.85111237   77.49259949    0.01000000    0.05000000
   18.85666656   77.49259949    0.01000000    0.05000000
   18.86083412   74.44080353    0.01000000    0.05000000
   18.86388969   73.16459656    0.01000000    0.05000000
   18.86722183   73.78959656    0.01000000    0.05000000
   18.87027740   71.99839783    0.01000000    0.05000000
   18.87333298   75.17590332    0.01000000    0.05000000
   18.87666702   73.06430054    0.01000000    0.05000000
   18.87972260   73.94930267    0.01000000    0.05000000
   18.88111115   78.17250061    0.01000000    0.05000000
   18.88333321   71.47959900    0.01000000    0.05000000
   18.88666725   72.72440338    0.01000000    0.05000000
   18.88972282   74.78469849    0.01000000    0.05000000
   18.89277840   77.52290344    0.01000000    0.05000000
   18.89611053   76.76249695    0.01000000    0.05000000
   18.89916611   73.78369904    0.01000000    0.05000000
   18.90250015   75.92489624    0.01000000    0.05000000
   18.90777779   75.92489624    0.01000000    0.05000000
   18.91194344   75.57099915    0.01000000    0.05000000
   18.91499901   76.10430145    0.01000000    0.05000000
   18.91833305   80.08979797    0.01000000    0.05000000
   18.92138863   76.47910309    0.01000000    0.05000000
   18.92472076   78.71890259    0.01000000    0.05000000
   18.92777634   73.10600281    0.01000000    0.05000000
   18.93083191   76.84829712    0.01000000    0.05000000
   18.93138885   71.52670288    0.01000000    0.05000000
   18.93444443   73.61900330    0.01000000    0.05000000
   18.93777657   74.43879700    0.01000000    0.05000000
   18.94083214   80.62689972    0.01000000    0.05000000
   18.94416618   75.55960083    0.01000000    0.05000000
   18.94722176   75.01869965    0.01000000    0.05000000
   18.95027924   74.34529877    0.01000000    0.05000000
   18.95361137   73.53569794    0.01000000    0.05000000
   18.95916748   73.53569794    0.01000000    0.05000000
   18.96305656   71.57610321    0.01000000    0.05000000
   18.96638870   82.12329865    0.01000000    0.05000000
   18.96944427   75.55290222    0.01000000    0.05000000
   18.97249985   74.31719971    0.01000000    0.05000000
   18.97583389   75.70600128    0.01000000    0.05000000
   18.97888947   75.84030151    0.01000000    0.05000000
   18.98139000   73.02050018    0.01000000    0.05000000
   18.98250008   73.86519623    0.01000000    0.05000000
   18.98555565   73.94239807    0.01000000    0.05000000
   18.98861122   74.65409851    0.01000000    0.05000000
   18.99194527   74.80329895    0.01000000    0.05000000
   18.99500084   75.95130157    0.01000000    0.05000000
   18.99805641   77.78810120    0.01000000    0.05000000
   19.00138855   84.14790344    0.01000000    0.05000000
   19.00444412   81.67350006    0.01000000    0.05000000
   19.01027870   81.67350006    0.01000000    0.05000000
   19.01416588   74.90350342    0.01000000    0.05000000
   19.01749992   81.30000305    0.01000000    0.05000000
   19.02055550   81.07640076    0.01000000    0.05000000
   19.02388954   74.48419952    0.01000000    0.05000000
   19.02694511   75.17019653    0.01000000    0.05000000
   19.03000069   76.70089722    0.01000000    0.05000000
   19.03138924   75.32209778    0.01000000    0.05000000
   19.03388786   80.75340271    0.01000000    0.05000000
   19.03694344   73.56430054    0.01000000    0.05000000
   19.03999901   76.34149933    0.01000000    0.05000000
   19.04333305   76.45240021    0.01000000    0.05000000
   19.04638863   75.24109650    0.01000000    0.05000000
   19.04972076   77.59549713    0.01000000    0.05000000
   19.05277634   74.98609924    0.01000000    0.05000000
   19.05583191   75.76840210    0.01000000    0.05000000
   19.06138802   75.76840210    0.01000000    0.05000000
   19.06555557   85.69619751    0.01000000    0.05000000
   19.06861115   75.46410370    0.01000000    0.05000000
   19.07166672   77.76909637    0.01000000    0.05000000
   19.07500076   76.54109955    0.01000000    0.05000000
   19.07805634   72.17990112    0.01000000    0.05000000
   19.08139038   78.33560181    0.01000000    0.05000000
   19.08166695   77.09960175    0.01000000    0.05000000
   19.08500099   75.50199890    0.01000000    0.05000000
   19.08805656   75.56210327    0.01000000    0.05000000
   19.09138870   79.42060089    0.01000000    0.05000000
   19.09444427   78.56430054    0.01000000    0.05000000
   19.09749985   78.67739868    0.01000000    0.05000000
   19.10083389   80.42949677    0.01000000    0.05000000
   19.10388947   75.75489807    0.01000000    0.05000000
   19.10722351   81.01170349    0.01000000    0.05000000
   19.11250114   81.01170349    0.01000000    0.05000000
   19.11666679   75.25620270    0.01000000    0.05000000
   19.11972237   75.05100250    0.01000000    0.05000000
   19.12305641   75.96309662    0.01000000    0.05000000
   19.12611198   82.12909698    0.01000000    0.05000000
   19.12916756   78.93070221    0.01000000    0.05000000
   19.13166618   73.86070251    0.01000000    0.05000000
   19.13277817   76.51889801    0.01000000    0.05000000
   19.13583374   76.55200195    0.01000000    0.05000000
   19.13916588   78.46219635    0.01000000    0.05000000
   19.14222145   77.19770050    0.01000000    0.05000000
   19.14527702   78.28420258    0.01000000    0.05000000
   19.14861107   76.14900208    0.01000000    0.05000000
   19.15166664   78.17379761    0.01000000    0.05000000
   19.15499878   79.57199860    0.01000000    0.05000000
   19.15805435   79.51499939    0.01000000    0.05000000
   19.16388893   79.51499939    0.01000000    0.05000000
   19.16777802   85.49569702    0.01000000    0.05000000
   19.17111015   79.72339630    0.01000000    0.05000000
   19.17416573   87.49629974    0.01000000    0.05000000
   19.17722130   77.31549835    0.01000000    0.05000000
   19.19694328   78.71340179    0.01000000    0.05000000
   19.19749832   77.19380188    0.01000000    0.05000000
   19.20055580   76.31410217    0.01000000    0.05000000
   19.20361137   80.38670349    0.01000000    0.05000000
   19.20694542   77.44760132    0.01000000    0.05000000
   19.21000099   79.95880127    0.01000000    0.05000000
   19.21500015   79.95880127    0.01000000    0.05000000
   19.21888924   73.79139709    0.01000000    0.05000000
   19.22222328   80.24479675    0.01000000    0.05000000
   19.22527885   81.02300262    0.01000000    0.05000000
   19.22861099   79.48770142    0.01000000    0.05000000
   19.23166656   78.14600372    0.01000000    0.05000000
   19.23472214   77.77739716    0.01000000    0.05000000
   19.23805618   70.82330322    0.01000000    0.05000000
   19.24111176   74.35590363    0.01000000    0.05000000
   19.24444389   75.52259827    0.01000000    0.05000000
   19.24749947   73.50890350    0.01000000    0.05000000
   19.24777794   70.61139679    0.01000000    0.05000000
   19.25111198   75.78929901    0.01000000    0.05000000
   19.25416756   73.47429657    0.01000000    0.05000000
   19.25749969   71.69100189    0.01000000    0.05000000
   19.26055527   77.22720337    0.01000000    0.05000000
   19.26611137   77.22720337    0.01000000    0.05000000
   19.27027702   74.05090332    0.01000000    0.05000000
   19.27333260   71.73040009    0.01000000    0.05000000
   19.27638817   81.17980194    0.01000000    0.05000000
   19.27972221   90.77950287    0.01000000    0.05000000
   19.28277779   90.55940247    0.01000000    0.05000000
   19.28610992   73.03929901    0.01000000    0.05000000
   19.28916550   80.02649689    0.01000000    0.05000000
   19.29222107   79.82929993    0.01000000    0.05000000
   19.29555511  103.19899750    0.01000000    0.05000000
   19.29749870  106.85199738    0.01000000    0.05000000
   19.29888916   95.26390076    0.01000000    0.05000000
   19.30222130  109.30000305    0.01000000    0.05000000
   19.30527687  104.30200195    0.01000000    0.05000000
   19.30861092  124.16400146    0.01000000    0.05000000
   19.31166649  105.67099762    0.01000000    0.05000000
   19.31722260  105.67099762    0.01000000    0.05000000
   19.32139015  105.77799988    0.01000000    0.05000000
   19.32444572  101.91600037    0.01000000    0.05000000
   19.32777786  106.89199829    0.01000000    0.05000000
   19.33083344  113.93099976    0.01000000    0.05000000
   19.33416748  101.89900208    0.01000000    0.05000000
   19.33722305   93.88610077    0.01000000    0.05000000
   19.34027863  107.27799988    0.01000000    0.05000000
   19.34361267   87.63379669    0.01000000    0.05000000
   19.34666824   95.04949951    0.01000000    0.05000000
   19.34749985   95.90219879    0.01000000    0.05000000
   19.35000038  111.84700012    0.01000000    0.05000000
   19.35333443  104.02500153    0.01000000    0.05000000
   19.35639000   72.27619934    0.01000000    0.05000000
   19.35972214   74.90299988    0.01000000    0.05000000
   19.36277771   90.31659698    0.01000000    0.05000000
   19.36861038   90.31659698    0.01000000    0.05000000
   19.37249947   93.18000031    0.01000000    0.05000000
   19.37583351   78.41609955    0.01000000    0.05000000
   19.37888908   94.82479858    0.01000000    0.05000000
   19.38222313   86.71330261    0.01000000    0.05000000
   19.38527679   87.44409943    0.01000000    0.05000000
   19.38833237   73.98819733    0.01000000    0.05000000
   19.39166641   80.53910065    0.01000000    0.05000000
   19.39472198   86.46559906    0.01000000    0.05000000
   19.39749908   73.94069672    0.01000000    0.05000000
   19.39833260   75.62449646    0.01000000    0.05000000
   19.40138817   75.24279785    0.01000000    0.05000000
   19.40472221   77.09100342    0.01000000    0.05000000
   19.40777779   78.46920013    0.01000000    0.05000000
   19.41083336   74.96839905    0.01000000    0.05000000
   19.41416550   78.40760040    0.01000000    0.05000000
   19.41972160   78.40760040    0.01000000    0.05000000
   19.42388916   81.70590210    0.01000000    0.05000000
   19.42694473   84.10260010    0.01000000    0.05000000
   19.43000031   81.72769928    0.01000000    0.05000000
   19.43333244   82.62760162    0.01000000    0.05000000
   19.43638802   79.24490356    0.01000000    0.05000000
   19.43972206   76.75109863    0.01000000    0.05000000
   19.44277763   77.12609863    0.01000000    0.05000000
   19.44583321   77.53749847    0.01000000    0.05000000
   19.44749832   82.65080261    0.01000000    0.05000000
   19.44944382   80.66889954    0.01000000    0.05000000
   19.45250130   78.55169678    0.01000000    0.05000000
   19.45583344   75.67729950    0.01000000    0.05000000
   19.45888901   78.16699982    0.01000000    0.05000000
   19.46194458   82.57230377    0.01000000    0.05000000
   19.46527863   76.80509949    0.01000000    0.05000000
   19.47083473   76.80509949    0.01000000    0.05000000
   19.47500038   79.56590271    0.01000000    0.05000000
   19.47805595   84.99690247    0.01000000    0.05000000
   19.48139000   75.90100098    0.01000000    0.05000000
   19.48444557   80.40570068    0.01000000    0.05000000
   19.48750114   77.49430084    0.01000000    0.05000000
   19.49083328   76.48539734    0.01000000    0.05000000
   19.49388885   74.69190216    0.01000000    0.05000000
   19.49722290   75.64379883    0.01000000    0.05000000
   19.49749947   76.41799927    0.01000000    0.05000000
   19.50055504   74.28639984    0.01000000    0.05000000
   19.50361061   75.40149689    0.01000000    0.05000000
   19.50694466   75.29100037    0.01000000    0.05000000
   19.51000023   75.46579742    0.01000000    0.05000000
   19.51305580   77.51529694    0.01000000    0.05000000
   19.51638794   78.28849792    0.01000000    0.05000000
   19.52194405   78.28849792    0.01000000    0.05000000
   19.52611160   72.05799866    0.01000000    0.05000000
   19.52916718   74.51679993    0.01000000    0.05000000
   19.53249931   83.11170197    0.01000000    0.05000000
   19.53555489   78.90350342    0.01000000    0.05000000
   19.53888893   83.51509857    0.01000000    0.05000000
   19.54194450   72.83339691    0.01000000    0.05000000
   19.54500008   75.86319733    0.01000000    0.05000000
   19.54749870   76.79149628    0.01000000    0.05000000
   19.54861069   76.60720062    0.01000000    0.05000000
   19.55166626   74.05280304    0.01000000    0.05000000
   19.55499840   77.26349640    0.01000000    0.05000000
   19.55805397   72.50550079    0.01000000    0.05000000
   19.56110954   73.34750366    0.01000000    0.05000000
   19.56444359   75.15160370    0.01000000    0.05000000
   19.56750107   72.27230072    0.01000000    0.05000000
   19.57333374   72.27230072    0.01000000    0.05000000
   19.57722282   75.23860168    0.01000000    0.05000000
   19.58055687   77.55359650    0.01000000    0.05000000
   19.58361244   73.41069794    0.01000000    0.05000000
   19.58666801   78.20240021    0.01000000    0.05000000
   19.59000015   78.05300140    0.01000000    0.05000000
   19.59305573   78.03150177    0.01000000    0.05000000
   19.59638977   76.59619904    0.01000000    0.05000000
   19.59777832   75.40160370    0.01000000    0.05000000
   19.59972191   95.57309723    0.01000000    0.05000000
   19.60277748   75.45790100    0.01000000    0.05000000
   19.60611153   75.93969727    0.01000000    0.05000000
   19.60916710   85.07219696    0.01000000    0.05000000
   19.61250114   74.94300079    0.01000000    0.05000000
   19.61555672   76.06670380    0.01000000    0.05000000
   19.61861038   72.59709930    0.01000000    0.05000000
   19.62444496   72.59709930    0.01000000    0.05000000
   19.62861061   75.39219666    0.01000000    0.05000000
   19.63166618   75.65699768    0.01000000    0.05000000
   19.63472176   78.24520111    0.01000000    0.05000000
   19.63805580   76.34420013    0.01000000    0.05000000
   19.64111137   74.32279968    0.01000000    0.05000000
   19.64444351   77.25029755    0.01000000    0.05000000
   19.64749908   94.72029877    0.01000000    0.05000000
   19.64805603   91.53990173    0.01000000    0.05000000
   19.65111160   85.46690369    0.01000000    0.05000000
   19.65444374   76.87409973    0.01000000    0.05000000
   19.65749931   78.38099670    0.01000000    0.05000000
   19.66055489  110.21099854    0.01000000    0.05000000
   19.66388893  114.38400269    0.01000000    0.05000000
   19.66694450   -1.00000000    0.01000000    0.05000000
   19.67027664   -1.00000000    0.01000000    0.05000000
   19.67944336   -1.00000000    0.01000000    0.05000000
   19.68277740   -1.00000000    0.01000000    0.05000000
   19.68583298   -1.00000000    0.01000000    0.05000000
   19.68916512   84.75399780    0.01000000    0.05000000
   19.69222069   -1.00000000    0.01000000    0.05000000
   19.69527626   -1.00000000    0.01000000    0.05000000
   19.69888878  101.73300171    0.01000000    0.05000000
   19.70194435  207.22300720    0.01000000    0.05000000
   19.70527840  116.93599701    0.01000000    0.05000000
   19.70833397   88.56430054    0.01000000    0.05000000
   19.71166801   89.86260223    0.01000000    0.05000000
   19.71472359  116.54799652    0.01000000    0.05000000
   19.71777916   92.21299744    0.01000000    0.05000000
   19.72111130   83.18000031    0.01000000    0.05000000
   19.72666740   83.18000031    0.01000000    0.05000000
   19.73083305   81.88760376    0.01000000    0.05000000
   19.73388863  108.71099854    0.01000000    0.05000000
   19.73722267  130.97000122    0.01000000    0.05000000
   19.74027824   96.25890350    0.01000000    0.05000000
   19.74361229  107.16100311    0.01000000    0.05000000
   19.74666786  135.61999512    0.01000000    0.05000000
   19.74805641  111.90200043    0.01000000    0.05000000
   19.75027847  149.46600342    0.01000000    0.05000000
   19.75333405  114.59799957    0.01000000    0.05000000
   19.75638962   94.72049713    0.01000000    0.05000000
   19.75972176  125.47899628    0.01000000    0.05000000
   19.76277733  104.74299622    0.01000000    0.05000000
   19.76583290  159.79200745    0.01000000    0.05000000
   19.76916695   -1.00000000    0.01000000    0.05000000
   19.77222252   89.71939850    0.01000000    0.05000000
   19.78194427   -1.00000000    0.01000000    0.05000000
   19.78499985   -1.00000000    0.01000000    0.05000000
   19.78833199   -1.00000000    0.01000000    0.05000000
   19.79138756   -1.00000000    0.01000000    0.05000000
   19.79444313   -1.00000000    0.01000000    0.05000000
   19.79777718   -1.00000000    0.01000000    0.05000000
   19.80138779   -1.00000000    0.01000000    0.05000000
   19.80444336   -1.00000000    0.01000000    0.05000000
   19.80749893   -1.00000000    0.01000000    0.05000000
   19.81083298   -1.00000000    0.01000000    0.05000000
   19.81388855   -1.00000000    0.01000000    0.05000000
   19.81722260   -1.00000000    0.01000000    0.05000000
   19.82027817   -1.00000000    0.01000000    0.05000000
   19.82333374   -1.00000000    0.01000000    0.05000000
   19.83305550   -1.00000000    0.01000000    0.05000000
   19.83638954   -1.00000000    0.01000000    0.05000000
   19.83944511   -1.00000000    0.01000000    0.05000000
   19.84250069   -1.00000000    0.01000000    0.05000000
   19.84583473  117.17800140    0.01000000    0.05000000
   19.84833336  137.49499512    0.01000000    0.05000000
   19.84916687   -1.00000000    0.01000000    0.05000000
   19.85222244   -1.00000000    0.01000000    0.05000000
   19.85555649  199.59100342    0.01000000    0.05000000
   19.85861206  112.63300323    0.01000000    0.05000000
   19.86194420  120.64099884    0.01000000    0.05000000
   19.86499977  116.94499969    0.01000000    0.05000000
   19.86805534  101.84500122    0.01000000    0.05000000
   19.87138939  186.50399780    0.01000000    0.05000000
   19.87444496   -1.00000000    0.01000000    0.05000000
   19.88027763   -1.00000000    0.01000000    0.05000000
   19.88444519   -1.00000000    0.01000000    0.05000000
   19.88750076   -1.00000000    0.01000000    0.05000000
   19.89083290   -1.00000000    0.01000000    0.05000000
   19.89388847   -1.00000000    0.01000000    0.05000000
   19.89694405  192.85299683    0.01000000    0.05000000
   19.89833260  180.72399902    0.01000000    0.05000000
   19.90055466  232.40899658    0.01000000    0.05000000
   19.90361023   37.36320114    0.01000000    0.05000000
   19.90694427   -1.00000000    0.01000000    0.05000000
   19.90999985   -1.00000000    0.01000000    0.05000000
   19.91333389   -1.00000000    0.01000000    0.05000000
   19.91638756   -1.00000000    0.01000000    0.05000000
   19.91944313   -1.00000000    0.01000000    0.05000000
   19.92277718   -1.00000000    0.01000000    0.05000000
   19.92583275   -1.00000000    0.01000000    0.05000000
   19.93138885   -1.00000000    0.01000000    0.05000000
   19.93555450   -1.00000000    0.01000000    0.05000000
   19.93861008   -1.00000000    0.01000000    0.05000000
   19.94194412  156.19700623    0.01000000    0.05000000
   19.94499969   -1.00000000    0.01000000    0.05000000
   19.94861031   -1.00000000    0.01000000    0.05000000
   19.95166779   -1.00000000    0.01000000    0.05000000
   19.95499992  198.20300293    0.01000000    0.05000000
   19.95805550   -1.00000000    0.01000000    0.05000000
   19.96111107  130.26600647    0.01000000    0.05000000
   19.96444511   -1.00000000    0.01000000    0.05000000
   19.96750069   -1.00000000    0.01000000    0.05000000
   19.97055626   -1.00000000    0.01000000    0.05000000
   19.97389030   -1.00000000    0.01000000    0.05000000
   19.97694588   -1.00000000    0.01000000    0.05000000
   19.98277855   -1.00000000    0.01000000    0.05000000
   19.98666763   -1.00000000    0.01000000    0.05000000
   19.98999977   -1.00000000    0.01000000    0.05000000
   19.99305534   -1.00000000    0.01000000    0.05000000
   19.99611092   -1.00000000    0.01000000    0.05000000
   19.99972153   -1.00000000    0.01000000    0.05000000
   20.00277710   -1.00000000    0.01000000    0.05000000
   20.00611115   -1.00000000    0.01000000    0.05000000
   20.00916672   -1.00000000    0.01000000    0.05000000
   20.01222229   -1.00000000    0.01000000    0.05000000
   20.01555634   -1.00000000    0.01000000    0.05000000
   20.01861000   -1.00000000    0.01000000    0.05000000
   20.02166557   -1.00000000    0.01000000    0.05000000
   20.02499962   -1.00000000    0.01000000    0.05000000
   20.02805519   -1.00000000    0.01000000    0.05000000
   20.03777695   -1.00000000    0.01000000    0.05000000
   20.04111099   -1.00000000    0.01000000    0.05000000
   20.04416656   -1.00000000    0.01000000    0.05000000
   20.04722214   -1.00000000    0.01000000    0.05000000
   20.05055428   -1.00000000    0.01000000    0.05000000
   20.05388832   -1.00000000    0.01000000    0.05000000
   20.05694389   -1.00000000    0.01000000    0.05000000
   20.05999947   -1.00000000    0.01000000    0.05000000
   20.06333351   -1.00000000    0.01000000    0.05000000
   20.06638718   -1.00000000    0.01000000    0.05000000
   20.06972313   -1.00000000    0.01000000    0.05000000
   20.07277870   -1.00000000    0.01000000    0.05000000
   20.07583427   -1.00000000    0.01000000    0.05000000
   20.07916832   -1.00000000    0.01000000    0.05000000
   20.08889008   -1.00000000    0.01000000    0.05000000
   20.09222221   -1.00000000    0.01000000    0.05000000
   20.09527779   -1.00000000    0.01000000    0.05000000
   20.09861183   -1.00000000    0.01000000    0.05000000
   20.10194397   -1.00000000    0.01000000    0.05000000
   20.10499954   -1.00000000    0.01000000    0.05000000
   20.10805511   -1.00000000    0.01000000    0.05000000
   20.11138916   -1.00000000    0.01000000    0.05000000
   20.11444473   -1.00000000    0.01000000    0.05000000
   20.11777878   -1.00000000    0.01000000    0.05000000
   20.12083435   -1.00000000    0.01000000    0.05000000
   20.12388992   -1.00000000    0.01000000    0.05000000
   20.12722206   -1.00000000    0.01000000    0.05000000
   20.13027763   -1.00000000    0.01000000    0.05000000
   20.14027786   -1.00000000    0.01000000    0.05000000
   20.14333344   -1.00000000    0.01000000    0.05000000
   20.14638901   -1.00000000    0.01000000    0.05000000
   20.14972115   -1.00000000    0.01000000    0.05000000
   20.15305519   -1.00000000    0.01000000    0.05000000
   20.15611076   -1.00000000    0.01000000    0.05000000
   20.15944481   -1.00000000    0.01000000    0.05000000
   20.16250038   -1.00000000    0.01000000    0.05000000
   20.16555595   -1.00000000    0.01000000    0.05000000
   20.16888809   -1.00000000    0.01000000    0.05000000
   20.17194366   -1.00000000    0.01000000    0.05000000
   20.17499924   -1.00000000    0.01000000    0.05000000
   20.17833328   -1.00000000    0.01000000    0.05000000
   20.18138885   -1.00000000    0.01000000    0.05000000
   20.19138718   -1.00000000    0.01000000    0.05000000
   20.19444275   -1.00000000    0.01000000    0.05000000
   20.21389008  179.92300415    0.01000000    0.05000000
   20.21444511  186.19900513    0.01000000    0.05000000
   20.21750069   -1.00000000    0.01000000    0.05000000
   20.22055626  149.59399414    0.01000000    0.05000000
   20.22389030  142.60699463    0.01000000    0.05000000
   20.22694588  116.35299683    0.01000000    0.05000000
   20.23027802  102.70600128    0.01000000    0.05000000
   20.23333359  134.92599487    0.01000000    0.05000000
   20.23888969  134.92599487    0.01000000    0.05000000
   20.24277878   -1.00000000    0.01000000    0.05000000
   20.24611092   -1.00000000    0.01000000    0.05000000
   20.24916649   -1.00000000    0.01000000    0.05000000
   20.25222206   -1.00000000    0.01000000    0.05000000
   20.25555611   -1.00000000    0.01000000    0.05000000
   20.25861168   45.59650040    0.01000000    0.05000000
   20.26194382  158.97200012    0.01000000    0.05000000
   20.26388931  206.30400085    0.01000000    0.05000000
   20.26527786  215.30999756    0.01000000    0.05000000
   20.26861000   -1.00000000    0.01000000    0.05000000
   20.27166557  199.99499512    0.01000000    0.05000000
   20.27472115  119.29100037    0.01000000    0.05000000
   20.27805519  120.01799774    0.01000000    0.05000000
   20.28111076  120.60399628    0.01000000    0.05000000
   20.28444481  146.77099609    0.01000000    0.05000000
   20.28999901  146.77099609    0.01000000    0.05000000
   20.29416656  109.80200195    0.01000000    0.05000000
   20.29722214  100.69599915    0.01000000    0.05000000
   20.30027771  167.91200256    0.01000000    0.05000000
   20.30360985  126.04900360    0.01000000    0.05000000
   20.30666542  106.31800079    0.01000000    0.05000000
   20.30999947   84.56369781    0.01000000    0.05000000
   20.31305504   83.97360229    0.01000000    0.05000000
   20.31388855   86.46340179    0.01000000    0.05000000
   20.31638718   80.28410339    0.01000000    0.05000000
   20.31972313   90.27539825    0.01000000    0.05000000
   20.32277870   82.59100342    0.01000000    0.05000000
   20.32583427   84.66950226    0.01000000    0.05000000
   20.32916832  101.80599976    0.01000000    0.05000000
   20.33222389   96.39050293    0.01000000    0.05000000
   20.33555603   88.83209991    0.01000000    0.05000000
   20.34111214   88.83209991    0.01000000    0.05000000
   20.34527779   94.64949799    0.01000000    0.05000000
   20.34833336   90.79859924    0.01000000    0.05000000
   20.35166740   94.95110321    0.01000000    0.05000000
   20.35472298   81.21829987    0.01000000    0.05000000
   20.35777855   87.92970276    0.01000000    0.05000000
   20.36111069   80.40450287    0.01000000    0.05000000
   20.36388969   82.39610291    0.01000000    0.05000000
   20.36444473   82.52320099    0.01000000    0.05000000
   20.36777878   83.33540344    0.01000000    0.05000000
   20.37083435   88.63710022    0.01000000    0.05000000
   20.37388992  100.96399689    0.01000000    0.05000000
   20.37722206  134.54200745    0.01000000    0.05000000
   20.38027763  127.23600006    0.01000000    0.05000000
   20.38361168  137.20199585    0.01000000    0.05000000
   20.38666725  118.96299744    0.01000000    0.05000000
   20.39222145  118.96299744    0.01000000    0.05000000
   20.39638901   -1.00000000    0.01000000    0.05000000
   20.39944458   -1.00000000    0.01000000    0.05000000
   20.40277672   -1.00000000    0.01000000    0.05000000
   20.40583229   -1.00000000    0.01000000    0.05000000
   20.40916634   -1.00000000    0.01000000    0.05000000
   20.41222191   -1.00000000    0.01000000    0.05000000
   20.41555595   -1.00000000    0.01000000    0.05000000
   20.41860962   -1.00000000    0.01000000    0.05000000
   20.42194366   -1.00000000    0.01000000    0.05000000
   20.42499924   -1.00000000    0.01000000    0.05000000
   20.42805481   -1.00000000    0.01000000    0.05000000
   20.43138885   -1.00000000    0.01000000    0.05000000
   20.43444443   -1.00000000    0.01000000    0.05000000
   20.43777657   -1.00000000    0.01000000    0.05000000
   20.44361115   -1.00000000    0.01000000    0.05000000
   20.44749832   -1.00000000    0.01000000    0.05000000
   20.45083427   -1.00000000    0.01000000    0.05000000
   20.45388985   -1.00000000    0.01000000    0.05000000
   20.45722389   -1.00000000    0.01000000    0.05000000
   20.46027946   -1.00000000    0.01000000    0.05000000
   20.46333504   -1.00000000    0.01000000    0.05000000
   20.46666718   -1.00000000    0.01000000    0.05000000
   20.46972275   -1.00000000    0.01000000    0.05000000
   20.47305679   -1.00000000    0.01000000    0.05000000
   20.47611237   -1.00000000    0.01000000    0.05000000
   20.47944450   -1.00000000    0.01000000    0.05000000
   20.48250008   -1.00000000    0.01000000    0.05000000
   20.48555565   -1.00000000    0.01000000    0.05000000
   20.48888969   -1.00000000    0.01000000    0.05000000
   20.49861145   -1.00000000    0.01000000    0.05000000
   20.50194359   -1.00000000    0.01000000    0.05000000
   20.50499916   -1.00000000    0.01000000    0.05000000
   20.50805473   -1.00000000    0.01000000    0.05000000
   20.51138878   -1.00000000    0.01000000    0.05000000
   20.51472282   -1.00000000    0.01000000    0.05000000
   20.51805496   -1.00000000    0.01000000    0.05000000
   20.52111053   -1.00000000    0.01000000    0.05000000
   20.52416611   -1.00000000    0.01000000    0.05000000
   20.52750015   -1.00000000    0.01000000    0.05000000
   20.53055573   -1.00000000    0.01000000    0.05000000
   20.53361130   -1.00000000    0.01000000    0.05000000
   20.53694344   -1.00000000    0.01000000    0.05000000
   20.53999901   -1.00000000    0.01000000    0.05000000
   20.54972076   -1.00000000    0.01000000    0.05000000
   20.55305481   -1.00000000    0.01000000    0.05000000
   20.55611038   -1.00000000    0.01000000    0.05000000
   20.55944443   -1.00000000    0.01000000    0.05000000
   20.56250000   -1.00000000    0.01000000    0.05000000
   20.56583214   -1.00000000    0.01000000    0.05000000
   20.56916809   -1.00000000    0.01000000    0.05000000
   20.57222366   -1.00000000    0.01000000    0.05000000
   20.57527924   -1.00000000    0.01000000    0.05000000
   20.57861137   -1.00000000    0.01000000    0.05000000
   20.58166695   -1.00000000    0.01000000    0.05000000
   20.58472252   -1.00000000    0.01000000    0.05000000
   20.58805656   -1.00000000    0.01000000    0.05000000
   20.59111214   -1.00000000    0.01000000    0.05000000
   20.60111237   -1.00000000    0.01000000    0.05000000
   20.60416794   -1.00000000    0.01000000    0.05000000
   20.60750008   -1.00000000    0.01000000    0.05000000
   20.61055565   -1.00000000    0.01000000    0.05000000
   20.61361122   -1.00000000    0.01000000    0.05000000
   20.61722183   -1.00000000    0.01000000    0.05000000
   20.62027740   -1.00000000    0.01000000    0.05000000
   20.62361145   -1.00000000    0.01000000    0.05000000
   20.62666702   -1.00000000    0.01000000    0.05000000
   20.63000107   -1.00000000    0.01000000    0.05000000
   20.63305473   -1.00000000    0.01000000    0.05000000
   20.63611031   -1.00000000    0.01000000    0.05000000
   20.63944435   -1.00000000    0.01000000    0.05000000
   20.64249992   -1.00000000    0.01000000    0.05000000
   20.65222168   -1.00000000    0.01000000    0.05000000
   20.65527725   -1.00000000    0.01000000    0.05000000
   20.65861130   -1.00000000    0.01000000    0.05000000
   20.66166687   -1.00000000    0.01000000    0.05000000
   20.66499901   -1.00000000    0.01000000    0.05000000
   20.66805458   -1.00000000    0.01000000    0.05000000
   20.67138863   -1.00000000    0.01000000    0.05000000
   20.67444420   -1.00000000    0.01000000    0.05000000
   20.67777634   -1.00000000    0.01000000    0.05000000
   20.68083191   -1.00000000    0.01000000    0.05000000
   20.68388748   -1.00000000    0.01000000    0.05000000
   20.68722153   -1.00000000    0.01000000    0.05000000
   20.69027710   -1.00000000    0.01000000    0.05000000
   20.69333267   -1.00000000    0.01000000    0.05000000
   20.70333481   -1.00000000    0.01000000    0.05000000
   20.70666695   -1.00000000    0.01000000    0.05000000
   20.70972252   -1.00000000    0.01000000    0.05000000
   20.71277809   -1.00000000    0.01000000    0.05000000
   20.71638870   -1.00000000    0.01000000    0.05000000
   20.71944427   -1.00000000    0.01000000    0.05000000
   20.72249985   -1.00000000    0.01000000    0.05000000
   20.72583389   -1.00000000    0.01000000    0.05000000
   20.72888947   -1.00000000    0.01000000    0.05000000
   20.73194504   -1.00000000    0.01000000    0.05000000
   20.73527718   -1.00000000    0.01000000    0.05000000
   20.73833275   -1.00000000    0.01000000    0.05000000
   20.74166679   -1.00000000    0.01000000    0.05000000
   20.74472237   -1.00000000    0.01000000    0.05000000
   20.75444412   -1.00000000    0.01000000    0.05000000
   20.75777817   -1.00000000    0.01000000    0.05000000
   20.76083374   -1.00000000    0.01000000    0.05000000
   20.76416588   -1.00000000    0.01000000    0.05000000
   20.76749992   -1.00000000    0.01000000    0.05000000
   20.77083397   -1.00000000    0.01000000    0.05000000
   20.77388954   -1.00000000    0.01000000    0.05000000
   20.77722168   -1.00000000    0.01000000    0.05000000
   20.78027725   -1.00000000    0.01000000    0.05000000
   20.78333282   -1.00000000    0.01000000    0.05000000
   20.78666687   -1.00000000    0.01000000    0.05000000
   20.78972244   -1.00000000    0.01000000    0.05000000
   20.79277802   -1.00000000    0.01000000    0.05000000
   20.79611015   -1.00000000    0.01000000    0.05000000
   20.80583191   -1.00000000    0.01000000    0.05000000
   20.80888748   -1.00000000    0.01000000    0.05000000
   20.81194305   -1.00000000    0.01000000    0.05000000
   20.81527710   -1.00000000    0.01000000    0.05000000
   20.81861115   -1.00000000    0.01000000    0.05000000
