    HOUR (UT)   FLARE FACTOR    SKY TESTER    SUN TESTER
   10.67194462   -1.00000000   -1.00000000   -1.00000000
   11.09499931   82.18190002    0.89999998    2.57999992
   11.09805489   78.42980194    0.89999998    2.59999990
   11.10138893   99.09649658    0.89999998    2.57999992
   11.10472298   80.23380280    0.92000002    2.57999992
   11.10777855   76.71649933    0.89999998    2.57999992
   11.11111164   86.64029694    0.92000002    2.59999990
   11.11416721   79.78089905    0.89999998    2.59999990
   11.11750031   87.02059937    0.92000002    2.59999990
   11.12333393   87.02059937    0.89999998    2.59999990
   11.12750053   75.38439941    0.89999998    2.59999990
   11.13083363   79.18399811    0.89999998    2.59999990
   11.13416672   75.46179962    0.89999998    2.59999990
   11.13722229   78.93789673    0.89999998    2.59999990
   11.14055538   80.43199921    0.88000000    2.59999990
   11.14388847   81.35420227    0.88000000    2.59999990
   11.14472198   82.88249969    0.88000000    2.59999990
   11.14750004   80.91829681    0.88000000    2.61999989
   11.15083313   79.49019623    0.86000001    2.59999990
   11.15388870   77.17910004    0.86000001    2.59999990
   11.15722179   76.69039917    0.86000001    2.61999989
   11.16055489   77.29440308    0.86000001    2.61999989
   11.16361046   75.85590363    0.86000001    2.61999989
   11.16694450   75.46820068    0.86000001    2.61999989
   11.17000008   75.55729675    0.86000001    2.61999989
   11.17472267   75.55729675    0.83999997    2.59999990
   11.17888927   78.64399719    0.83999997    2.61999989
   11.18194485   76.74549866    0.83999997    2.59999990
   11.18527794   80.42910004    0.83999997    2.61999989
   11.18833351   77.90029907    0.83999997    2.61999989
   11.19166660   77.46720123    0.83999997    2.61999989
   11.19472218   75.52919769    0.83999997    2.61999989
   11.19527817   77.47260284    0.83999997    2.61999989
   11.19861126   76.24389648    0.83999997    2.61999989
   11.20166683   73.94930267    0.83999997    2.61999989
   11.20499992   76.54900360    0.83999997    2.61999989
   11.20833302   75.05889893    0.83999997    2.61999989
   11.21138859   75.90080261    0.83999997    2.61999989
   11.21472168   78.55210114    0.83999997    2.61999989
   11.21777725   74.67939758    0.83999997    2.64000010
   11.22111034   76.80670166    0.83999997    2.64000010
   11.22583294   76.80670166    0.83999997    2.61999989
   11.22999954   77.28250122    0.83999997    2.64000010
   11.23305511   78.00199890    0.83999997    2.64000010
   11.23638916   77.95510101    0.83999997    2.61999989
   11.23972225   74.94860077    0.83999997    2.61999989
   11.24277782   76.95929718    0.83999997    2.64000010
   11.24472237   77.96630096    0.83999997    2.64000010
   11.24638939   77.39109802    0.83999997    2.64000010
   11.24972248   78.95300293    0.83999997    2.64000010
   11.25277805   77.34919739    0.83999997    2.64000010
   11.25611115   75.57209778    0.81999999    2.64000010
   11.25916672   77.99749756    0.81999999    2.64000010
   11.26249981   78.10469818    0.81999999    2.64000010
   11.26583290   75.14099884    0.83999997    2.64000010
   11.26916599   78.91480255    0.81999999    2.64000010
   11.27250004   77.91120148    0.81999999    2.64000010
   11.27694416   77.91120148    0.83999997    2.64000010
   11.28111076   75.53610229    0.81999999    2.64000010
   11.28444481   75.08709717    0.83999997    2.64000010
   11.28750038   77.18160248    0.83999997    2.64000010
   11.29083347   78.87169647    0.83999997    2.64000010
   11.29416752   80.04170227    0.83999997    2.64000010
   11.29472256   78.46730042    0.83999997    2.64000010
   11.29777813   77.17900085    0.83999997    2.64000010
   11.30111122   78.00469971    0.81999999    2.64000010
   11.30416679   77.44180298    0.83999997    2.66000009
   11.30749989   77.49900055    0.81999999    2.66000009
   11.31083393   77.80619812    0.81999999    2.66000009
   11.31388950   73.88510132    0.81999999    2.66000009
   11.31722260   75.65609741    0.81999999    2.66000009
   11.32027817   75.80919647    0.81999999    2.64000010
   11.32361126   79.58809662    0.81999999    2.66000009
   11.32805538   79.58809662    0.81999999    2.66000009
   11.33222198   78.80180359    0.81999999    2.66000009
   11.33555508   74.69950104    0.81999999    2.66000009
   11.33888817   73.89929962    0.80000001    2.66000009
   11.34194374   76.57140350    0.80000001    2.66000009
   11.34499931   77.78340149    0.80000001    2.66000009
   11.34555531   73.87370300    0.80000001    2.66000009
   11.34888840   76.44570160    0.80000001    2.66000009
   11.35194492   74.81120300    0.80000001    2.66000009
   11.35527802   80.11360168    0.80000001    2.66000009
   11.35861111   76.69789886    0.80000001    2.66000009
   11.36166668   80.56629944    0.80000001    2.66000009
   11.36500072   77.44480133    0.80000001    2.66000009
   11.36833382   78.78959656    0.80000001    2.66000009
   11.37138939   74.28739929    0.80000001    2.67000008
   11.37472248   74.34010315    0.80000001    2.66000009
   11.37944412   74.34010315    0.79000002    2.67000008
   11.38333321   80.43409729    0.80000001    2.67000008
   11.38666630   98.71610260    0.80000001    2.67000008
   11.39000034   90.34780121    0.80000001    2.66000009
   11.39305496  104.10900116    0.80000001    2.66000009
   11.39499950  109.24800110    0.80000001    2.67000008
   11.39666653  111.57099915    0.80000001    2.67000008
   11.39999962  113.16400146    0.80000001    2.67000008
   11.40333271  118.24400330    0.80000001    2.67000008
   11.40638828  126.36699677    0.80000001    2.67000008
   11.40972137  114.88400269    0.80000001    2.67000008
   11.41277695   96.66059875    0.80000001    2.67000008
   11.41611099  113.91999817    0.80000001    2.67000008
   11.41944504  119.97299957    0.80000001    2.67000008
   11.42250061  114.03600311    0.80000001    2.67000008
   11.42583370  108.05300140    0.79000002    2.67000008
   11.43055630  108.05300140    0.79000002    2.67000008
   11.43472195  129.63999939    0.80000001    2.67000008
   11.43777752  107.38800049    0.80000001    2.67000008
   11.44111156  119.12200165    0.79000002    2.67000008
   11.44444466  108.27200317    0.79000002    2.67000008
   11.44499969  109.07099915    0.79000002    2.67000008
   11.44777775  101.59999847    0.79000002    2.67000008
   11.45111084  123.10700226    0.79000002    2.67000008
   11.45444393  110.82700348    0.79000002    2.67000008
   11.45749950  106.99500275    0.79000002    2.69000006
   11.46083355  110.41200256    0.79000002    2.67000008
   11.46416664  102.58300018    0.79000002    2.69000006
   11.46722221  104.44000244    0.79000002    2.67000008
   11.47055531  111.20400238    0.79000002    2.69000006
   11.47361088  111.95300293    0.79000002    2.67000008
   11.47694397  102.98300171    0.79000002    2.69000006
   11.48166656  102.98300171    0.79000002    2.67000008
   11.48583317  102.36299896    0.79000002    2.69000006
   11.48916721  100.15699768    0.79000002    2.69000006
   11.49222279  104.41799927    0.79000002    2.69000006
   11.49499989   95.31700134    0.79000002    2.69000006
   11.49583340   99.81069946    0.79000002    2.69000006
   11.49916649  108.10600281    0.79000002    2.69000006
   11.50249958   95.49880219    0.79000002    2.69000006
   11.50555515   98.86380005    0.79000002    2.69000006
   11.50888920  102.24199677    0.79000002    2.69000006
   11.51222229   95.41899872    0.79000002    2.69000006
   11.51527786   92.04419708    0.79000002    2.69000006
   11.51861095   98.76550293    0.76999998    2.69000006
   11.52166653   93.93740082    0.79000002    2.69000006
   11.52499962  103.43000031    0.76999998    2.69000006
   11.52833271   97.23840332    0.76999998    2.69000006
   11.53277779   97.23840332    0.79000002    2.69000006
   11.53694534   91.22720337    0.79000002    2.69000006
   11.54027843   89.72049713    0.79000002    2.69000006
   11.54333401   91.12529755    0.79000002    2.71000004
   11.54500008   90.59889984    0.76999998    2.71000004
   11.54694462   91.32790375    0.76999998    2.71000004
   11.55027771   96.30410004    0.76999998    2.71000004
   11.55361176   86.50299835    0.76999998    2.71000004
   11.55666733   88.87329865    0.79000002    2.71000004
   11.56000042   82.04540253    0.76999998    2.69000006
   11.56333351   90.98410034    0.76999998    2.69000006
   11.56638908   78.12819672    0.76999998    2.71000004
   11.56972218   86.02790070    0.76999998    2.71000004
   11.57277775   86.50489807    0.76999998    2.71000004
   11.57611084   86.78800201    0.76999998    2.71000004
   11.57944393   96.23380280    0.75000000    2.71000004
   11.58416653   96.23380280    0.76999998    2.71000004
   11.58833313   87.90660095    0.75000000    2.73000002
   11.59138870   91.91889954    0.75000000    2.71000004
   11.59472179   89.08039856    0.75000000    2.71000004
   11.59527779   87.85890198    0.75000000    2.71000004
   11.59861088   90.57129669    0.75000000    2.71000004
   11.60166740   94.15360260    0.75000000    2.71000004
   11.60500050   79.75129700    0.75000000    2.71000004
   11.60805607   87.75849915    0.75000000    2.71000004
   11.61138916   88.94439697    0.73000002    2.73000002
   11.61472225   82.28289795    0.73000002    2.73000002
   11.61777782   84.71759796    0.73000002    2.71000004
   11.62111092   75.19499969    0.73000002    2.71000004
   11.62444496   85.64479828    0.73000002    2.71000004
   11.62777805   96.05670166    0.73000002    2.71000004
   11.63083363   86.47949982    0.73000002    2.73000002
   11.63527775   86.47949982    0.73000002    2.71000004
   11.63944435   82.78250122    0.73000002    2.73000002
   11.64249992   79.83139801    0.73000002    2.73000002
   11.64527798   89.70349884    0.73000002    2.73000002
   11.64611053   85.77069855    0.73000002    2.73000002
   11.64972210   75.94419861    0.73000002    2.73000002
   11.65277767   83.74870300    0.73000002    2.71000004
   11.65611076   80.90560150    0.73000002    2.73000002
   11.65916634   82.14820099    0.73000002    2.73000002
   11.66249943   81.19709778    0.73000002    2.73000002
   11.66583252   83.83380127    0.73000002    2.73000002
   11.66888905   78.07279968    0.73000002    2.73000002
   11.67222214   83.83860016    0.73000002    2.73000002
   11.67555618   81.73549652    0.73000002    2.75000000
   11.67861176   77.07610321    0.73000002    2.73000002
   11.68194485   83.19319916    0.73000002    2.73000002
   11.68638897   83.19319916    0.73000002    2.73000002
   11.69055557   78.32180023    0.73000002    2.73000002
   11.69388866   75.53700256    0.73000002    2.75000000
   11.69527817   83.66329956    0.73000002    2.73000002
   11.69750023   79.01560211    0.70999998    2.75000000
   11.70055580   75.74150085    0.70999998    2.73000002
   11.70388889   87.02429962    0.70999998    2.75000000
   11.70694447   76.37470245    0.70999998    2.75000000
   11.71027756   85.94879913    0.70999998    2.75000000
   11.71361065   84.38590240    0.70999998    2.75000000
   11.71666622   86.89749908    0.70999998    2.73000002
   11.71999931   89.72329712    0.70999998    2.75000000
   11.72333336   88.22840118    0.70999998    2.73000002
   11.72638798   83.34290314    0.70999998    2.73000002
   11.72972202   83.04209900    0.70999998    2.73000002
   11.73305511   84.41819763    0.70999998    2.75000000
   11.73777771   84.41819763    0.69000000    2.75000000
   11.74166679   76.68309784    0.69000000    2.75000000
   11.74499989   83.81359863    0.70999998    2.75000000
   11.74555588   85.33869934    0.70999998    2.75000000
   11.74888897   82.49690247    0.69000000    2.75000000
   11.75194454   84.21099854    0.69000000    2.73000002
   11.75527763   78.70850372    0.70999998    2.73000002
   11.75861073   84.39150238    0.70999998    2.75000000
   11.76166630   81.35320282    0.70999998    2.75000000
   11.76500034   79.92790222    0.70999998    2.73000002
   11.76805496  101.19699860    0.69000000    2.75000000
   11.77138901   83.13310242    0.69000000    2.75000000
   11.77472210   85.31970215    0.70999998    2.75000000
   11.77777767   78.00360107    0.69000000    2.75000000
   11.78111076   90.55269623    0.69000000    2.75000000
   11.78444481   90.00330353    0.69000000    2.75000000
   11.78888893   90.00330353    0.67000002    2.75000000
   11.79305553   94.77500153    0.69000000    2.75000000
   11.79555607   92.78450012    0.67000002    2.75000000
   11.79666710   78.55999756    0.67000002    2.75000000
   11.79972267   78.21810150    0.67000002    2.75000000
   11.80305576   81.51419830    0.67000002    2.75000000
   11.80638885   75.15080261    0.67000002    2.75000000
   11.80944443   81.74510193    0.67000002    2.75000000
   11.81277752   87.61260223    0.64999998    2.75000000
   11.81583309   91.81950378    0.64999998    2.75000000
   11.81916618   77.35009766    0.64999998    2.76999998
   11.82250023   82.04789734    0.64999998    2.75000000
   11.82555580   79.35549927    0.64999998    2.75000000
   11.82888889   89.82060242    0.64999998    2.75000000
   11.83222198   74.37079620    0.64999998    2.75000000
   11.83527756   88.27539825    0.64999998    2.76999998
   11.84000015   88.27539825    0.64999998    2.76999998
   11.84416676   84.58470154    0.64999998    2.76999998
   11.84555531   77.02580261    0.64999998    2.76999998
   11.84777737   85.89589691    0.64999998    2.76999998
   11.85083389   80.00740051    0.64999998    2.76999998
   11.85416698   90.35369873    0.64999998    2.76999998
   11.85750008   78.97080231    0.64999998    2.76999998
   11.86055565   82.68630219    0.64999998    2.76999998
   11.86388969   79.21029663    0.64999998    2.76999998
   11.86722279   76.72879791    0.64999998    2.76999998
   11.87027836   83.86370087    0.63000000    2.75000000
   11.87361145   74.46649933    0.63000000    2.76999998
   11.87666702   84.47959900    0.63000000    2.76999998
   11.88000011   80.88610077    0.63000000    2.75000000
   11.88333321   76.89579773    0.63000000    2.75000000
   11.88638878   81.05740356    0.63000000    2.76999998
   11.89111137   81.05740356    0.61000001    2.78999996
   11.89527798   77.72979736    0.61000001    2.76999998
   11.89583302   78.32350159    0.63000000    2.76999998
   11.89916611   76.98370361    0.61000001    2.76999998
   11.90222168   81.00959778    0.63000000    2.76999998
   11.90555477   82.81369781    0.61000001    2.76999998
   11.90888882   75.28880310    0.61000001    2.76999998
   11.91194439   79.40499878    0.63000000    2.76999998
   11.91527748   74.76480103    0.61000001    2.76999998
   11.91833401   80.46520233    0.61000001    2.78999996
   11.92166710   80.93589783    0.63000000    2.78999996
   11.92500019   73.39569855    0.61000001    2.78999996
   11.92805576   81.81549835    0.61000001    2.76999998
   11.93138885   77.33070374    0.63000000    2.76999998
   11.93472195   81.51069641    0.63000000    2.78999996
   11.93777752   76.14209747    0.61000001    2.76999998
   11.94222260   76.14209747    0.61000001    2.76999998
   11.94638920   76.95860291    0.63000000    2.76999998
   11.94972229   81.74890137    0.61000001    2.76999998
   11.95305538   82.67410278    0.63000000    2.78999996
   11.95611095   80.01360321    0.63000000    2.78999996
   11.95944405   79.85009766    0.61000001    2.78999996
   11.96277714   79.47119904    0.61000001    2.78999996
   11.96583271   78.73930359    0.63000000    2.76999998
   11.96916580   74.15119934    0.61000001    2.76999998
   11.97222137   79.39749908    0.63000000    2.76999998
   11.97555542   85.86959839    0.61000001    2.78999996
   11.97888851   79.05419922    0.61000001    2.78999996
   11.98194408   73.68679810    0.63000000    2.78999996
   11.98527813   82.06120300    0.63000000    2.78999996
   11.98861122   78.05100250    0.63000000    2.78999996
   11.99361134   78.05100250    0.61000001    2.78999996
   11.99777794   75.52549744    0.61000001    2.78999996
   12.00111103   78.04370117    0.61000001    2.78999996
   12.00416660   78.23130035    0.61000001    2.78999996
   12.00749969   82.93679810    0.61000001    2.76999998
   12.01055527   79.98480225    0.61000001    2.78999996
   12.01388931   84.15180206    0.61000001    2.78999996
   12.01722240   80.88980103    0.61000001    2.78999996
   12.02027798   75.39029694    0.61000001    2.78999996
   12.02361107   79.45249939    0.61000001    2.78999996
   12.02694416   74.10150146    0.61000001    2.78999996
   12.03083324   74.90170288    0.61000001    2.78999996
   12.03416729   76.27539825    0.61000001    2.78999996
   12.03750038   77.20249939    0.61000001    2.78999996
   12.04138947   77.34880066    0.61000001    2.78999996
   12.04777813   77.34880066    0.61000001    2.78999996
   12.05222225   75.69629669    0.61000001    2.78999996
   12.05666733   78.08750153    0.63000000    2.78999996
   12.06027794   77.01329803    0.61000001    2.78999996
   12.06472206   75.56050110    0.61000001    2.78999996
   12.06861115   75.06330109    0.58999997    2.80999994
   12.07222176   77.10040283    0.61000001    2.78999996
   12.07583332   77.09149933    0.61000001    2.78999996
   12.07944393   73.71279907    0.61000001    2.78999996
   12.08249950   74.91560364    0.58999997    2.78999996
   12.08583260   74.08380127    0.61000001    2.78999996
   12.08916664   75.27850342    0.61000001    2.80999994
   12.09249973   76.48699951    0.61000001    2.78999996
   12.11277771   60.80289841    0.63000000    2.80999994
   12.11361122   65.68679810    0.63000000    2.80999994
   12.11666679   75.94120026    0.63000000    2.80999994
   12.11999989   72.94180298    0.63000000    2.80999994
   12.12333393   76.35679626    0.63000000    2.80999994
   12.12638855   79.26879883    0.63000000    2.80999994
   12.12972260   76.49919891    0.63000000    2.80999994
   12.13277817   79.11049652    0.63000000    2.80999994
   12.13611126   74.24369812    0.63000000    2.80999994
   12.13944435   73.39369965    0.63000000    2.80999994
   12.14249992   74.50260162    0.63000000    2.80999994
   12.14805508   74.50260162    0.63000000    2.80999994
   12.15222168   73.73400116    0.63000000    2.80999994
   12.15555477   78.28869629    0.61000001    2.80999994
   12.15861034   74.65010071    0.61000001    2.80999994
   12.16194439   80.50189972    0.61000001    2.80999994
   12.16249943   72.84809875    0.63000000    2.80999994
   12.16555500   74.79869843    0.63000000    2.80999994
   12.16861153   77.02169800    0.63000000    2.80999994
   12.17194462   76.55539703    0.63000000    2.80999994
   12.17527771   78.67710114    0.63000000    2.80999994
   12.17833328   72.96219635    0.63000000    2.80999994
   12.18166733   77.31050110    0.63000000    2.80999994
   12.18500042   78.31900024    0.63000000    2.80999994
   12.18805599   76.54540253    0.63000000    2.80999994
   12.19138908   78.19819641    0.63000000    2.80999994
   12.19444466   78.61669922    0.63000000    2.82999992
   12.19916630   78.61669922    0.61000001    2.82999992
   12.20333290   78.22760010    0.61000001    2.80999994
   12.20666695   75.61630249    0.63000000    2.80999994
   12.21000004   74.91230011    0.61000001    2.80999994
   12.21249962   76.39309692    0.63000000    2.82999992
   12.21361065   77.07099915    0.61000001    2.80999994
   12.21666622   72.30879974    0.61000001    2.80999994
   12.21999931   75.83860016    0.61000001    2.80999994
   12.22333336   77.97280121    0.61000001    2.80999994
   12.22722149   77.50060272    0.61000001    2.80999994
   12.23027706   76.90019989    0.61000001    2.82999992
   12.23361111   74.09809875    0.58999997    2.82999992
   12.23694515   75.32949829    0.58999997    2.82999992
   12.24000072   79.03919983    0.58999997    2.82999992
   12.24333382   74.21910095    0.58999997    2.82999992
   12.24638939   78.07679749    0.58999997    2.80999994
   12.25055599   78.07679749    0.61000001    2.82999992
   12.25472260   75.55670166    0.58999997    2.82999992
   12.25805569   73.26349640    0.58999997    2.82999992
   12.26111126   76.04429626    0.61000001    2.82999992
   12.26249981   72.70220184    0.61000001    2.82999992
   12.26500034   76.19129944    0.61000001    2.82999992
   12.26833344   75.10099792    0.61000001    2.82999992
   12.27138901   75.67669678    0.63000000    2.82999992
   12.27472210   72.44180298    0.63000000    2.82999992
   12.27777767   76.28050232    0.61000001    2.82999992
   12.28111076   78.98729706    0.61000001    2.80999994
   12.28444481   78.31559753    0.61000001    2.82999992
   12.28750038   77.33979797    0.61000001    2.82999992
   12.29083347   76.84780121    0.61000001    2.82999992
   12.29416752   75.46499634    0.58999997    2.82999992
   12.29722309   79.37889862    0.58999997    2.82999992
   12.30194473   79.37889862    0.58999997    2.82999992
   12.30611134   79.18389893    0.58999997    2.82999992
   12.30916691   74.86250305    0.61000001    2.82999992
   12.31250000   77.58850098    0.58999997    2.82999992
   12.31305599   76.45639801    0.61000001    2.82999992
   12.31611156   76.88430023    0.58999997    2.82999992
   12.31944466   76.16049957    0.61000001    2.82999992
   12.32277775   79.47989655    0.61000001    2.82999992
   12.32583332   75.74459839    0.61000001    2.82999992
   12.32916641   74.68579865    0.61000001    2.82999992
   12.33249950   78.06390381    0.63000000    2.82999992
   12.33555508   75.83319855    0.61000001    2.82999992
   12.33888817   76.90950012    0.63000000    2.82999992
   12.34194374   79.47489929    0.63000000    2.82999992
   12.34527779   81.72650146    0.63000000    2.82999992
   12.34861088   73.54979706    0.63000000    2.82999992
   12.35305595   73.54979706    0.63000000    2.84999990
   12.35722256   75.36380005    0.63000000    2.82999992
   12.36027813   77.42710114    0.63000000    2.84999990
   12.36305618   75.30690002    0.63000000    2.84999990
   12.36388969   79.82679749    0.64999998    2.82999992
   12.36722279   79.79509735    0.63000000    2.82999992
   12.37055588   79.16539764    0.64999998    2.84999990
   12.37361145   78.69619751    0.63000000    2.84999990
   12.37694454   80.50679779    0.63000000    2.84999990
   12.38027763   74.75039673    0.63000000    2.84999990
   12.38333321   77.30229950    0.64999998    2.84999990
   12.38666630   80.12930298    0.64999998    2.84999990
   12.39000034   80.25650024    0.64999998    2.84999990
   12.39305496   79.19699860    0.64999998    2.84999990
   12.39638901   79.03869629    0.64999998    2.84999990
   12.39944458   78.17420197    0.64999998    2.82999992
   12.40416622   78.17420197    0.64999998    2.84999990
   12.40833282   80.61409760    0.67000002    2.84999990
   12.41166592   82.08910370    0.67000002    2.84999990
   12.41305542   79.73600006    0.67000002    2.84999990
   12.41499996   78.15299988    0.67000002    2.84999990
   12.41833401   81.86759949    0.69000000    2.84999990
   12.42166710   79.23359680    0.67000002    2.86999989
   12.42472267   78.19309998    0.67000002    2.84999990
   12.42805576   78.87210083    0.67000002    2.84999990
   12.43138885   80.45369720    0.67000002    2.84999990
   12.43444443   77.25869751    0.69000000    2.84999990
   12.43777752   77.83730316    0.69000000    2.84999990
   12.44111156   73.87609863    0.70999998    2.84999990
   12.44416714   78.91069794    0.69000000    2.86999989
   12.44750023   78.09349823    0.69000000    2.84999990
   12.45055580   83.21820068    0.69000000    2.84999990
   12.45527744   83.21820068    0.67000002    2.84999990
   12.45944405   81.22039795    0.67000002    2.84999990
   12.46277714   76.82599640    0.67000002    2.84999990
   12.46333313   78.64499664    0.67000002    2.84999990
   12.46666622   74.35820007    0.67000002    2.84999990
   12.46972179   77.12699890    0.67000002    2.84999990
   12.47305489   78.29669952    0.67000002    2.84999990
   12.47611046   77.53379822    0.64999998    2.84999990
   12.47944355   80.36129761    0.64999998    2.84999990
   12.48277760   80.83380127    0.64999998    2.84999990
   12.48583317   78.94370270    0.63000000    2.84999990
   12.48916721   79.57250214    0.63000000    2.84999990
   12.49250031   77.64350128    0.64999998    2.84999990
   12.49555588   74.80110168    0.64999998    2.84999990
   12.49888897   76.91799927    0.63000000    2.84999990
   12.50194454   77.67150116    0.64999998    2.84999990
   12.50666714   77.67150116    0.63000000    2.84999990
   12.51055527   76.19550323    0.63000000    2.84999990
   12.51333332   81.17649841    0.63000000    2.86999989
   12.51444435   77.16829681    0.63000000    2.86999989
   12.51749992   77.83110046    0.63000000    2.86999989
   12.52083302   75.02140045    0.63000000    2.84999990
   12.52416611   77.45149994    0.63000000    2.86999989
   12.52722168   77.81310272    0.63000000    2.86999989
   12.53055573   78.89179993    0.63000000    2.86999989
   12.53388977   74.94750214    0.63000000    2.86999989
   12.53694534   78.16020203    0.63000000    2.84999990
   12.54027843   76.91719818    0.63000000    2.84999990
   12.54333401   78.67440033    0.63000000    2.86999989
   12.54666710   80.48750305    0.63000000    2.86999989
   12.55000019   73.60299683    0.63000000    2.86999989
   12.55305576   78.96559906    0.61000001    2.84999990
   12.55777836   78.96559906    0.61000001    2.86999989
   12.56194496   78.09940338    0.61000001    2.86999989
   12.56333351   76.03299713    0.61000001    2.86999989
   12.56555557   77.79579926    0.61000001    2.86999989
   12.56861115   72.89199829    0.63000000    2.89000010
   12.57194424   74.70819855    0.63000000    2.89000010
   12.57499981   75.57969666    0.61000001    2.86999989
   12.57833290   78.96080017    0.61000001    2.86999989
   12.58166695   78.89739990    0.61000001    2.86999989
   12.58472157   73.97380066    0.58999997    2.86999989
   12.58805561   77.10399628    0.61000001    2.86999989
   12.59138870   78.11730194    0.61000001    2.86999989
   12.59444427   82.20919800    0.61000001    2.86999989
   12.59777737   80.39050293    0.58999997    2.86999989
   12.60083389   79.19809723    0.61000001    2.89000010
   12.60416698   76.52809906    0.61000001    2.86999989
   12.60888958   76.52809906    0.58999997    2.86999989
   12.61305618   76.01129913    0.58999997    2.86999989
   12.61361122   78.84719849    0.58999997    2.86999989
   12.61694431   79.86589813    0.56999999    2.86999989
   12.61999989   85.69860077    0.56999999    2.86999989
   12.62333393   79.98090363    0.56999999    2.86999989
   12.62666702   82.11080170    0.56999999    2.86999989
   12.62972260   83.85430145    0.56999999    2.86999989
   12.63305569   83.30120087    0.56999999    2.86999989
   12.63638878   90.05870056    0.56999999    2.86999989
   12.63944435   95.74459839    0.56999999    2.86999989
   12.64277744   88.18049622    0.56999999    2.86999989
   12.64583302   82.18049622    0.56999999    2.86999989
   12.64916611   81.08999634    0.56999999    2.89000010
   12.65249920   78.97429657    0.56999999    2.89000010
   12.65555477   80.76930237    0.56999999    2.86999989
   12.65999985   80.76930237    0.58999997    2.89000010
   12.66416645   78.11940002    0.58999997    2.86999989
   12.66750050   78.63919830    0.56999999    2.86999989
   12.67055607   79.91719818    0.56999999    2.86999989
   12.67388916   79.14009857    0.56999999    2.89000010
   12.67722225   76.97010040    0.56999999    2.86999989
   12.68027782   76.75869751    0.56999999    2.86999989
   12.68361092   80.35140228    0.56999999    2.86999989
   12.68694496   76.34320068    0.56999999    2.86999989
   12.69000053   80.84470367    0.56999999    2.86999989
   12.69333363   76.08489990    0.56999999    2.89000010
   12.69666672   78.51650238    0.55000001    2.89000010
   12.69972229   78.38459778    0.56999999    2.89000010
   12.70305538   78.97329712    0.55000001    2.89000010
   12.70611095   78.40609741    0.55000001    2.89000010
   12.71138859   78.40609741    0.55000001    2.89000010
   12.71527767   85.67919922    0.55000001    2.89000010
   12.71861076   76.86009979    0.55000001    2.89000010
   12.72194386   84.81950378    0.56999999    2.89000010
   12.72499943   81.70279694    0.56999999    2.89000010
   12.72833252   82.37200165    0.56999999    2.89000010
   12.73166656   89.32610321    0.56999999    2.86999989
   12.73472214   85.27179718    0.56999999    2.89000010
   12.73805618   78.76629639    0.56999999    2.89000010
   12.74111176   94.79499817    0.58999997    2.89000010
   12.74444485   87.94219971    0.58999997    2.86999989
   12.74777794   88.02230072    0.58999997    2.89000010
   12.75083351   82.44080353    0.58999997    2.89000010
   12.75416660   86.67669678    0.58999997    2.89000010
   12.75749969   83.35820007    0.58999997    2.89000010
   12.76249981   83.35820007    0.56999999    2.89000010
   12.76666641   88.89859772    0.56999999    2.89000010
   12.76972198   80.88439941    0.56999999    2.89000010
   12.77305508   79.40450287    0.58999997    2.89000010
   12.77638817   85.94159698    0.56999999    2.89000010
   12.77944374   80.22399902    0.56999999    2.89000010
   12.78277779   90.34040070    0.56999999    2.89000010
   12.78611183   85.48600006    0.56999999    2.89000010
   12.78916740   80.01840210    0.56999999    2.89000010
   12.79250050   81.65930176    0.56999999    2.91000009
   12.79555607   88.52839661    0.56999999    2.89000010
   12.79888916   79.56310272    0.56999999    2.89000010
   12.80222225   81.82890320    0.56999999    2.89000010
   12.80527782   82.88639832    0.56999999    2.89000010
   12.80861092   93.40760040    0.58999997    2.89000010
   12.81361103   93.40760040    0.58999997    2.89000010
   12.81777763   83.14900208    0.58999997    2.89000010
   12.82111073   81.54370117    0.58999997    2.91000009
   12.82416630   86.61499786    0.58999997    2.91000009
   12.82750034   88.17169952    0.58999997    2.89000010
   12.83083344   83.73919678    0.58999997    2.91000009
   12.83388901   78.66439819    0.58999997    2.89000010
   12.83722210   88.82579803    0.58999997    2.89000010
   12.84027767   89.12750244    0.58999997    2.89000010
   12.84361076   80.13410187    0.58999997    2.89000010
   12.84694386   89.77040100    0.58999997    2.89000010
   12.85000038   89.19180298    0.58999997    2.89000010
   12.85333347   83.67949677    0.56999999    2.89000010
   12.85666752   82.86440277    0.56999999    2.89000010
   12.85972214   87.35179901    0.56999999    2.89000010
   12.86472225   87.35179901    0.58999997    2.89000010
   12.86888885   88.15529633    0.56999999    2.91000009
   12.87222195   79.44719696    0.56999999    2.89000010
   12.87527752   82.68620300    0.56999999    2.89000010
   12.87861156   81.89330292    0.56999999    2.89000010
   12.88194466   88.47910309    0.55000001    2.89000010
   12.88500023   83.82599640    0.55000001    2.91000009
   12.88833332   84.14260101    0.55000001    2.89000010
   12.89166641   79.83889771    0.56999999    2.89000010
   12.89472198   81.91709900    0.55000001    2.91000009
   12.89805508   88.70420074    0.55000001    2.91000009
   12.90111065   84.71800232    0.55000001    2.91000009
   12.90444374   89.44419861    0.55000001    2.89000010
   12.90777779   83.16790009    0.55000001    2.91000009
   12.91083336   82.22750092    0.55000001    2.89000010
   12.91611099   82.22750092    0.55000001    2.89000010
   12.92000008   89.81439972    0.55000001    2.91000009
   12.92333412   87.94999695    0.55000001    2.89000010
   12.92666721   82.64369965    0.55000001    2.91000009
   12.92972279   83.59960175    0.55000001    2.91000009
   12.93305588   86.76940155    0.55000001    2.91000009
   12.93638897   84.10659790    0.55000001    2.91000009
   12.93944454   87.30269623    0.55000001    2.91000009
   12.94277763   92.82910156    0.55000001    2.91000009
   12.94611073   91.31970215    0.55000001    2.89000010
   12.94916630   85.32920074    0.55000001    2.91000009
   12.95249939   88.67079926    0.55000001    2.91000009
   12.95555496   84.03749847    0.55000001    2.91000009
   12.95888901   84.21140289    0.55000001    2.91000009
   12.96222210   84.19770050    0.55000001    2.91000009
   12.96722221   84.19770050    0.55000001    2.91000009
   12.97138882   76.66950226    0.55000001    2.91000009
   12.97444439   81.81999969    0.55000001    2.91000009
   12.97777748   78.56710052    0.55000001    2.91000009
   12.98111057   82.82959747    0.55000001    2.91000009
   12.98416710   83.82060242    0.55000001    2.91000009
   12.98750019   86.42140198    0.55000001    2.91000009
   12.99055576   86.47039795    0.52999997    2.91000009
   12.99388885   85.60939789    0.52999997    2.91000009
   12.99722290   86.81150055    0.52999997    2.91000009
   13.00027752   88.72830200    0.52999997    2.91000009
   13.00361156   88.36859894    0.52999997    2.91000009
   13.00694466   85.99210358    0.52999997    2.91000009
   13.01000023   87.22309875    0.52999997    2.91000009
   13.01333332   88.13490295    0.52999997    2.91000009
   13.01833344   88.13490295    0.52999997    2.91000009
   13.02250004   85.74590302    0.52999997    2.91000009
   13.02583313   80.68630219    0.52999997    2.91000009
   13.02888870   83.48490143    0.52999997    2.91000009
   13.03222179   83.34249878    0.52999997    2.91000009
   13.03527832   87.87439728    0.52999997    2.91000009
   13.03861141   86.85379791    0.51999998    2.91000009
   13.04194450   91.21070099    0.52999997    2.91000009
   13.04500008   86.50109863    0.51999998    2.91000009
   13.04833412   85.68699646    0.52999997    2.91000009
   13.05166721   84.13040161    0.51999998    2.91000009
   13.05472279   86.72429657    0.52999997    2.91000009
   13.05805588   87.92610168    0.51999998    2.91000009
   13.06111145   82.32060242    0.51999998    2.93000007
   13.06444454   85.25720215    0.51999998    2.91000009
   13.06944466   85.25720215    0.52999997    2.93000007
   13.07361126   86.98400116    0.51999998    2.91000009
   13.07694435   85.79399872    0.51999998    2.91000009
   13.07999992   85.56700134    0.51999998    2.91000009
   13.08333302   81.47969818    0.51999998    2.91000009
   13.08666611   84.34490204    0.51999998    2.91000009
   13.08972168   89.78829956    0.51999998    2.91000009
   13.09305477   85.63459778    0.52999997    2.91000009
   13.09638882   83.96839905    0.52999997    2.93000007
   13.09944439   94.37259674    0.51999998    2.93000007
   13.10277843   84.92299652    0.51999998    2.91000009
   13.10583401   82.05850220    0.52999997    2.93000007
   13.10916710   87.52490234    0.51999998    2.91000009
   13.11250019   87.57929993    0.51999998    2.89000010
   13.13305569   87.57929993    0.51999998    2.93000007
   13.13722229   84.06020355    0.52999997    2.93000007
   13.14027786   85.23829651    0.52999997    2.93000007
   13.14361095   85.78939819    0.52999997    2.93000007
   13.14694405   84.50890350    0.51999998    2.91000009
   13.14999962   89.70970154    0.51999998    2.93000007
   13.15333271   88.92259979    0.51999998    2.93000007
   13.15666676   83.41840363    0.51999998    2.91000009
   13.15972137   89.54589844    0.50000000    2.91000009
   13.16305542   84.54830170    0.50000000    2.91000009
   13.16611099   85.38909912    0.51999998    2.93000007
   13.16944504   86.82289886    0.50000000    2.93000007
   13.17277813   81.24500275    0.50000000    2.93000007
   13.17583370   86.73339844    0.50000000    2.93000007
   13.17916679   84.40209961    0.47999999    2.93000007
   13.18055630   87.83679962    0.50000000    2.93000007
   13.18472195   87.83679962    0.47999999    2.93000007
   13.18888855   84.45780182    0.47999999    2.93000007
   13.19222260   87.64369965    0.47999999    2.93000007
   13.19555569   86.22480011    0.47999999    2.93000007
   13.19861126   83.92610168    0.47999999    2.93000007
   13.20194435   82.42410278    0.47999999    2.93000007
   13.20499992   84.05010223    0.47999999    2.93000007
   13.20833302   75.55650330    0.47999999    2.93000007
   13.21166611   86.24710083    0.47999999    2.93000007
   13.21472168   88.63369751    0.46000001    2.93000007
   13.21805477   87.07399750    0.46000001    2.93000007
   13.22138882   91.42919922    0.46000001    2.93000007
   13.22444439   92.74369812    0.46000001    2.93000007
   13.22777748   86.72190094    0.46000001    2.93000007
   13.23055553   90.02670288    0.46000001    2.93000007
   13.23138809   88.36139679    0.46000001    2.93000007
   13.23611164   88.36139679    0.46000001    2.94000006
   13.24000072   90.64479828    0.46000001    2.94000006
   13.24333382   91.21869659    0.46000001    2.93000007
   13.24666691   85.52079773    0.46000001    2.93000007
   13.24972248   88.57119751    0.46000001    2.94000006
   13.25305557   84.38999939    0.46000001    2.93000007
   13.25638866   88.46179962    0.46000001    2.93000007
   13.25944424   89.23560333    0.46000001    2.93000007
   13.26277733   88.87429810    0.46000001    2.93000007
   13.26611137   90.42900085    0.46000001    2.93000007
   13.26916599   86.81400299    0.46000001    2.93000007
   13.27250004   87.34690094    0.47999999    2.93000007
   13.27555561   88.90090179    0.47999999    2.93000007
   13.27888870   87.37840271    0.47999999    2.93000007
   13.28055573   91.06759644    0.47999999    2.93000007
   13.28277779   92.30200195    0.47999999    2.94000006
   13.28722286   92.30200195    0.46000001    2.94000006
   13.29138947   90.02660370    0.47999999    2.94000006
   13.29472256   88.64810181    0.47999999    2.93000007
   13.29777813   87.11990356    0.47999999    2.93000007
   13.30111122   90.69930267    0.47999999    2.94000006
   13.30416679   86.79109955    0.47999999    2.94000006
   13.30749989   85.02919769    0.50000000    2.94000006
   13.31083393   90.92579651    0.50000000    2.93000007
   13.31388950   89.46029663    0.50000000    2.93000007
   13.31722260   88.68350220    0.50000000    2.93000007
   13.32055569   90.96189880    0.51999998    2.93000007
   13.32361126   90.75859833    0.52999997    2.93000007
   13.32694435   87.63870239    0.51999998    2.93000007
   13.33027744   93.44979858    0.52999997    2.93000007
   13.33083344   91.76290131    0.52999997    2.93000007
   13.33388901   84.04440308    0.51999998    2.93000007
   13.33833313   84.04440308    0.51999998    2.93000007
   13.34249973   90.67209625    0.51999998    2.94000006
   13.34583282   90.71579742    0.52999997    2.94000006
   13.34888840   85.55400085    0.51999998    2.94000006
   13.35222244   88.88359833    0.50000000    2.93000007
   13.35527802   91.25460052    0.50000000    2.94000006
   13.35861111   89.37609863    0.50000000    2.94000006
   13.36194515   85.61039734    0.50000000    2.94000006
   13.36500072   87.56990051    0.47999999    2.93000007
   13.36833382   87.46980286    0.47999999    2.93000007
   13.37166691   86.40370178    0.47999999    2.94000006
   13.37472248   91.53459930    0.47999999    2.93000007
   13.37805557   89.95189667    0.47999999    2.93000007
   13.38083363   87.57469940    0.47999999    2.94000006
   13.38166714   89.16339874    0.47999999    2.94000006
   13.38500023   82.08249664    0.47999999    2.94000006
   13.38944435   82.08249664    0.47999999    2.94000006
   13.39361095   86.88449860    0.47999999    2.93000007
   13.39694405   88.84619904    0.47999999    2.93000007
   13.40027714   86.18900299    0.47999999    2.93000007
   13.40333271   90.80139923    0.47999999    2.94000006
   13.40666676   89.45780182    0.47999999    2.94000006
   13.40999985   86.92559814    0.47999999    2.94000006
   13.41305542   89.40589905    0.47999999    2.94000006
   13.41638851   88.66410065    0.47999999    2.94000006
   13.41944504   85.99340057    0.47999999    2.94000006
   13.42277813   94.02729797    0.47999999    2.93000007
   13.42611122   86.67310333    0.51999998    2.94000006
   13.42916679   90.38569641    0.51999998    2.94000006
   13.43083382   88.38169861    0.51999998    2.94000006
   13.43277836   89.62590027    0.51999998    2.94000006
   13.43611145   92.61060333    0.51999998    2.93000007
   13.44083309   92.61060333    0.51999998    2.94000006
   13.44499969   88.71929932    0.52999997    2.94000006
   13.44833374   88.44159698    0.52999997    2.94000006
   13.45138836   86.53980255    0.52999997    2.93000007
   13.45472240   89.39620209    0.55000001    2.94000006
   13.45805550   86.74700165    0.55000001    2.94000006
   13.46111107   86.90280151    0.55000001    2.94000006
   13.46444416   81.18679810    0.55000001    2.94000006
   13.46749973   86.94889832    0.56999999    2.94000006
   13.47083282   86.37920380    0.56999999    2.94000006
   13.47416592   86.66600037    0.56999999    2.94000006
   13.47722149   91.33619690    0.56999999    2.94000006
   13.48055553   86.71250153    0.56999999    2.94000006
   13.48111057   89.65820313    0.56999999    2.94000006
   13.48444462   88.84290314    0.56999999    2.94000006
   13.48750019   83.34169769    0.56999999    2.94000006
   13.49194431   83.34169769    0.56999999    2.94000006
   13.49611092   85.31109619    0.58999997    2.94000006
   13.49916649   89.72779846    0.56999999    2.94000006
   13.50249958   89.06390381    0.58999997    2.94000006
   13.50583363   81.31340027    0.58999997    2.94000006
   13.50888920   79.57299805    0.58999997    2.94000006
   13.51222229   80.74500275    0.61000001    2.94000006
   13.51527786   83.67739868    0.58999997    2.94000006
   13.51861095   87.19450378    0.58999997    2.93000007
   13.52194405   90.40399933    0.58999997    2.93000007
   13.52499962   84.58920288    0.58999997    2.94000006
   13.52833271   86.97440338    0.58999997    2.94000006
   13.53111076   85.11479950    0.58999997    2.94000006
   13.53166676   85.35949707    0.61000001    2.94000006
   13.53500080   82.07289886    0.61000001    2.96000004
   13.53833389   87.16510010    0.58999997    2.94000006
   13.54305553   87.16510010    0.58999997    2.94000006
   13.54722309   86.90070343    0.58999997    2.94000006
   13.55055618   91.28399658    0.58999997    2.94000006
   13.55361176   96.18109894    0.56999999    2.94000006
   13.55694485   92.53389740    0.55000001    2.94000006
   13.56000042   90.70469666    0.55000001    2.94000006
   13.56333351   84.38069916    0.55000001    2.94000006
   13.56666660   85.17980194    0.56999999    2.94000006
   13.56972218   88.35060120    0.56999999    2.94000006
   13.57305527   87.47840118    0.56999999    2.94000006
   13.57638836   86.85880280    0.56999999    2.94000006
   13.57944393   88.61280060    0.56999999    2.94000006
   13.58111095   90.12319946    0.56999999    2.94000006
   13.58333302   85.15119934    0.56999999    2.94000006
   13.58638859   87.64849854    0.56999999    2.94000006
   13.58972168   88.98549652    0.56999999    2.94000006
   13.59416676   88.98549652    0.55000001    2.94000006
   13.59833336   84.39309692    0.52999997    2.94000006
   13.60166740   84.12779999    0.52999997    2.94000006
   13.60500050   86.25050354    0.51999998    2.94000006
   13.60805607   86.76059723    0.52999997    2.96000004
   13.61138916   88.72730255    0.52999997    2.96000004
   13.61444473   85.40769958    0.52999997    2.96000004
   13.61777782   89.84619904    0.52999997    2.94000006
   13.62111092   86.27880096    0.51999998    2.94000006
   13.62416649   86.12870026    0.51999998    2.94000006
   13.62750053   88.62359619    0.51999998    2.94000006
   13.63083363   88.56729889    0.50000000    2.94000006
   13.63111115   82.96320343    0.51999998    2.94000006
   13.63416672   87.37079620    0.50000000    2.96000004
   13.63749981   85.70439911    0.50000000    2.94000006
   13.64055538   83.05030060    0.51999998    2.94000006
   13.64555550   83.05030060    0.50000000    2.94000006
   13.64944458   86.79389954    0.50000000    2.94000006
   13.65277767   85.78170013    0.47999999    2.96000004
   13.65611076   88.93689728    0.47999999    2.94000006
   13.65916634   79.19000244    0.47999999    2.96000004
   13.66249943   84.85829926    0.47999999    2.96000004
   13.66583252   83.34750366    0.47999999    2.96000004
   13.66888905   85.64730072    0.50000000    2.96000004
   13.67222214   88.71759796    0.47999999    2.96000004
   13.67527771   88.53440094    0.50000000    2.96000004
   13.67861176   91.35639954    0.50000000    2.94000006
   13.68111134   87.82170105    0.50000000    2.94000006
   13.68222237   88.14409637    0.50000000    2.94000006
   13.68555546   86.59980011    0.50000000    2.94000006
   13.68861103   85.87169647    0.50000000    2.94000006
   13.69194412   88.29820251    0.51999998    2.94000006
   13.69666672   88.29820251    0.52999997    2.96000004
   13.70083332   89.89479828    0.51999998    2.94000006
   13.70388889   84.88469696    0.52999997    2.94000006
   13.70722198   84.97910309    0.51999998    2.94000006
   13.71055508   87.77290344    0.52999997    2.94000006
   13.71361065   83.95120239    0.52999997    2.96000004
   13.71694374   89.25900269    0.51999998    2.96000004
   13.71999931   82.86910248    0.52999997    2.94000006
   13.72333336   87.48629761    0.52999997    2.96000004
   13.72666645   91.67310333    0.52999997    2.96000004
   13.72972202   87.23880005    0.51999998    2.96000004
   13.73138809   86.08709717    0.52999997    2.96000004
   13.73333359   83.36579895    0.52999997    2.96000004
   13.73666668   87.19860077    0.52999997    2.96000004
   13.73972225   87.79889679    0.51999998    2.94000006
   13.74305534   90.73729706    0.51999998    2.93000007
   13.74777794   90.73729706    0.51999998    2.94000006
   13.75194454   88.56130219    0.51999998    2.96000004
   13.75527763   95.46019745    0.50000000    2.94000006
   13.75833321   86.06120300    0.50000000    2.94000006
   13.76166630   89.30210114    0.50000000    2.96000004
   13.76472187   88.05899811    0.50000000    2.96000004
   13.76805496   94.96289825    0.50000000    2.96000004
   13.77138901   95.19470215    0.50000000    2.94000006
   13.77444458   96.80819702    0.50000000    2.94000006
   13.77777767   90.39739990    0.50000000    2.96000004
   13.78111076   87.22779846    0.47999999    2.94000006
   13.78138828   87.07569885    0.47999999    2.96000004
   13.78472233   91.03199768    0.47999999    2.96000004
   13.78805637   89.69470215    0.47999999    2.96000004
   13.79111195   89.11160278    0.47999999    2.96000004
   13.79444504   86.43579865    0.47999999    2.96000004
   13.79888916   86.43579865    0.47999999    2.98000002
   13.80305576   95.30460358    0.47999999    2.96000004
   13.80638885   87.98930359    0.47999999    2.96000004
   13.80944443   84.87580109    0.47999999    2.96000004
   13.81277752   93.81320190    0.47999999    2.96000004
   13.81611156   92.64369965    0.47999999    2.96000004
   13.81916618   90.52549744    0.50000000    2.96000004
   13.82250023   89.50229645    0.51999998    2.96000004
   13.82583332   98.01689911    0.50000000    2.96000004
   13.82888889   94.51119995    0.51999998    2.94000006
   13.83166695   90.10749817    0.51999998    2.96000004
   13.83249950   90.58509827    0.51999998    2.96000004
   13.83583260   86.69349670    0.51999998    2.94000006
   13.83916664   89.78759766    0.52999997    2.96000004
   13.84249973   92.86049652    0.52999997    2.94000006
   13.84583282   92.83589935    0.55000001    2.96000004
   13.85000038   92.83589935    0.55000001    2.94000006
   13.85416698   86.92420197    0.56999999    2.96000004
   13.85750008   89.43299866    0.56999999    2.96000004
   13.86083412   88.62850189    0.56999999    2.96000004
   13.86388969   81.57830048    0.56999999    2.96000004
   13.86722279   92.97299957    0.56999999    2.96000004
   13.87055588   88.65460205    0.56999999    2.96000004
   13.87361145   94.38089752    0.56999999    2.96000004
   13.87694454   88.63960266    0.56999999    2.96000004
   13.88027763   84.42520142    0.58999997    2.96000004
   13.88166714   90.74980164    0.56999999    2.96000004
   13.88361073   81.77339935    0.58999997    2.96000004
   13.88694477   84.87750244    0.56999999    2.96000004
   13.89027786   89.89910126    0.56999999    2.94000006
   13.89333344   89.38899994    0.56999999    2.96000004
   13.89666653   93.14910126    0.56999999    2.96000004
   13.90138817   93.14910126    0.56999999    2.96000004
   13.90555477   90.01339722    0.56999999    2.96000004
   13.90861034   85.57180023    0.56999999    2.94000006
   13.91194439   83.41339874    0.55000001    2.96000004
   13.91527748   87.00219727    0.55000001    2.94000006
   13.91833401   89.16670227    0.56999999    2.96000004
   13.92166710   89.81150055    0.56999999    2.96000004
   13.92472267   93.47170258    0.56999999    2.96000004
   13.92805576   87.08640289    0.56999999    2.96000004
   13.93138885   83.47540283    0.56999999    2.96000004
   13.93194485   91.08950043    0.56999999    2.96000004
   13.93500042   93.34220123    0.56999999    2.96000004
   13.93833351   90.31009674    0.56999999    2.98000002
   13.94166660   86.90070343    0.56999999    2.98000002
   13.94472218   88.64279938    0.56999999    2.96000004
   13.94805527   90.79959869    0.58999997    2.96000004
   13.95249939   90.79959869    0.58999997    2.96000004
   13.95666695   82.50350189    0.61000001    2.96000004
   13.95972157   87.27580261    0.58999997    2.96000004
   13.96305561   82.98449707    0.61000001    2.96000004
   13.96638870   93.87069702    0.61000001    2.96000004
   13.96944427   82.57749939    0.61000001    2.96000004
   13.97277737   91.74600220    0.64999998    2.96000004
   13.97611046   87.18530273    0.64999998    2.96000004
   13.97916603   83.27580261    0.69000000    2.96000004
   13.98194408   85.58200073    0.69000000    2.96000004
   13.98277760   85.36219788    0.70999998    2.94000006
   13.98611164   89.71959686    0.73000002    2.96000004
   13.98944473   88.77010345    0.73000002    2.96000004
   13.99250031   81.58699799    0.73000002    2.96000004
   13.99583340   89.90290070    0.73000002    2.96000004
   13.99916649   84.34359741    0.73000002    2.96000004
   14.00361156   84.34359741    0.73000002    2.96000004
   14.00777817   90.66459656    0.75000000    2.96000004
   14.01111126   87.85320282    0.76999998    2.96000004
   14.01416683   84.37100220    0.76999998    2.96000004
   14.01749992   86.16290283    0.79000002    2.98000002
   14.02083302   87.55560303    0.83999997    2.96000004
   14.02388859   84.04340363    0.86000001    2.96000004
   14.02722168   87.98429871    0.88000000    2.96000004
   14.03055573   88.86440277    0.89999998    2.96000004
   14.03194427   84.81839752    0.89999998    2.96000004
   14.03388977   87.56890106    0.92000002    2.96000004
   14.03722286   80.97419739    0.94000000    2.96000004
   14.04055595   80.70369720    0.98000002    2.94000006
   14.04361153   89.80899811    1.00000000    2.96000004
   14.04694462   84.23919678    0.98000002    2.96000004
   14.05027771   85.94979858    0.98000002    2.94000006
   14.05500031   85.94979858    1.01999998    2.96000004
   14.05888939   85.97979736    1.01999998    2.96000004
   14.06222248   85.66069794    1.03999996    2.96000004
   14.06555557   85.92389679    1.05999994    2.98000002
   14.06861115   89.63210297    1.05999994    2.96000004
   14.07194424   91.88680267    1.05999994    2.96000004
   14.07527733   90.33570099    1.05999994    2.98000002
   14.07833290   91.24710083    1.05999994    2.96000004
   14.08166695   91.24340057    1.09000003    2.98000002
   14.08222198   90.48239899    1.09000003    2.98000002
   14.08527756   90.89839935    1.09000003    2.98000002
   14.08861065   87.66609955    1.07000005    2.96000004
   14.09194374   89.16840363    1.05999994    2.96000004
   14.09499931   93.90789795    1.03999996    2.96000004
   14.09833336   85.98449707    1.03999996    2.96000004
   14.10166740   88.94039917    1.03999996    2.96000004
   14.10611153   88.94039917    1.01999998    2.96000004
   14.11027813   91.17099762    1.05999994    2.96000004
   14.11333370   85.58619690    1.05999994    2.98000002
   14.11666679   92.43569946    1.05999994    2.98000002
   14.11999989   89.65149689    1.07000005    2.96000004
   14.12305546   86.30509949    1.05999994    2.96000004
   14.12638855   97.34880066    1.05999994    2.96000004
   14.12944412   92.47830200    1.05999994    2.96000004
   14.14666653   90.28119659    1.01999998    2.96000004
   14.14944458   91.72959900    1.01999998    2.96000004
   14.15277767   91.27790070    1.01999998    2.96000004
   14.15749931   91.27790070    0.98000002    2.98000002
   14.16166592   87.43160248    0.98000002    2.98000002
   14.16472149   85.15519714    0.92000002    2.96000004
   14.16805553   93.46160126    0.88000000    2.98000002
   14.17138958   83.55680084    0.88000000    2.94000006
   14.17444515   83.79769897    0.83999997    2.96000004
   14.17777824   84.00460052    0.81999999    2.98000002
   14.18083382   83.86080170    0.81999999    2.96000004
   14.18416691   88.24680328    0.83999997    2.98000002
   14.18750000   84.73870087    0.83999997    2.96000004
   14.19055557   90.12899780    0.83999997    2.96000004
   14.19388866   87.75620270    0.81999999    2.96000004
   14.19638920   88.75710297    0.81999999    2.96000004
   14.19750023   89.41369629    0.81999999    2.96000004
   14.20083332   88.00409698    0.81999999    2.96000004
   14.20388889   83.00160217    0.81999999    3.00000000
   14.20861053   83.00160217    0.81999999    2.98000002
   14.21277714   83.03309631    0.83999997    2.94000006
   14.21611118   88.87010193    0.83999997    2.94000006
   14.21916580   87.77089691    0.83999997    2.96000004
   14.22249985   87.66300201    0.83999997    2.96000004
   14.22583294   86.27380371    0.88000000    2.98000002
   14.22888851   93.39379883    0.89999998    2.96000004
   14.23222160   92.65080261    0.89999998    2.96000004
   14.23555565   89.67410278    0.89999998    2.98000002
   14.23861122   85.40019989    0.88000000    2.96000004
   14.24194431   92.85759735    0.86000001    2.96000004
   14.24499989   86.41290283    0.88000000    2.96000004
   14.24638939   87.96299744    0.88000000    2.96000004
   14.24861145   90.16010284    0.88000000    2.98000002
   14.25194454   87.33599854    0.88000000    2.98000002
   14.25500011   88.13369751    0.88000000    2.98000002
   14.25972176   88.13369751    0.88000000    2.98000002
   14.26388931   88.35260010    0.89999998    2.98000002
   14.26722240   85.33999634    0.89999998    2.98000002
   14.27027798   85.75620270    0.86000001    2.96000004
   14.27361107   88.68890381    0.86000001    2.98000002
   14.27694416   91.60579681    0.86000001    2.96000004
   14.27999973   85.56020355    0.86000001    2.98000002
   14.28333378   89.27760315    0.86000001    2.98000002
   14.28666687   91.39099884    0.86000001    2.96000004
   14.28972244   85.31620026    0.86000001    2.98000002
   14.29305553   88.14649963    0.86000001    2.98000002
   14.29611111   89.80509949    0.83999997    2.98000002
   14.29666710   91.95120239    0.83999997    2.98000002
   14.30000019   86.25090027    0.83999997    2.98000002
   14.30333328   90.55300140    0.86000001    2.96000004
   14.30666733   86.20690155    0.86000001    2.96000004
   14.31111145   86.20690155    0.89999998    2.96000004
   14.31500053   87.05390167    0.89999998    2.98000002
   14.31833363   83.66149902    0.92000002    2.96000004
   14.32166672   91.71289825    0.92000002    2.96000004
   14.32472229   91.50479889    0.92000002    2.98000002
   14.32805538   94.73840332    0.94000000    2.98000002
   14.33138847   90.00599670    0.94000000    2.98000002
   14.33444405   92.10340118    0.94000000    2.96000004
   14.33777714   89.01979828    0.92000002    2.96000004
   14.34083271   92.71900177    0.94000000    2.96000004
   14.34416676   87.47180176    0.94000000    2.96000004
   14.34666634   91.45279694    0.92000002    2.98000002
   14.34777737   92.11710358    0.94000000    2.98000002
   14.35111141   87.03209686    0.94000000    2.96000004
   14.35416698   88.24960327    0.92000002    2.98000002
   14.35750008   93.22170258    0.92000002    2.96000004
   14.36222267   93.22170258    0.89999998    2.96000004
   14.36638927   88.28749847    0.89999998    2.98000002
   14.36944485   94.26419830    0.86000001    2.98000002
   14.37277794   87.04309845    0.86000001    2.96000004
   14.37611103   93.43840027    0.83999997    2.96000004
   14.37916660   88.37249756    0.83999997    2.98000002
   14.38249969   88.34809875    0.81999999    2.98000002
   14.38555527   93.92890167    0.80000001    2.96000004
   14.38888836   90.95970154    0.79000002    2.96000004
   14.39222240   88.65940094    0.79000002    2.96000004
   14.39527798   90.32830048    0.76999998    2.98000002
   14.39666653   92.78469849    0.76999998    2.98000002
   14.39888859   83.47360229    0.76999998    2.98000002
   14.40222168   86.54779816    0.76999998    2.98000002
   14.40527725   90.31939697    0.75000000    2.98000002
   14.40861034   87.59049988    0.75000000    2.98000002
   14.41333294   87.59049988    0.75000000    2.98000002
   14.41750050   88.54360199    0.73000002    2.98000002
   14.42083359   90.91100311    0.73000002    2.98000002
   14.42388916   89.92549896    0.73000002    2.98000002
   14.42722225   92.03199768    0.73000002    2.98000002
   14.43027782   87.80680084    0.70999998    2.98000002
   14.43361092   85.68219757    0.73000002    2.98000002
   14.43694496   89.11399841    0.70999998    2.98000002
   14.44000053   89.62460327    0.69000000    2.98000002
   14.44333363   86.24839783    0.69000000    2.98000002
   14.44666672   94.54740143    0.70999998    2.98000002
   14.44694424   89.86630249    0.70999998    2.98000002
   14.45027733   87.80169678    0.70999998    2.98000002
   14.45361137   93.79039764    0.70999998    2.98000002
   14.45666695   91.22550201    0.70999998    2.96000004
   14.46000004   84.94059753    0.69000000    2.96000004
   14.46444416   84.94059753    0.70999998    2.98000002
   14.46861076   85.67379761    0.70999998    2.98000002
   14.47194386   87.96589661    0.70999998    2.98000002
   14.47499943   84.02429962    0.70999998    2.98000002
   14.47833252   83.33360291    0.70999998    2.98000002
   14.48166656   85.49250031    0.70999998    2.98000002
   14.48472214   88.51000214    0.73000002    2.98000002
   14.48805618   89.92639923    0.73000002    2.98000002
   14.49138927   84.50250244    0.75000000    3.00000000
   14.49444485   95.07920074    0.73000002    2.98000002
   14.49722290   92.03679657    0.73000002    2.98000002
   14.49805546   91.94499969    0.73000002    2.98000002
   14.50138855   90.54930115    0.75000000    2.98000002
   14.50472260   87.26000214    0.75000000    2.98000002
   14.50777817   89.57379913    0.75000000    2.98000002
   14.51111126   91.49369812    0.75000000    2.98000002
   14.51555538   91.49369812    0.73000002    2.98000002
   14.51972198   88.79910278    0.73000002    2.98000002
   14.52305508   93.70220184    0.73000002    2.96000004
   14.52638817   88.41179657    0.73000002    2.98000002
   14.52944374   83.92520142    0.73000002    2.98000002
   14.53277779   82.81109619    0.73000002    2.96000004
   14.53611183   84.88829803    0.73000002    2.98000002
   14.53916740   88.13529968    0.73000002    2.98000002
   14.54250050   91.34850311    0.73000002    2.98000002
   14.54555607   86.10549927    0.73000002    2.98000002
   14.54722309   89.99330139    0.73000002    2.98000002
   14.54916668   91.26319885    0.73000002    2.98000002
   14.55249977   92.32009888    0.73000002    2.98000002
   14.55583382   85.14379883    0.73000002    2.96000004
   14.55888939   89.44300079    0.73000002    2.98000002
   14.56222248   89.01550293    0.73000002    3.00000000
   14.56694412   89.01550293    0.75000000    2.98000002
   14.57111073   79.19699860    0.73000002    2.98000002
   14.57416630   85.34279633    0.73000002    3.00000000
   14.57750034   87.79219818    0.70999998    2.98000002
   14.58083344   92.64790344    0.69000000    2.98000002
   14.58388901   87.79450226    0.69000000    2.98000002
   14.58722210   85.01860046    0.67000002    2.98000002
   14.59027767   87.74320221    0.67000002    2.98000002
   14.59361076   93.40720367    0.67000002    2.98000002
   14.59694386   85.79149628    0.70999998    2.98000002
   14.59749985   83.23380280    0.70999998    2.98000002
   14.60055637   86.74739838    0.76999998    3.00000000
   14.60388947   90.48500061    0.76999998    2.98000002
   14.60694504   87.17849731    0.79000002    2.98000002
   14.61027813   87.83360291    0.81999999    2.98000002
   14.61361122   91.66000366    1.39999998    2.98000002
   14.61833382   91.66000366    1.39999998    2.98000002
   14.62250042   88.92600250    1.39999998    2.98000002
   14.62583351   89.16179657    1.30999994    2.96000004
   14.62888908   87.96389771    0.79000002    2.98000002
   14.63222218   86.28279877    0.80000001    2.98000002
   14.63555527   91.59490204    0.80000001    2.98000002
   14.63861084   84.35729980    0.83999997    2.98000002
   14.64194393   88.52690125    0.83999997    2.98000002
   14.64499950   85.37159729    0.81999999    2.98000002
   14.64750004   92.25260162    0.80000001    2.98000002
   14.64861107   87.82250214    0.81999999    2.98000002
   14.65194416   90.00740051    0.92000002    2.98000002
   14.65527725   89.75859833    0.94000000    2.98000002
   14.65833282   92.98789978    0.94000000    2.98000002
   14.66166592   90.57910156    1.21000004    2.98000002
   14.66472149   80.27429962    1.76999998    2.98000002
   14.66916656   80.27429962    3.23000002    2.94000006
   14.67333412   86.10900116    3.75000000    2.93000007
   14.67666721   90.79399872    3.28999996    2.93000007
   14.67972279   87.72540283    2.93000007    2.94000006
   14.68305588   86.56390381    2.23000002    2.94000006
   14.68611145   90.55650330    1.44000006    2.98000002
   14.68944454   83.06950378    1.16999996    2.98000002
   14.69277763   93.44950104    0.92000002    2.98000002
   14.69583321   90.15440369    0.89999998    2.98000002
   14.69750023   93.30329895    1.13000000    2.98000002
   14.69944477   94.09999847    1.25000000    2.98000002
   14.70277786   92.48549652    1.11000001    2.98000002
   14.70583344   88.02970123    0.94000000    2.98000002
   14.70916653   92.28489685    0.89999998    2.98000002
   14.71249962   85.87100220    0.83999997    2.98000002
   14.71555519   88.00119781    0.73000002    2.98000002
   14.72027779   88.00119781    0.67000002    2.98000002
   14.72444439   89.55079651    0.70999998    2.98000002
   14.72777748   87.65110016    0.75000000    2.98000002
   14.73083305   91.01950073    0.75000000    2.98000002
   14.73416710   88.79170227    0.75000000    2.98000002
   14.73750019   86.83170319    0.75000000    2.98000002
   14.74055576   88.41130066    0.75000000    2.98000002
   14.74388885   89.82730103    0.73000002    2.98000002
   14.74722290   87.50260162    0.73000002    2.98000002
   14.74777794   87.07080078    0.73000002    2.98000002
   14.75083351   84.44149780    0.70999998    2.98000002
   14.75416660   83.90100098    0.70999998    2.98000002
   14.75749969   84.40979767    0.70999998    2.98000002
   14.76055527   87.37570190    0.70999998    2.98000002
   14.76388931   88.88849640    0.70999998    2.98000002
   14.76694393   89.59130096    0.73000002    2.98000002
   14.77166653   89.59130096    1.03999996    2.98000002
   14.77555561   88.74019623    0.95999998    2.98000002
   14.77888870   86.73709869    1.03999996    2.98000002
   14.78222179   91.09259796    1.21000004    2.98000002
   14.78527832   84.61489868    1.51999998    2.96000004
   14.78861141   88.27590179    1.58000004    2.98000002
   14.79194450   86.24600220    1.19000006    2.98000002
   14.79500008   90.06780243    1.16999996    2.98000002
   14.79777813   87.39800262    1.25000000    3.00000000
   14.79861164   94.09320068    2.91000009    2.94000006
   14.80194473   89.59190369    4.44999981    2.93000007
   14.80500031   97.44570160    4.90999985    2.91000009
   14.80833340   94.60639954    4.90999985    2.93000007
   14.81166649   88.77220154    4.90999985    2.93000007
   14.81472206   90.50930023    4.55999994    2.96000004
   14.81805515   86.39299774    4.09999990    2.94000006
   14.82277775   86.39299774    4.90999985    2.94000006
   14.82694435   93.43289948    4.90999985    2.89000010
   14.82999992   87.88809967    4.90999985    2.93000007
   14.83333302   90.10880280    3.45000005    2.96000004
   14.83666611   89.33969879    2.53999996    2.98000002
   14.83972168   87.35279846    1.64999998    2.96000004
   14.84305477   88.67350006    1.25000000    3.00000000
   14.84611034   88.05339813    0.95999998    2.98000002
   14.84777737   96.14140320    0.94000000    2.98000002
   14.84972191   92.63500214    0.94000000    2.98000002
   14.85305595   91.37110138    1.69000006    2.98000002
   14.85638905   89.16819763    2.44000006    2.98000002
   14.85944462   86.45919800    2.89000010    2.98000002
   14.86277771   85.60530090    2.71000004    2.98000002
   14.86583328   95.77380371    2.66000009    2.96000004
   14.86916637   87.36940002    2.23000002    2.98000002
   14.87388897   87.36940002    4.34999990    2.96000004
   14.87805557   94.20439911    4.90999985    2.89000010
   14.88138866   93.31749725    4.90999985    2.80999994
   14.88444424   93.63099670    4.90999985    2.82999992
   14.88777733   90.39559937    4.90999985    2.91000009
   14.89083290   88.86820221    4.90999985    2.93000007
   14.89416695   88.22879791    4.90999985    2.94000006
   14.89750004   87.94609833    4.65999985    2.98000002
   14.89805508   92.12590027    4.65999985    2.98000002
   14.90111065   88.79869843    4.44999981    2.96000004
   14.90444374   92.10310364    4.90999985    2.94000006
   14.90777779   90.69830322    4.90999985    2.91000009
   14.91083336   94.79109955    4.90999985    2.93000007
   14.91416645   89.58730316    4.90999985    2.89000010
   14.91750050   89.32969666    4.90999985    2.89000010
   14.92055607   83.99919891    4.90999985    2.91000009
   14.92500019   83.99919891    4.90999985    2.91000009
   14.92916679   86.51119995    4.90999985    2.94000006
   14.93249989   88.42929840    4.17999983    2.96000004
   14.93583298   90.49949646    4.42999983    2.96000004
   14.93888855   87.05370331    4.90999985    2.93000007
   14.94222260   91.07270050    4.90999985    2.93000007
   14.94527817   89.95339966    4.90999985    2.91000009
   14.94805527   93.66909790    4.90999985    2.89000010
   14.94888878   99.16149902    4.90999985    2.82999992
   14.95222187   87.64389801    4.90999985    2.86999989
   14.95555496   93.41880035    4.90999985    2.89000010
   14.95861053   88.83180237    4.90999985    2.86999989
   14.96194458   83.84709930    4.90999985    2.82999992
   14.96527767  102.27400208    4.90999985    2.78999996
   14.96833324   87.96679688    4.90999985    2.66000009
   14.97166634   93.14520264    4.90999985    2.71000004
   14.97638798   93.14520264    4.90999985    2.73000002
   14.98027706  103.95300293    4.90999985    2.80999994
   14.98361111  114.22399902    4.90999985    2.61999989
   14.98694515   94.02529907    4.90999985    2.50000000
   14.99000072   98.66200256    4.90999985    2.82999992
   14.99333382   83.26820374    4.90999985    2.64000010
   14.99666691   96.10240173    4.90999985    2.80999994
   14.99805546   95.81430054    4.90999985    2.76999998
   15.00000000   90.50980377    4.90999985    2.75000000
   15.00333309   89.48449707    4.90999985    2.76999998
   15.00666714   95.04329681    4.90999985    2.78999996
   15.00972176   94.93589783    4.90999985    2.84999990
   15.01305580   93.83889771    4.90999985    2.84999990
   15.01638889  105.40100098    4.90999985    2.82999992
   15.01944447   92.17430115    4.90999985    2.82999992
   15.02277756   88.69000244    4.90999985    2.86999989
   15.02750015   88.69000244    4.90999985    2.86999989
   15.03166676  100.59600067    4.90999985    2.89000010
   15.03472233   91.39360046    4.90999985    2.67000008
   15.03805637   90.89260101    4.90999985    2.86999989
   15.04138947   92.68219757    4.90999985    2.91000009
   15.04444504   93.76319885    4.90999985    2.89000010
   15.04777813   89.36270142    4.90999985    2.89000010
   15.04833412   88.73750305    4.90999985    2.89000010
   15.05138874   85.47889709    4.84999990    2.93000007
   15.05472279   91.74340057    4.01999998    2.96000004
   15.05805588   95.13790131    3.99000001    2.94000006
   15.06111145   91.47090149    3.97000003    2.94000006
   15.06444454   88.11630249    4.00000000    2.94000006
   15.06777763   88.41840363    3.80999994    2.94000006
   15.07083321   88.51719666    4.17999983    2.94000006
   15.07416630   89.01899719    4.44999981    2.96000004
   15.07861137   89.01899719    4.23999977    2.94000006
   15.08277798   98.55500031    4.63999987    2.94000006
   15.08611107   80.79709625    4.73999977    2.96000004
   15.08916664   86.32969666    4.34999990    2.96000004
   15.09249973   90.53970337    4.90999985    2.89000010
   15.09555531   88.85359955    4.90999985    2.82999992
   15.09833336   94.28800201    4.90999985    2.91000009
   15.09916592   88.09870148    4.90999985    2.93000007
   15.10249996   93.52519989    4.90999985    2.93000007
   15.10583401   89.60420227    4.90999985    2.94000006
   15.10888958   90.97640228    4.90999985    2.86999989
   15.11222267   89.97840118    4.90999985    2.84999990
   15.11555576   87.65740204    4.90999985    2.82999992
   15.11861134   92.74320221    4.90999985    2.80999994
   15.12194443   87.47899628    4.90999985    2.94000006
   15.12500000   79.64869690    2.28999996    2.98000002
   15.12972260   79.64869690    1.75000000    3.00000000
   15.13388920   88.29609680    1.78999996    3.00000000
   15.13722229   89.11679840    1.75000000    2.98000002
   15.14027786   82.79949951    1.91999996    3.00000000
   15.14361095   84.56649780    1.96000004    2.98000002
   15.14694405   89.81169891    1.16999996    2.98000002
   15.16388893   87.21099854    3.05999994    2.89000010
   15.16694450   89.26139832    1.48000002    3.00000000
   15.17000008   81.19609833    0.61000001    3.00000000
   15.17333412   84.80789948    0.52999997    3.00000000
   15.17666721   91.06950378    0.56999999    3.00000000
   15.18111134   91.06950378    0.51999998    3.00000000
   15.18527794   89.93710327    0.44000000    2.98000002
   15.18833351   83.66860199    0.44000000    3.00000000
   15.19166660   86.77839661    0.44000000    3.00000000
   15.19499969   87.29280090    0.44000000    3.00000000
   15.19805527   81.24289703    0.44000000    3.00000000
   15.20138836   90.16600037    0.44000000    3.00000000
   15.20444393   85.22979736    0.46000001    3.00000000
   15.20777798   89.42120361    0.44000000    3.00000000
   15.21111107   89.28440094    0.44000000    3.00000000
   15.21388912   85.94989777    0.46000001    2.98000002
   15.21472168   85.54540253    0.46000001    3.00000000
   15.21777725   88.34320068    0.47999999    3.00000000
   15.22111034   85.34339905    0.47999999    3.00000000
   15.22444439   89.03340149    0.50000000    3.00000000
   15.22749996   89.19899750    0.50000000    3.00000000
   15.23222160   89.19899750    0.51999998    3.00000000
   15.23638916   90.39230347    0.51999998    3.00000000
   15.23972225   87.54479980    0.51999998    3.00000000
   15.24277782   81.54889679    0.51999998    3.00000000
   15.24611092   91.28690338    0.56999999    3.00000000
   15.35305595   -1.00000000   -1.00000000   -1.00000000
   15.44444466   -1.00000000   -1.00000000   -1.00000000
   15.57555580   -1.00000000   -1.00000000   -1.00000000
   15.69166660   -1.00000000   -1.00000000   -1.00000000
   15.74722290   93.28420258    0.38000000    3.00000000
   15.75055599   96.57969666    0.40000001    3.00000000
   15.75361156   93.37699890    0.34000000    3.00000000
   15.75694466   96.91660309    0.34000000    3.00000000
   15.76027775   91.36979675    0.31999999    3.00000000
   15.76333332   95.17350006    0.34000000    3.00000000
   15.76666641   93.76799774    0.34000000    3.01999998
   15.76972198   96.37680054    0.34000000    3.00000000
   15.77583313   96.37680054    0.34000000    3.01999998
   15.77999973   92.97799683    0.55000001    3.00000000
   15.78305531   87.58560181    0.67000002    3.00000000
   15.78638935   93.36350250    1.25000000    2.98000002
   15.78972244   88.04910278    1.80999994    2.98000002
   15.79277802   89.32299805    1.71000004    2.96000004
   15.79611111   92.24639893    1.25000000    3.00000000
   15.79722309   91.05979919    0.63000000    3.00000000
   15.79972267   82.57749939    0.63000000    3.00000000
   15.80305576   82.25710297    0.38000000    3.01999998
   15.80611134   81.52469635    0.44000000    3.01999998
   15.80944443   88.94799805    0.44000000    3.00000000
   15.81277752   84.64389801    0.40000001    3.00000000
   15.81583309   83.39279938    0.40000001    3.00000000
   15.81916618   88.13439941    1.01999998    3.00000000
   15.82250023   87.97090149    1.13000000    3.00000000
   15.82694435   87.97090149    1.51999998    2.98000002
   15.83111095   92.33489990    1.14999998    3.00000000
   15.83444405   83.49500275    0.50000000    3.01999998
   15.83749962   87.57569885    0.64999998    3.00000000
   15.84083271   82.48960114    0.86000001    2.98000002
   15.84416676   89.78780365    1.01999998    3.00000000
   15.84722233   85.84580231    0.88000000    3.00000000
   15.84777737   91.21700287    0.61000001    3.00000000
   15.85083389   89.83170319    0.61000001    3.00000000
   15.85416698   95.13629913    0.64999998    3.00000000
   15.85750008   87.10150146    0.69000000    3.00000000
   15.86055565   91.25199890    0.73000002    3.00000000
   15.86388969   88.42960358    0.83999997    3.00000000
   15.86694431   87.57450104    0.92000002    3.00000000
   15.87027836   85.14170074    0.95999998    3.01999998
   15.87361145   87.09269714    1.53999996    3.00000000
   15.87805557   87.09269714    2.44000006    2.98000002
   15.88222218   90.52909851    2.03999996    3.00000000
   15.88555527   83.34950256    1.89999998    3.00000000
   15.88888836   90.82379913    1.89999998    3.00000000
   15.89194393   92.81659698    2.34999990    3.00000000
   15.89527798   89.66380310    3.09999990    2.98000002
   15.89722252   91.47170258    3.57999992    2.98000002
   15.89888859   86.56839752    3.70000005    2.98000002
   15.90194416   88.37069702    3.76999998    2.98000002
   15.90527725   85.85849762    2.34999990    3.00000000
   15.90861034   87.81529999    2.01999998    2.98000002
   15.91166592   86.06169891    2.05999994    3.00000000
   15.91499996   89.20559692    1.44000006    3.00000000
   15.91805553   83.46829987    1.09000003    3.00000000
   15.92138958   86.45449829    0.79000002    3.00000000
   15.92472267   89.14379883    0.75000000    2.98000002
   15.92944431   89.14379883    0.70999998    3.00000000
   15.93361092   98.40249634    0.69000000    3.00000000
   15.93666649   92.29640198    0.70999998    3.00000000
   15.94000053   90.18609619    0.70999998    3.00000000
   15.94305515   90.92279816    0.51999998    3.00000000
   15.94638920   88.01540375    0.51999998    3.01999998
   15.94722271   86.92749786    0.51999998    3.01999998
   15.94999981   88.62270355    0.46000001    3.00000000
   15.95305538   84.88210297    0.41999999    3.00000000
   15.95638847   88.03549957    0.41999999    3.00000000
   15.95972157   87.31880188    0.38000000    3.00000000
   15.96277714   89.65239716    0.40000001    3.01999998
   15.96611118   88.82170105    0.40000001    3.00000000
   15.96944427   88.38330078    0.40000001    3.01999998
   15.97249985   86.40260315    0.40000001    3.01999998
   15.97583294   85.06749725    0.38000000    3.00000000
   15.98055553   85.06749725    0.38000000    3.01999998
   15.98472214   81.68430328    0.38000000    3.01999998
   15.98777771   85.12740326    0.38000000    3.00000000
   15.99111176   86.70490265    0.38000000    3.00000000
   15.99444485   87.25520325    0.40000001    3.00000000
   15.99722290   82.41110229    0.40000001    3.00000000
   15.99805546   84.06210327    0.40000001    3.00000000
   16.00138855   89.20780182    0.40000001    3.00000000
   16.00444412   85.26619720    0.40000001    3.01999998
   16.00777817   86.26689911    0.40000001    3.00000000
   16.01083374   84.83290100    0.40000001    3.01999998
   16.01416588   88.43930054    0.38000000    3.00000000
   16.01749992   89.62920380    0.38000000    3.00000000
   16.02055550   86.79119873    0.40000001    3.00000000
   16.02388954   92.00650024    0.40000001    3.00000000
   16.02722168   87.91490173    0.41999999    3.00000000
   16.03166580   87.91490173    0.41999999    3.01999998
   16.03583336   90.37629700    0.40000001    3.00000000
   16.03916550   91.95989990    0.41999999    3.00000000
   16.04222107   85.60739899    0.41999999    3.00000000
   16.04555511   86.02799988    0.41999999    3.01999998
   16.04722214   82.41390228    0.41999999    3.01999998
   16.04916573   91.92050171    0.40000001    3.01999998
   16.05249977   88.21420288    0.40000001    3.00000000
   16.05555534   87.87539673    0.44000000    3.00000000
   16.05888748   80.58360291    0.44000000    3.00000000
   16.06194305   88.16829681    0.44000000    3.01999998
   16.06527710   85.37850189    0.41999999    3.00000000
   16.06861115   84.90440369    0.41999999    3.00000000
   16.07166672   85.30130005    0.40000001    3.00000000
   16.07500076   89.67960358    0.40000001    3.01999998
   16.07833481   84.27359772    0.34000000    3.00000000
   16.08277893   84.27359772    0.34000000    3.00000000
   16.08694458   86.42559814    0.34000000    3.01999998
   16.09027863   86.45839691    0.31999999    3.00000000
   16.09361267   91.70539856    0.34000000    3.01999998
   16.09666824   92.30190277    0.34000000    3.01999998
   16.09722328   86.96250153    0.34000000    3.01999998
   16.10027885   84.40119934    0.36000001    3.00000000
   16.10361099   86.89779663    0.36000001    3.00000000
   16.10666656   87.73690033    0.36000001    3.01999998
   16.11000061   87.44270325    0.36000001    3.00000000
   16.11333466   83.31999969    0.36000001    3.00000000
   16.11638832   83.84529877    0.40000001    3.00000000
   16.11972237   80.88130188    0.38000000    3.01999998
   16.12277794   87.05000305    0.38000000    3.00000000
   16.12611198   89.83529663    0.40000001    3.01999998
   16.12944412   90.92279816    0.40000001    3.00000000
   16.13416672   90.92279816    0.40000001    3.01999998
   16.13833237   85.96620178    0.40000001    3.01999998
   16.14138794   86.67780304    0.44000000    3.00000000
   16.14472198   84.54550171    0.44000000    3.00000000
   16.14722252   89.13520050    0.61000001    3.01999998
   16.14833260   88.37560272    0.61000001    3.01999998
   16.15166664   79.29029846    0.67000002    3.01999998
   16.15472221   85.52919769    0.55000001    3.01999998
   16.15805435   85.01200104    0.55000001    3.01999998
   16.16110992   90.62709808    0.55000001    3.01999998
   16.16444397   95.62359619    0.55000001    3.01999998
   16.16777802   93.73459625    0.55000001    3.01999998
   16.17083359   94.21080017    0.55000001    3.01999998
   16.17416573   94.47139740    0.55000001    3.01999998
   16.17749977   95.86789703    0.55000001    3.01999998
   16.18055534   92.53730011    0.55000001    3.01999998
   16.18527603   92.53730011    0.55000001    3.01999998
   16.18944359   93.77880096    0.55000001    3.01999998
   16.19249916   89.79049683    0.55000001    3.01999998
   16.19583321   90.72470093    0.55000001    3.01999998
   16.19722176   93.00379944    0.55000001    3.01999998
   16.19944382   90.42199707    0.55000001    3.01999998
   16.20277786   92.17669678    0.55000001    3.01999998
   16.20583344   89.49210358    0.55000001    3.01999998
   16.20916748   88.00299835    0.55000001    3.01999998
   16.21250153   87.47619629    0.55000001    3.01999998
   16.21555710   89.80989838    0.55000001    3.01999998
   16.21888924   88.64080048    0.55000001    3.01999998
   16.22194481   92.45179749    0.55000001    3.01999998
   16.22527885   88.28829956    0.55000001    3.01999998
   16.22861099   90.31060028    0.55000001    3.01999998
   16.23166656   84.70800018    0.55000001    3.01999998
   16.23638916   84.70800018    0.55000001    3.01999998
   16.24055672   82.02469635    0.55000001    3.01999998
   16.24388885   85.18699646    0.55000001    3.01999998
   16.24694443   86.62030029    0.55000001    3.01999998
   16.24749947   86.30549622    0.55000001    3.01999998
   16.25055504   87.16889954    0.55000001    3.01999998
   16.25388908   87.93219757    0.55000001    3.01999998
   16.25694466   92.62339783    0.55000001    3.01999998
   16.26027870   90.46179962    0.55000001    3.01999998
   16.26333427   93.15660095    0.55000001    3.01999998
   16.26666641   88.45300293    0.55000001    3.01999998
   16.27000046   90.73229980    0.55000001    3.01999998
   16.27305603   93.18270111    0.55000001    3.01999998
   16.27638817   91.08719635    0.55000001    3.01999998
   16.27972221   88.98139954    0.55000001    3.01999998
   16.28277779   89.83660126    0.55000001    3.01999998
   16.28750038   89.83660126    0.55000001    3.01999998
   16.29166603   87.87680054    0.55000001    3.01999998
   16.29500008   84.47039795    0.55000001    3.01999998
   16.29749870   87.52970123    0.55000001    3.01999998
   16.29861069   82.02100372    0.55000001    3.01999998
   16.30194283   89.52670288    0.55000001    3.01999998
   16.30499840   87.37529755    0.55000001    3.01999998
   16.30833244   89.05690002    0.55000001    3.01999998
   16.31138802   89.37950134    0.55000001    3.01999998
   16.31472206   88.50900269    0.55000001    3.01999998
   16.31805611   84.00170135    0.55000001    3.01999998
   16.32111168   88.24410248    0.55000001    3.01999998
   16.32444572   90.85669708    0.55000001    3.01999998
   16.32777786   87.04479980    0.55000001    3.01999998
   16.33083344   86.48079681    0.55000001    3.01999998
   16.33416748   85.63710022    0.55000001    3.01999998
   16.33889008   85.63710022    0.55000001    3.01999998
   16.34305573   87.39869690    0.55000001    3.01999998
   16.34611130   85.50800323    0.55000001    3.01999998
   16.34749985   86.76609802    0.55000001    3.01999998
   16.34972191   89.13729858    0.55000001    3.01999998
   16.35305595   85.90409851    0.55000001    3.01999998
   16.35639000   88.47709656    0.55000001    3.01999998
   16.35944557   87.75469971    0.55000001    3.01999998
   16.36277771   90.18820190    0.55000001    3.01999998
   16.36611176   93.30429840    0.55000001    3.01999998
   16.36916733   85.89479828    0.55000001    3.01999998
   16.37249947   94.85549927    0.55000001    3.01999998
   16.37583351   83.94419861    0.55000001    3.01999998
   16.37888908   85.80740356    0.55000001    3.01999998
   16.38222313   82.42870331    0.55000001    3.01999998
   16.38527679   88.63420105    0.55000001    3.01999998
   16.38999939   88.63420105    0.55000001    3.01999998
   16.39416695   85.34870148    0.55000001    3.01999998
   16.39749908   87.41470337    0.55000001    3.01999998
   16.39777756   84.89199829    0.55000001    3.01999998
   16.40111160   87.91660309    0.55000001    3.01999998
   16.40444374   84.79560089    0.55000001    3.01999998
   16.40749931   89.29299927    0.55000001    3.01999998
   16.41083336   88.66049957    0.55000001    3.01999998
   16.41416550   93.59889984    0.55000001    3.01999998
   16.41722107   83.46700287    0.55000001    3.01999998
   16.42055511   89.57790375    0.55000001    3.01999998
   16.42388916   90.19950104    0.55000001    3.01999998
   16.42694473   84.66639709    0.55000001    3.01999998
   16.43027687   82.26339722    0.55000001    3.01999998
   16.43333244   85.87090302    0.55000001    3.01999998
   16.43666649   94.04740143    0.55000001    3.01999998
   16.44111061   94.04740143    0.55000001    3.01999998
   16.44527626   88.58149719    0.55000001    3.01999998
   16.44805527   93.54709625    0.55000001    3.01999998
   16.44888878   86.28500366    0.55000001    3.01999998
   16.45222282   88.08670044    0.55000001    3.01999998
   16.45527840   89.58480072    0.55000001    3.01999998
   16.45861244   86.22339630    0.55000001    3.01999998
   16.46194458   87.09140015    0.55000001    3.01999998
   16.46500015   89.56439972    0.55000001    3.01999998
   16.46833420   88.84519958    0.55000001    3.01999998
   16.47166634   87.33999634    0.55000001    3.01999998
   16.47472191   85.84449768    0.55000001    3.01999998
   16.47805595   90.40049744    0.55000001    3.01999998
   16.48111153   83.96710205    0.55000001    3.01999998
   16.48444557   83.64060211    0.55000001    3.01999998
   16.48777771   83.54779816    0.55000001    3.01999998
   16.49222183   83.54779816    0.55000001    3.01999998
   16.49638939   87.92890167    0.55000001    3.01999998
   16.49805641   88.68579865    0.55000001    3.01999998
   16.50000000   87.85700226    0.55000001    3.01999998
   16.50333405   85.07029724    0.55000001    3.01999998
   16.50638962   79.30470276    0.55000001    3.01999998
   16.50972176   85.89910126    0.55000001    3.01999998
   16.51305580   84.40769958    0.55000001    3.01999998
   16.51611137   81.58570099    0.55000001    3.01999998
   16.51944351   82.22879791    0.55000001    3.01999998
   16.52277756   87.73419952    0.55000001    3.01999998
   16.52583313   86.56780243    0.55000001    3.01999998
   16.52916718   84.56749725    0.55000001    3.01999998
   16.53222275   85.46440125    0.55000001    3.01999998
   16.53555489   87.17019653    0.55000001    3.01999998
   16.53888893   84.97519684    0.55000001    3.01999998
   16.54361153   84.97519684    0.55000001    3.01999998
   16.54777718   88.06359863    0.55000001    3.01999998
   16.54805565   86.70770264    0.55000001    3.01999998
   16.55138779   86.23870087    0.55000001    3.01999998
   16.55472183   89.65190125    0.55000001    3.01999998
   16.55777740   88.47609711    0.55000001    3.01999998
   16.56110954   85.18360138    0.55000001    3.01999998
   16.56444359   88.74909973    0.55000001    3.01999998
   16.56750107   88.88339996    0.55000001    3.01999998
   16.57083511   81.36640167    0.55000001    3.01999998
   16.57416725   88.76560211    0.55000001    3.01999998
   16.57722282   84.85240173    0.55000001    3.01999998
   16.58055687   80.86450195    0.55000001    3.01999998
   16.58361244   82.55580139    0.55000001    3.01999998
   16.58694458   82.86360168    0.55000001    3.01999998
   16.59027863   86.10099792    0.55000001    3.01999998
   16.59472275   86.10099792    0.55000001    3.01999998
   16.59889030   85.64779663    0.55000001    3.01999998
   16.60194397   85.84410095    0.55000001    3.01999998
   16.60527802   83.95469666    0.55000001    3.01999998
   16.60861206   84.11990356    0.55000001    3.01999998
   16.61166763   85.13369751    0.55000001    3.01999998
   16.61499977   88.64649963    0.55000001    3.01999998
   16.61833382   82.64179993    0.55000001    3.01999998
   16.62138939   83.47820282    0.55000001    3.01999998
   16.62472153   76.96990204    0.55000001    3.01999998
   16.62777710   80.60009766    0.55000001    3.01999998
   16.63111115   86.32170105    0.55000001    3.01999998
   16.63444519   84.45400238    0.55000001    3.01999998
   16.63750076   79.18920135    0.55000001    3.01999998
   16.64083290   80.05970001    0.55000001    3.01999998
   16.64583397   80.05970001    0.55000001    3.01999998
   16.64999962   82.32830048    0.55000001    3.01999998
   16.65333366   82.22560120    0.55000001    3.01999998
   16.65638924   84.02410126    0.55000001    3.01999998
   16.65972137   85.70970154    0.55000001    3.01999998
   16.66305542   88.50890350    0.55000001    3.01999998
   16.66611099   83.10269928    0.55000001    3.01999998
   16.66944313   87.00839996    0.55000001    3.01999998
   16.67249870   86.77380371    0.55000001    3.01999998
   16.67583275   86.79560089    0.55000001    3.01999998
   16.67916679   84.91919708    0.55000001    3.01999998
   16.68222237   84.19570160    0.55000001    3.01999998
   16.68555450   84.56529999    0.55000001    3.01999998
   16.68888855   84.30850220    0.55000001    3.01999998
   16.69194412   84.09700012    0.55000001    3.01999998
   16.69694328   84.09700012    0.55000001    3.01999998
   16.70111275   86.99980164    0.55000001    3.01999998
   16.70444489   81.48660278    0.55000001    3.01999998
   16.70777893   84.30940247    0.55000001    3.01999998
   16.71083450   84.69599915    0.55000001    3.01999998
   16.71416664   83.00029755    0.55000001    3.01999998
   16.71722221   87.06300354    0.55000001    3.01999998
   16.72055626   85.90309906    0.55000001    3.01999998
   16.72389030   79.35230255    0.55000001    3.01999998
   16.72694588   81.28099823    0.55000001    3.01999998
   16.73027802   83.59030151    0.55000001    3.01999998
   16.73361206   86.36360168    0.55000001    3.01999998
   16.73666763   83.36289978    0.55000001    3.01999998
   16.73999977   82.68710327    0.55000001    3.01999998
   16.74305534   81.85299683    0.55000001    3.01999998
   16.76472282   86.41880035    0.55000001    3.01999998
   16.76499939   81.56140137    0.55000001    3.01999998
   16.76833344   87.85009766    0.55000001    3.01999998
   16.77166557   85.37400055    0.55000001    3.01999998
   16.77472115   81.37550354    0.55000001    3.01999998
   16.77805519   85.89900208    0.55000001    3.01999998
   16.78111076   89.88159943    0.55000001    3.01999998
   16.78444481   79.45120239    0.55000001    3.01999998
   16.78777695   87.87039948    0.55000001    3.01999998
   16.79083252   85.39150238    0.55000001    3.01999998
   16.79416656   84.69210052    0.55000001    3.01999998
   16.79944420   84.69210052    0.55000001    3.01999998
   16.80360985   83.34470367    0.55000001    3.01999998
   16.80694389   86.06020355    0.55000001    3.01999998
   16.80999947   83.68869781    0.55000001    3.01999998
   16.81333351   85.51319885    0.55000001    3.01999998
   16.81444359   85.93180084    0.55000001    3.01999998
   16.81694603   85.09860229    0.55000001    3.01999998
   16.82027817   83.72489929    0.55000001    3.01999998
   16.82333374   84.66979980    0.55000001    3.01999998
   16.82666779   85.42559814    0.55000001    3.01999998
   16.83000183   85.41100311    0.55000001    3.01999998
   16.83305550   81.27349854    0.55000001    3.01999998
   16.83638954   82.69429779    0.55000001    3.01999998
   16.83944511   84.46589661    0.55000001    3.01999998
   16.84277916   93.65740204    0.55000001    3.01999998
   16.84611130   83.03109741    0.55000001    3.01999998
   16.85083389   83.03109741    0.55000001    3.01999998
   16.85472298   88.62329865    0.55000001    3.01999998
   16.85805511   85.27159882    0.55000001    3.01999998
   16.86138916   85.03549957    0.55000001    3.01999998
   16.86444473   83.65570068    0.55000001    3.01999998
   16.86499977   86.99459839    0.55000001    3.01999998
   16.86833382   86.60690308    0.55000001    3.01999998
   16.87166595   84.58779907    0.55000001    3.01999998
   16.87472153   88.36049652    0.55000001    3.01999998
   16.87805557   82.28959656    0.55000001    3.01999998
   16.88111115   88.79419708    0.55000001    3.01999998
   16.88444519   83.23590088    0.55000001    3.01999998
   16.88777733   86.49400330    0.55000001    3.01999998
   16.89083290   85.57219696    0.55000001    3.01999998
   16.89416695   86.57710266    0.55000001    3.01999998
   16.89749908   85.47769928    0.55000001    3.01999998
   16.90194321   85.47769928    0.55000001    3.01999998
   16.90611076   76.05570221    0.55000001    3.01999998
   16.90916634   88.65799713    0.55000001    3.01999998
   16.91250038   81.97180176    0.55000001    3.01999998
   16.91444397   88.75019836    0.55000001    3.01999998
   16.91611099   86.23989868    0.55000001    3.01999998
   16.91944313   85.60980225    0.55000001    3.01999998
   16.92249870   85.16030121    0.55000001    3.01999998
   16.92583275   78.66439819    0.55000001    3.01999998
   16.92916679   89.89769745    0.55000001    3.01999998
   16.93222237   81.28350067    0.55000001    3.01999998
   16.93555450   87.27649689    0.55000001    3.01999998
   16.93888855   89.20130157    0.55000001    3.01999998
   16.94194412   87.22190094    0.55000001    3.01999998
   16.94527626   84.20110321    0.55000001    3.01999998
   16.94833183   86.65689850    0.55000001    3.01999998
   16.95305634   86.65689850    0.55000001    3.01999998
   16.95722389   88.57820129    0.55000001    3.01999998
   16.96055603   89.89669800    0.55000001    3.01999998
   16.96361160   84.32450104    0.55000001    3.01999998
   16.96472359   85.87490082    0.55000001    3.01999998
   16.96722221   86.39170074    0.55000001    3.01999998
   16.97055626   89.39610291    0.55000001    3.01999998
   16.97361183   84.40889740    0.55000001    3.01999998
   16.97694588   82.66100311    0.55000001    3.01999998
   16.98027802   85.25599670    0.55000001    3.01999998
   16.98333359   83.54910278    0.55000001    3.01999998
   16.98666763   91.02670288    0.55000001    3.01999998
   16.98999977   84.50199890    0.55000001    3.01999998
   16.99305534   88.98069763    0.55000001    3.01999998
   16.99638939   88.48000336    0.55000001    3.01999998
   16.99944496   88.21410370    0.55000001    3.01999998
   17.00416756   88.21410370    0.55000001    3.01999998
   17.00833321   83.27030182    0.55000001    3.01999998
   17.01166725   85.64469910    0.55000001    3.01999998
   17.01472282   85.90499878    0.55000001    3.01999998
   17.01527786   84.18299866    0.55000001    3.01999998
   17.01861000   86.56649780    0.55000001    3.01999998
   17.02166557   86.62850189    0.55000001    3.01999998
   17.02499962   87.09230042    0.55000001    3.01999998
   17.02805519   85.93640137    0.55000001    3.01999998
   17.03138924   85.59470367    0.55000001    3.01999998
   17.03472137   88.43879700    0.55000001    3.01999998
   17.03777695   91.01869965    0.55000001    3.01999998
   17.04111099   86.50769806    0.55000001    3.01999998
   17.04416656   87.28309631    0.55000001    3.01999998
   17.04749870   86.71340179    0.55000001    3.01999998
   17.05083275   89.45639801    0.55000001    3.01999998
   17.05555534   89.45639801    0.55000001    3.01999998
   17.05972099   86.86190033    0.55000001    3.01999998
   17.06277657   91.18399811    0.55000001    3.01999998
   17.06472206   84.12689972    0.55000001    3.01999998
   17.06638718   86.34329987    0.55000001    3.01999998
   17.06972313   89.77269745    0.55000001    3.01999998
   17.07277870   89.31950378    0.55000001    3.01999998
   17.07611275   87.34089661    0.55000001    3.01999998
   17.07916832   87.70420074    0.55000001    3.01999998
   17.08250046   90.78440094    0.55000001    3.01999998
   17.08583450   88.17449951    0.55000001    3.01999998
   17.08889008   93.36209869    0.55000001    3.01999998
   17.09222221   86.41490173    0.55000001    3.01999998
   17.09555626   92.94010162    0.55000001    3.01999998
   17.09861183   86.79660034    0.55000001    3.01999998
   17.10194397   85.52249908    0.55000001    3.01999998
   17.10666656   85.52249908    0.55000001    3.01999998
   17.11083412   87.68219757    0.55000001    3.01999998
   17.11416626   85.77169800    0.55000001    3.01999998
   17.11472321   91.21330261    0.55000001    3.01999998
   17.11777878   87.93139648    0.55000001    3.01999998
   17.12111092   90.90260315    0.55000001    3.01999998
   17.12416649   86.07129669    0.55000001    3.01999998
   17.12750053   84.60500336    0.55000001    3.01999998
   17.13083267   83.71299744    0.55000001    3.01999998
   17.13388824   90.99790192    0.55000001    3.01999998
   17.13722229   86.93180084    0.55000001    3.01999998
   17.14027786   87.22720337    0.55000001    3.01999998
   17.14361191   92.64669800    0.55000001    3.01999998
   17.14694405   88.08689880    0.55000001    3.01999998
   17.14999962   86.36299896    0.55000001    3.01999998
   17.15333366   86.19280243    0.55000001    3.01999998
   17.15777779   86.19280243    0.55000001    3.01999998
   17.16194344   86.05660248    0.55000001    3.01999998
   17.16472244   90.18199921    0.55000001    3.01999998
   17.16555595   92.05059814    0.55000001    3.01999998
   17.16888809   87.63999939    0.55000001    3.01999998
   17.17194366   92.85489655    0.55000001    3.01999998
   17.17527771   85.50330353    0.55000001    3.01999998
   17.17860985   82.22250366    0.55000001    3.01999998
   17.18166542   90.32250214    0.55000001    3.01999998
   17.18499947   90.53759766    0.55000001    3.01999998
   17.18805504   85.47969818    0.55000001    3.01999998
   17.19138718   92.80300140    0.55000001    3.01999998
   17.19472122   91.60459900    0.55000001    3.01999998
   17.19777679   90.77739716    0.55000001    3.01999998
   17.20111275   91.11519623    0.55000001    3.01999998
   17.20444489   88.28959656    0.55000001    3.01999998
   17.20888901   88.28959656    0.55000001    3.01999998
   17.21305656   94.73429871    0.55000001    3.01999998
   17.21500015   90.40260315    0.55000001    3.01999998
   17.21666718   89.23130035    0.55000001    3.01999998
   17.22000122   86.19400024    0.56999999    3.01999998
   17.22305679   90.48310089    0.44000000    3.00000000
   17.22638893   95.80760193    0.09000000    0.80000001
   17.22972298   92.89720154    0.03000000    0.19000000
   17.23277855   90.16649628    0.03000000    0.19000000
   17.23611069  100.83300018    0.03000000    0.19000000
   17.23944473   89.68969727    0.03000000    0.19000000
   17.24305534   87.06349945    0.00000000    0.00000000
   17.24694443   93.06150055    0.00000000    0.00000000
   17.25083351   93.31950378    0.00000000    0.00000000
   17.25472260   90.69989777    0.00000000    0.00000000
   17.26083374   90.69989777    0.00000000    0.00000000
   17.26555634   84.51419830    0.00000000    0.00000000
   17.26611137   86.62989807    0.00000000    0.00000000
   17.27000046   88.06950378    0.00000000    0.00000000
   17.27388954   86.74199677    0.00000000    0.00000000
   17.27750015   87.68460083    0.00000000    0.00000000
   17.28111076   89.24310303    0.03000000    0.19000000
   17.28416634   84.14540100    0.03000000    0.19000000
   17.28750038   88.70870209    0.03000000    0.19000000
   17.29083252   85.83540344    0.03000000    0.19000000
   17.29388809   84.47930145    0.03000000    0.19000000
   17.29722214   84.24649811    0.03000000    0.19000000
   17.30027771   89.69370270    0.03000000    0.19000000
   17.30360985   90.94529724    0.03000000    0.19000000
   17.30694389   92.21140289    0.03000000    0.19000000
   17.31138802   92.21140289    0.03000000    0.19000000
   17.31555557   91.82489777    0.03000000    0.19000000
   17.31861115   87.38150024    0.03000000    0.19000000
   17.32194519   95.17389679    0.03000000    0.19000000
   17.32527924   86.55740356    0.03000000    0.19000000
   17.32833481   88.91190338    0.03000000    0.19000000
   17.33166695   90.94760132    0.03000000    0.19000000
   17.33500099   88.30059814    0.03000000    0.19000000
   17.33805656   94.65209961    0.03000000    0.19000000
   17.34138870   90.91629791    0.03000000    0.19000000
   17.34444427   90.68000031    0.03000000    0.19000000
   17.34777832   91.30310059    0.03000000    0.19000000
   17.35111237   92.06800079    0.03000000    0.19000000
   17.35416794   90.05570221    0.03000000    0.19000000
   17.35750008   94.29699707    0.03000000    0.19000000
   17.36250114   94.29699707    0.03000000    0.19000000
   17.36666679   88.06980133    0.03000000    0.19000000
   17.37000084   88.74890137    0.03000000    0.19000000
   17.37305641   86.14389801    0.03000000    0.19000000
   17.37638855   81.35669708    0.03000000    0.19000000
   17.37972260   89.04720306    0.03000000    0.19000000
   17.38277817   86.39170074    0.03000000    0.19000000
   17.38611031   91.21849823    0.03000000    0.19000000
   17.38916588   84.53359985    0.03000000    0.19000000
   17.39249992   91.99530029    0.03000000    0.19000000
   17.39583397   91.86889648    0.03000000    0.19000000
   17.39888954   89.68199921    0.03000000    0.19000000
   17.40222168   88.97699738    0.03000000    0.19000000
   17.40555573   86.47850037    0.03000000    0.19000000
   17.40861130   86.39880371    0.03000000    0.19000000
   17.41361046   86.39880371    0.03000000    0.19000000
   17.41777802   84.76249695    0.03000000    0.19000000
   17.42111015   92.30269623    0.03000000    0.19000000
   17.42444420   88.41490173    0.03000000    0.19000000
   17.42749977   93.47920227    0.03000000    0.19000000
   17.43083191   90.86699677    0.03000000    0.19000000
   17.43388748   89.63999939    0.03000000    0.19000000
   17.43722153   89.36720276    0.03000000    0.19000000
   17.44055557   91.60710144    0.03000000    0.19000000
   17.44361115   87.56040192    0.03000000    0.19000000
   17.44694328   93.42649841    0.03000000    0.19000000
   17.45027924   90.63529968    0.03000000    0.19000000
   17.45333481   87.13680267    0.03000000    0.19000000
   17.45666695   87.21150208    0.03000000    0.19000000
   17.45972252   88.93979645    0.03000000    0.19000000
   17.46500015   88.93979645    0.03000000    0.19000000
   17.46888924   82.11530304    0.03000000    0.19000000
   17.47222328   90.38220215    0.03000000    0.19000000
   17.47555542   90.99980164    0.03000000    0.19000000
   17.47888947   91.51000214    0.03000000    0.19000000
   17.48194504   85.85720062    0.03000000    0.19000000
   17.48527718   90.97450256    0.03000000    0.19000000
   17.48861122   94.02059937    0.03000000    0.19000000
   17.49166679   87.51650238    0.03000000    0.19000000
   17.49500084   86.30599976    0.03000000    0.19000000
   17.49805641   89.73220062    0.03000000    0.19000000
   17.50138855   87.45770264    0.03000000    0.19000000
   17.50472260   87.31040192    0.03000000    0.19000000
   17.50777817   91.72769928    0.03000000    0.19000000
   17.51111031   83.02519989    0.03000000    0.19000000
   17.51611137   83.02519989    0.03000000    0.19000000
   17.52027702   90.21289825    0.03000000    0.19000000
   17.52333260   91.14499664    0.03000000    0.19000000
   17.52666664   93.82929993    0.03000000    0.19000000
   17.53000069   89.21089935    0.03000000    0.19000000
   17.53305435   96.15540314    0.03000000    0.19000000
   17.53638840   90.93879700    0.03000000    0.19000000
   17.53972244   88.72460175    0.03000000    0.19000000
   17.54277802   90.69799805    0.03000000    0.19000000
   17.54611015   89.90589905    0.03000000    0.19000000
   17.54916573   85.71279907    0.03000000    0.19000000
   17.55249977   92.30449677    0.03000000    0.19000000
   17.55583191   81.31839752    0.03000000    0.19000000
   17.55916595   86.55539703    0.03000000    0.19000000
   17.56222153   86.21959686    0.03000000    0.19000000
   17.56722260   86.21959686    0.03000000    0.19000000
   17.57139015   85.27850342    0.03000000    0.19000000
   17.57472229   89.96820068    0.03000000    0.19000000
   17.57777786   85.26159668    0.03000000    0.19000000
   17.58111191   85.13009644    0.03000000    0.19000000
   17.58444595   85.41020203    0.03000000    0.19000000
   17.58750153   87.15390015    0.03000000    0.19000000
   17.59083366   82.22489929    0.03000000    0.19000000
   17.59388924   86.77259827    0.03000000    0.19000000
   17.59722328   85.32900238    0.03000000    0.19000000
   17.60055542   85.50749969    0.03000000    0.19000000
   17.60361099   82.26170349    0.03000000    0.19000000
   17.60694504   90.21810150    0.03000000    0.19000000
   17.61027908   84.06030273    0.03000000    0.19000000
   17.61333466   85.22209930    0.03000000    0.19000000
   17.61833382   85.22209930    0.03000000    0.19000000
   17.62249947   92.78990173    0.03000000    0.19000000
   17.62583351   90.34719849    0.03000000    0.19000000
   17.62916756   85.22619629    0.03000000    0.19000000
   17.63222313   89.69290161    0.03000000    0.19000000
   17.63555527   82.52259827    0.03000000    0.19000000
   17.63861084   85.14029694    0.03000000    0.19000000
   17.64194489   85.34380341    0.03000000    0.19000000
   17.64527702   85.21649933    0.03000000    0.19000000
   17.64833260   88.02179718    0.03000000    0.19000000
   17.65166664   85.93350220    0.03000000    0.19000000
   17.65499878   89.65409851    0.03000000    0.19000000
   17.65805435   84.83029938    0.03000000    0.19000000
   17.66138840   85.82859802    0.03000000    0.19000000
   17.66472244   88.95880127    0.03000000    0.19000000
   17.66972160   88.95880127    0.03000000    0.19000000
   17.67361069   87.89140320    0.03000000    0.19000000
   17.67694473   86.92980194    0.03000000    0.19000000
   17.68027687   82.62149811    0.03000000    0.19000000
   17.68333244   82.74169922    0.03000000    0.19000000
   17.68666649   84.15219879    0.03000000    0.19000000
   17.68999863   82.47789764    0.03000000    0.19000000
   17.69305420   91.22779846    0.03000000    0.19000000
   17.69638824   88.96700287    0.03000000    0.19000000
   17.69972038   93.12500000    0.03000000    0.19000000
   17.70277786   92.60220337    0.03000000    0.19000000
   17.70611191   95.54709625    0.03000000    0.19000000
   17.70916748   90.67579651    0.03000000    0.19000000
   17.71250153   88.93990326    0.03000000    0.19000000
   17.71583366   84.87030029    0.03000000    0.19000000
   17.72083473   84.87030029    0.03000000    0.19000000
   17.72500038   90.19730377    0.03000000    0.19000000
   17.72805595   93.18759918    0.03000000    0.19000000
   17.73139000   94.81629944    0.03000000    0.19000000
   17.73472214   88.76290131    0.03000000    0.19000000
   17.73777771   85.52929688    0.03000000    0.19000000
   17.74111176   91.09570313    0.03000000    0.19000000
   17.74444389   92.32479858    0.03000000    0.19000000
   17.74749947   90.36799622    0.03000000    0.19000000
   17.75083351   85.78450012    0.03000000    0.19000000
   17.75388908   86.40180206    0.03000000    0.19000000
   17.75722313   89.39990234    0.03000000    0.19000000
   17.76055527   95.62069702    0.03000000    0.19000000
   17.76361084   91.77369690    0.03000000    0.19000000
   17.78472137   91.77369690    0.03000000    0.19000000
   17.78888893   85.30740356    0.03000000    0.19000000
   17.79222107   87.72290039    0.03000000    0.19000000
   17.79555511   83.14230347    0.03000000    0.19000000
   17.79861069   82.64649963    0.03000000    0.19000000
   17.80194283   91.02369690    0.03000000    0.19000000
   17.80499840   83.81189728    0.03000000    0.19000000
   17.80833244   85.18489838    0.03000000    0.19000000
   17.81166649   92.68370056    0.03000000    0.19000000
   17.81472206   89.49440002    0.03000000    0.19000000
   17.81805611   85.66539764    0.03000000    0.19000000
   17.82111168   85.61029816    0.03000000    0.19000000
   17.82444572   87.34719849    0.03000000    0.19000000
   17.82777786   91.87989807    0.03000000    0.19000000
   17.83083344   91.30290222    0.03000000    0.19000000
   17.83222389   86.59649658    0.03000000    0.19000000
   17.83638954   86.59649658    0.03000000    0.19000000
   17.84055710   83.66780090    0.03000000    0.19000000
   17.84388924   85.15440369    0.03000000    0.19000000
   17.84694481   85.03959656    0.03000000    0.19000000
   17.85027885   80.14050293    0.03000000    0.19000000
   17.85361099   84.89089966    0.03000000    0.19000000
   17.85666656   85.88590240    0.03000000    0.19000000
   17.86000061   83.40660095    0.03000000    0.19000000
   17.86333466   83.05049896    0.03000000    0.19000000
   17.86638832   83.74980164    0.03000000    0.19000000
   17.86972237   92.19429779    0.03000000    0.19000000
   17.87277794   89.33080292    0.03000000    0.19000000
   17.87611198   87.61699677    0.03000000    0.19000000
   17.87944412   90.53669739    0.03000000    0.19000000
   17.88222313   84.73919678    0.03000000    0.19000000
   17.88305473   86.53630066    0.03000000    0.19000000
   17.88750076   86.53630066    0.03000000    0.19000000
   17.89166641   90.92350006    0.03000000    0.19000000
   17.89500046   84.21520233    0.03000000    0.19000000
   17.89833260   83.34179688    0.03000000    0.19000000
   17.90138817   92.24079895    0.03000000    0.19000000
   17.90472221   84.15409851    0.03000000    0.19000000
   17.90777779   87.35479736    0.03000000    0.19000000
   17.91110992   83.98149872    0.03000000    0.19000000
   17.91444397   87.37259674    0.03000000    0.19000000
   17.91749954   89.13269806    0.03000000    0.19000000
   17.92083359   80.18579865    0.03000000    0.19000000
   17.92416573   85.15529633    0.03000000    0.19000000
   17.92722130   87.62270355    0.03000000    0.19000000
   17.93055534   85.83619690    0.03000000    0.19000000
   17.93222237   85.17079926    0.03000000    0.19000000
   17.93416595   82.89880371    0.03000000    0.19000000
   17.93888855   82.89880371    0.03000000    0.19000000
   17.94305420   82.36209869    0.03000000    0.19000000
   17.94610977   85.56439972    0.03000000    0.19000000
   17.94944382   82.89060211    0.03000000    0.19000000
   17.95250130   87.55549622    0.03000000    0.19000000
   17.95583344   85.07219696    0.03000000    0.19000000
   17.95916748   88.25650024    0.03000000    0.19000000
   17.96222305   89.95619965    0.03000000    0.19000000
   17.96555710   86.76139832    0.03000000    0.19000000
   17.96888924   91.04340363    0.03000000    0.19000000
   17.97194481   85.52200317    0.03000000    0.19000000
   17.97527885   85.16429901    0.03000000    0.19000000
   17.97833443   87.85569763    0.03000000    0.19000000
   17.98166656   86.84059906    0.03000000    0.19000000
   17.98222351   82.82150269    0.03000000    0.19000000
   17.98527718   88.51360321    0.03000000    0.19000000
   17.98999977   88.51360321    0.03000000    0.19000000
   17.99416733   87.14610291    0.03000000    0.19000000
   17.99722290   90.23249817    0.03000000    0.19000000
   18.00055504   88.57119751    0.03000000    0.19000000
   18.00388908   89.17369843    0.03000000    0.19000000
   18.00694466   88.48970032    0.03000000    0.19000000
   18.01027870   91.23619843    0.03000000    0.19000000
   18.01361084   88.03140259    0.03000000    0.19000000
   18.01666641   87.91339874    0.03000000    0.19000000
   18.02000046   92.55650330    0.03000000    0.19000000
   18.02305603   89.68370056    0.03000000    0.19000000
   18.02638817   84.33260345    0.03000000    0.19000000
   18.02972221   86.84400177    0.03000000    0.19000000
   18.03222275   89.40779877    0.03000000    0.19000000
   18.03333282   85.47219849    0.03000000    0.19000000
   18.03666687   81.37079620    0.03000000    0.19000000
   18.04111099   81.37079620    0.03000000    0.19000000
   18.04527664   87.24739838    0.03000000    0.19000000
   18.04861069   84.99839783    0.03000000    0.19000000
   18.05166626   92.75800323    0.03000000    0.19000000
   18.05499840   83.20279694    0.03000000    0.19000000
   18.05805397   90.59390259    0.03000000    0.19000000
   18.06138802   89.24009705    0.03000000    0.19000000
   18.06472206   83.66629791    0.03000000    0.19000000
   18.06805611   88.22859955    0.03000000    0.19000000
   18.07111168   85.87129974    0.03000000    0.19000000
   18.07444572   82.32319641    0.03000000    0.19000000
   18.07750130   84.61849976    0.03000000    0.19000000
   18.08083344   80.71929932    0.03000000    0.19000000
   18.08222389   83.93489838    0.03000000    0.19000000
   18.08444595   82.58460236    0.03000000    0.19000000
   18.08777809   86.31819916    0.03000000    0.19000000
   18.09222221   86.31819916    0.03000000    0.19000000
   18.09638977   87.47109985    0.03000000    0.19000000
   18.09972191   89.56359863    0.03000000    0.19000000
   18.10277748   82.58470154    0.03000000    0.19000000
   18.10611153   85.85250092    0.03000000    0.19000000
   18.10944557   84.24040222    0.03000000    0.19000000
   18.11250114   87.39040375    0.03000000    0.19000000
   18.11583328   86.55909729    0.03000000    0.19000000
   18.11916733   87.41500092    0.03000000    0.19000000
   18.12222290   90.25949860    0.03000000    0.19000000
   18.12555504   91.82849884    0.03000000    0.19000000
   18.12861061   86.46630096    0.03000000    0.19000000
   18.13194466   82.00509644    0.03000000    0.19000000
   18.13249969   84.98870087    0.03000000    0.19000000
   18.13583374   86.74749756    0.03000000    0.19000000
   18.13888931   84.65730286    0.03000000    0.19000000
   18.14361191   84.65730286    0.03000000    0.19000000
   18.14749908   91.39140320    0.03000000    0.19000000
   18.15083313   89.74710083    0.03000000    0.19000000
   18.15416718   87.14099884    0.03000000    0.19000000
   18.15722275   84.86360168    0.03000000    0.19000000
   18.16055489   89.85479736    0.03000000    0.19000000
   18.16388893   85.70210266    0.03000000    0.19000000
   18.16694450   88.10310364    0.03000000    0.19000000
   18.17027664   88.04940033    0.03000000    0.19000000
   18.17333221   85.99269867    0.03000000    0.19000000
   18.17666626   88.47149658    0.03000000    0.19000000
   18.18000031   83.44550323    0.03000000    0.19000000
   18.18249893   84.29599762    0.03000000    0.19000000
   18.18361092   84.14520264    0.03000000    0.19000000
   18.18666649   86.59609985    0.03000000    0.19000000
   18.18999863   88.37940216    0.03000000    0.19000000
   18.19472122   88.37940216    0.03000000    0.19000000
   18.19888878   86.04650116    0.03000000    0.19000000
   18.20194435   86.36239624    0.03000000    0.19000000
   18.20527840   90.12920380    0.03000000    0.19000000
   18.20861244   88.75559998    0.03000000    0.19000000
   18.21166801   89.79789734    0.03000000    0.19000000
   18.21500015   89.74060059    0.03000000    0.19000000
   18.21805573   86.93640137    0.03000000    0.19000000
   18.22138977   82.76740265    0.03000000    0.19000000
   18.22472191   91.95899963    0.03000000    0.19000000
   18.22777748   83.16519928    0.03000000    0.19000000
   18.23111153   87.00640106    0.03000000    0.19000000
   18.23250008   83.50509644    0.03000000    0.19000000
   18.23472214   92.27040100    0.03000000    0.19000000
   18.23777771   85.12149811    0.03000000    0.19000000
   18.24111176   88.20089722    0.03000000    0.19000000
   18.24583435   88.20089722    0.03000000    0.19000000
   18.25000000   91.60489655    0.03000000    0.19000000
   18.25333405   86.17569733    0.03000000    0.19000000
   18.25638962   87.55699921    0.03000000    0.19000000
   18.25972176   84.50489807    0.03000000    0.19000000
   18.26277733   85.89559937    0.03000000    0.19000000
   18.26611137   87.05760193    0.03000000    0.19000000
   18.26944351   86.46299744    0.03000000    0.19000000
   18.27249908   86.22810364    0.03000000    0.19000000
   18.27583313   87.63459778    0.03000000    0.19000000
   18.27916718   82.47889709    0.03000000    0.19000000
   18.28222275   89.68890381    0.03000000    0.19000000
   18.28277779   88.77369690    0.03000000    0.19000000
   18.28610992   88.77179718    0.03000000    0.19000000
   18.28916550   90.24469757    0.03000000    0.19000000
   18.29249954   90.11190033    0.03000000    0.19000000
   18.29694366   90.11190033    0.03000000    0.19000000
   18.30111122   93.25540161    0.03000000    0.19000000
   18.30444336   89.57199860    0.03000000    0.19000000
   18.30749893   86.72319794    0.03000000    0.19000000
   18.31083298   86.88500214    0.03000000    0.19000000
   18.31416512   87.97260284    0.03000000    0.19000000
   18.31722260   86.66020203    0.03000000    0.19000000
   18.32055664   86.38339996    0.03000000    0.19000000
   18.32389069   88.03869629    0.03000000    0.19000000
   18.32694626   85.93289948    0.03000000    0.19000000
   18.33027840   87.81130219    0.03000000    0.19000000
   18.33277893   93.06909943    0.03000000    0.19000000
   18.33388901   91.79470062    0.03000000    0.19000000
   18.33694458   84.68170166    0.03000000    0.19000000
   18.34027863   86.11630249    0.03000000    0.19000000
   18.34361267   89.51959991    0.03000000    0.19000000
   18.34833336   89.51959991    0.03000000    0.19000000
   18.35222244   89.34239960    0.03000000    0.19000000
   18.35555649   90.13050079    0.03000000    0.19000000
   18.35888863   81.71330261    0.03000000    0.19000000
   18.36194420   84.80740356    0.03000000    0.19000000
   18.36527824   87.02909851    0.03000000    0.19000000
   18.36861038   89.51709747    0.03000000    0.19000000
   18.37166595   87.58380127    0.03000000    0.19000000
   18.37500000   88.30249786    0.03000000    0.19000000
   18.37805557   86.81310272    0.03000000    0.19000000
   18.38138962   89.47380066    0.03000000    0.19000000
   18.38277817   86.05310059    0.03000000    0.19000000
   18.38500023   86.47509766    0.03000000    0.19000000
   18.38805580   90.33840179    0.03000000    0.19000000
   18.39138794   85.23560333    0.03000000    0.19000000
   18.39472198   87.40540314    0.03000000    0.19000000
   18.39944458   87.40540314    0.03000000    0.19000000
   18.40361023   87.15119934    0.03000000    0.19000000
   18.40666580   85.75270081    0.03000000    0.19000000
   18.40999985   84.57489777    0.03000000    0.19000000
   18.41333389   84.20490265    0.03000000    0.19000000
   18.41638756   90.18520355    0.03000000    0.19000000
   18.41972160   85.10839844    0.03000000    0.19000000
   18.42277718   86.03810120    0.03000000    0.19000000
   18.42611122   83.44170380    0.03000000    0.19000000
   18.42944336   92.83470154    0.03000000    0.19000000
   18.43249893   90.09590149    0.03000000    0.19000000
   18.43305397   85.05940247    0.03000000    0.19000000
   18.43638802   85.87190247    0.03000000    0.19000000
   18.43972206   86.51570129    0.03000000    0.19000000
   18.44277763   83.42829895    0.03000000    0.19000000
   18.44610977   81.57409668    0.03000000    0.19000000
   18.45055580   81.57409668    0.03000000    0.19000000
   18.45472336   91.50579834    0.03000000    0.19000000
   18.45805550   88.26830292    0.03000000    0.19000000
   18.46111107   89.50650024    0.03000000    0.19000000
   18.46444511   88.49130249    0.03000000    0.19000000
   18.46750069   84.90959930    0.03000000    0.19000000
   18.47083473   90.71399689    0.03000000    0.19000000
   18.47416687   87.94629669    0.03000000    0.19000000
   18.47722244   92.76629639    0.03000000    0.19000000
   18.48055649   87.65609741    0.03000000    0.19000000
   18.48333359   88.49669647    0.03000000    0.19000000
   18.48416710   83.73120117    0.03000000    0.19000000
   18.48750114   86.67970276    0.03000000    0.19000000
   18.49055672   87.38459778    0.03000000    0.19000000
   18.49388885   87.19840240    0.03000000    0.19000000
   18.49722290   90.93379974    0.03000000    0.19000000
   18.50166702   90.93379974    0.03000000    0.19000000
   18.50583267   84.79759979    0.03000000    0.19000000
   18.50916672   89.97399902    0.03000000    0.19000000
   18.51222229   85.22760010    0.03000000    0.19000000
   18.51555634   86.34249878    0.03000000    0.19000000
   18.51888847   85.44899750    0.03000000    0.19000000
   18.52194405   83.64140320    0.03000000    0.19000000
   18.52527809   87.04000092    0.03000000    0.19000000
   18.52861023   87.39160156    0.03000000    0.19000000
   18.53166580   82.01290131    0.03000000    0.19000000
   18.53333282   87.72779846    0.03000000    0.19000000
   18.53527641   84.66670227    0.03000000    0.19000000
   18.53861046   83.89790344    0.03000000    0.19000000
   18.54166603   85.12999725    0.03000000    0.19000000
   18.54500008   89.20339966    0.03000000    0.19000000
   18.54833221   85.45989990    0.03000000    0.19000000
   18.55305481   85.45989990    0.03000000    0.19000000
   18.55694389   83.02149963    0.03000000    0.19000000
   18.56027794   88.09439850    0.03000000    0.19000000
   18.56361008   81.17410278    0.03000000    0.19000000
   18.56666756   85.13980103    0.03000000    0.19000000
   18.57000160   86.82990265    0.03000000    0.19000000
   18.57333374   90.24639893    0.03000000    0.19000000
   18.57638931   89.08840179    0.03000000    0.19000000
   18.57972336   91.04519653    0.03000000    0.19000000
   18.58305550   83.60449982    0.03000000    0.19000000
   18.58333397   83.08239746    0.03000000    0.19000000
   18.58666801   85.83390045    0.03000000    0.19000000
   18.59000015   81.38009644    0.03000000    0.19000000
   18.59305573   87.30619812    0.03000000    0.19000000
   18.59638977   82.16590118    0.03000000    0.19000000
   18.59972191   83.46189880    0.03000000    0.19000000
   18.60416794   83.46189880    0.03000000    0.19000000
   18.60833359   85.21600342    0.03000000    0.19000000
   18.61138916   89.42680359    0.03000000    0.19000000
   18.61472321   84.09629822    0.03000000    0.19000000
   18.61805534   82.84750366    0.03000000    0.19000000
   18.62111092   87.10500336    0.03000000    0.19000000
   18.62444496   89.12180328    0.03000000    0.19000000
   18.62750053   87.10369873    0.03000000    0.19000000
   18.63083267   91.92990112    0.03000000    0.19000000
   18.63361168   86.45770264    0.03000000    0.19000000
   18.63444519   86.46150208    0.03000000    0.19000000
   18.63777733   86.17330170    0.03000000    0.19000000
   18.64083290   86.54709625    0.03000000    0.19000000
   18.64416695   90.68730164    0.03000000    0.19000000
   18.64749908   86.23570251    0.03000000    0.19000000
   18.65055466   91.47920227    0.03000000    0.19000000
   18.65527725   91.47920227    0.03000000    0.19000000
   18.65944481   86.00779724    0.03000000    0.19000000
   18.66277695   86.46620178    0.03000000    0.19000000
   18.66583252   87.77010345    0.03000000    0.19000000
   18.66916656   83.59649658    0.03000000    0.19000000
   18.67222214   84.08260345    0.03000000    0.19000000
   18.67555428   87.89990234    0.03000000    0.19000000
   18.67888832   87.24479675    0.03000000    0.19000000
   18.68194389   87.04060364    0.03000000    0.19000000
   18.68361092   91.56410217    0.03000000    0.19000000
   18.68555450   86.42060089    0.03000000    0.19000000
   18.68888855   85.77369690    0.03000000    0.19000000
   18.69194412   81.29799652    0.03000000    0.19000000
   18.69527626   86.69819641    0.03000000    0.19000000
   18.69861031   82.91020203    0.03000000    0.19000000
   18.70166779   85.16429901    0.03000000    0.19000000
   18.70639038   85.16429901    0.03000000    0.19000000
   18.71055603   90.08689880    0.03000000    0.19000000
   18.71389008   87.76879883    0.03000000    0.19000000
   18.71694565   89.43609619    0.03000000    0.19000000
   18.72027779   81.11199951    0.03000000    0.19000000
   18.72361183   81.06700134    0.03000000    0.19000000
   18.72666740   79.59570313    0.03000000    0.19000000
   18.73000145   81.62550354    0.03000000    0.19000000
   18.73333359   92.87200165    0.03000000    0.19000000
   18.73388863   86.49060059    0.03000000    0.19000000
   18.73694420   87.06929779    0.03000000    0.19000000
   18.74027824   80.81919861    0.03000000    0.19000000
   18.74333382   83.62030029    0.03000000    0.19000000
   18.74666786   84.24500275    0.03000000    0.19000000
   18.75000000   80.30419922    0.03000000    0.19000000
   18.75305557   89.25370026    0.03000000    0.19000000
   18.75777817   89.25370026    0.03000000    0.19000000
   18.76166725   81.50559998    0.03000000    0.19000000
   18.76499939   83.36740112    0.03000000    0.19000000
   18.76833344   88.43979645    0.03000000    0.19000000
   18.77138901   83.04509735    0.03000000    0.19000000
   18.77472115   79.24179840    0.03000000    0.19000000
   18.77805519   83.89289856    0.03000000    0.19000000
   18.78111076   86.87270355    0.03000000    0.19000000
   18.79833221   76.50640106    0.03000000    0.19000000
   18.80083275   84.51860046    0.03000000    0.19000000
   18.80416679   86.54060364    0.03000000    0.19000000
   18.80916595   86.54060364    0.03000000    0.19000000
   18.81305504   91.38610077    0.03000000    0.19000000
   18.81638718   84.99359894    0.03000000    0.19000000
   18.81972313   88.50759888    0.03000000    0.19000000
   18.82277870   87.71459961    0.03000000    0.19000000
   18.82611275   88.07469940    0.03000000    0.19000000
   18.82944489   84.14330292    0.03000000    0.19000000
   18.83250046   84.40769958    0.03000000    0.19000000
   18.83583450   87.38670349    0.03000000    0.19000000
   18.83889008   85.39080048    0.03000000    0.19000000
   18.84222221   86.33640289    0.03000000    0.19000000
   18.84555626   80.95790100    0.03000000    0.19000000
   18.84805679   88.98709869    0.03000000    0.19000000
   18.84916687   85.60590363    0.03000000    0.19000000
   18.85222244   82.50749969    0.03000000    0.19000000
   18.85555649   84.84159851    0.03000000    0.19000000
   18.86027908   84.84159851    0.03000000    0.19000000
   18.86444473   80.53610229    0.03000000    0.19000000
   18.86750031   83.76950073    0.03000000    0.19000000
   18.87083435   84.31600189    0.03000000    0.19000000
   18.87416649   87.06089783    0.03000000    0.19000000
   18.87722206   84.16120148    0.03000000    0.19000000
   18.88055611   85.69400024    0.03000000    0.19000000
   18.88361168   79.65689850    0.03000000    0.19000000
   18.88694382   87.54299927    0.03000000    0.19000000
   18.89027786   74.32369995    0.03000000    0.19000000
   18.89333344   83.73459625    0.03000000    0.19000000
   18.89666748   82.33950043    0.03000000    0.19000000
   18.89805603   73.63970184    0.03000000    0.19000000
   18.90027809   81.51889801    0.03000000    0.19000000
   18.90333366   79.60859680    0.03000000    0.19000000
   18.90666580   86.96029663    0.03000000    0.19000000
   18.91138840   86.96029663    0.03000000    0.19000000
   18.91555595   85.55410004    0.03000000    0.19000000
   18.91888809   85.69999695    0.03000000    0.19000000
   18.92194366   88.19470215    0.03000000    0.19000000
   18.92527771   83.74690247    0.03000000    0.19000000
   18.92833328   78.56860352    0.03000000    0.19000000
   18.93166542   84.88469696    0.03000000    0.19000000
   18.93499947   86.05439758    0.03000000    0.19000000
   18.93805504   85.69229889    0.03000000    0.19000000
   18.94138718   83.72350311    0.03000000    0.19000000
   18.94472122   74.62370300    0.03000000    0.19000000
   18.94777679   83.31690216    0.03000000    0.19000000
   18.94833183   82.35669708    0.03000000    0.19000000
   18.95166779   81.96759796    0.03000000    0.19000000
   18.95472336   77.99929810    0.03000000    0.19000000
   18.95805550   85.50530243    0.03000000    0.19000000
   18.96250153   85.50530243    0.03000000    0.19000000
   18.96666718   82.01770020    0.03000000    0.19000000
   18.97000122   82.07150269    0.03000000    0.19000000
   18.97305679   80.68440247    0.03000000    0.19000000
   18.97638893   86.21199799    0.03000000    0.19000000
   18.97972298   82.40249634    0.03000000    0.19000000
   18.98277855   84.69080353    0.03000000    0.19000000
   18.98611069   79.78279877    0.03000000    0.19000000
   18.98944473   85.67669678    0.03000000    0.19000000
   18.99250031   85.12509918    0.03000000    0.19000000
   18.99583435   84.13400269    0.03000000    0.19000000
   18.99833298   85.39350128    0.03000000    0.19000000
   18.99944496   83.64360046    0.03000000    0.19000000
   19.00250053   75.62030029    0.03000000    0.19000000
   19.00583267   72.07599640    0.03000000    0.19000000
   19.00916672   88.59980011    0.03000000    0.19000000
   19.01388931   88.59980011    0.03000000    0.19000000
   19.01777840   81.49160004    0.03000000    0.19000000
   19.02111053   82.73069763    0.03000000    0.19000000
   19.02444458   85.20809937    0.03000000    0.19000000
   19.02750015   75.27600098    0.03000000    0.19000000
   19.03083229   84.78269958    0.03000000    0.19000000
   19.03416634   80.99150085    0.03000000    0.19000000
   19.03722191   83.05400085    0.03000000    0.19000000
   19.04055595   76.98210144    0.03000000    0.19000000
   19.04361153   79.27200317    0.03000000    0.19000000
   19.04694366   86.07360077    0.03000000    0.19000000
   19.04833221   85.01550293    0.03000000    0.19000000
   19.05055428   92.36319733    0.03000000    0.19000000
   19.05360985   82.34709930    0.03000000    0.19000000
   19.05694389   89.95490265    0.03000000    0.19000000
   19.06027794   85.04900360    0.03000000    0.19000000
   19.06499863   85.04900360    0.03000000    0.19000000
   19.06916809   87.78230286    0.03000000    0.19000000
   19.07222366   82.00789642    0.03000000    0.19000000
   19.07555580   84.81749725    0.03000000    0.19000000
   19.07888985   84.92469788    0.03000000    0.19000000
   19.08194542   77.15019989    0.03000000    0.19000000
   19.08527756   85.12210083    0.03000000    0.19000000
   19.08861160   82.28990173    0.03000000    0.19000000
   19.09166718   86.02239990    0.03000000    0.19000000
   19.09500122   92.87010193    0.03000000    0.19000000
   19.09805679   82.34049988    0.03000000    0.19000000
   19.09861183   85.47280121    0.03000000    0.19000000
   19.10194397   87.84559631    0.03000000    0.19000000
   19.10527802   79.80670166    0.03000000    0.19000000
   19.10833359   82.33350372    0.03000000    0.19000000
   19.11166763   84.44129944    0.03000000    0.19000000
   19.11611176   84.44129944    0.03000000    0.19000000
   19.12027740   81.59580231    0.03000000    0.19000000
   19.12361145   79.34040070    0.03000000    0.19000000
   19.12666702   82.58699799    0.03000000    0.19000000
   19.13000107   82.24079895    0.03000000    0.19000000
   19.13305473   81.22589874    0.03000000    0.19000000
   19.13638878   85.59709930    0.03000000    0.19000000
   19.13972282   81.14759827    0.03000000    0.19000000
   19.14277840   86.07749939    0.03000000    0.19000000
   19.14611053   82.40059662    0.03000000    0.19000000
   19.14861107   81.71130371    0.03000000    0.19000000
   19.14972115   70.13300323    0.03000000    0.19000000
   19.15305519   81.74649811    0.03000000    0.19000000
   19.15611076   78.48989868    0.03000000    0.19000000
   19.15944481   79.76439667    0.03000000    0.19000000
   19.16277695   83.39119720    0.03000000    0.19000000
   19.16722107   83.39119720    0.03000000    0.19000000
   19.17138863   74.25140381    0.03000000    0.19000000
   19.17472076   83.89659882    0.03000000    0.19000000
   19.17833328   75.66860199    0.03000000    0.19000000
   19.18138885   80.03659821    0.03000000    0.19000000
   19.18472099   87.48390198    0.03000000    0.19000000
   19.18805504   84.95349884    0.03000000    0.19000000
   19.19111061   84.56439972    0.03000000    0.19000000
   19.19444275   85.08319855    0.03000000    0.19000000
   19.19777679   89.38369751    0.03000000    0.19000000
   19.19861031   87.78170013    0.03000000    0.19000000
   19.20138931   78.99109650    0.03000000    0.19000000
   19.20472336   84.03320313    0.03000000    0.19000000
   19.20777893   85.33999634    0.03000000    0.19000000
   19.21111107   79.62770081    0.03000000    0.19000000
   19.21444511   82.51370239    0.03000000    0.19000000
   19.21861076   82.51370239    0.03000000    0.19000000
   19.22249985   82.92520142    0.03000000    0.19000000
   19.22583389   74.88430023    0.03000000    0.19000000
   19.22916794   82.67400360    0.03000000    0.19000000
   19.23222351   84.29609680    0.03000000    0.19000000
   19.23555565   85.12729645    0.03000000    0.19000000
   19.23888969   82.56839752    0.03000000    0.19000000
   19.24194527   80.12719727    0.03000000    0.19000000
   19.24527740   80.04399872    0.03000000    0.19000000
   19.24833298   84.82279968    0.03000000    0.19000000
   19.24888992   84.37999725    0.03000000    0.19000000
   19.25222206   82.24410248    0.03000000    0.19000000
   19.25555611   85.01509857    0.03000000    0.19000000
   19.25861168   80.70120239    0.03000000    0.19000000
   19.26194382   85.30180359    0.03000000    0.19000000
   19.26527786   85.14540100    0.03000000    0.19000000
   19.26972198   85.14540100    0.03000000    0.19000000
   19.27388954   83.34989929    0.03000000    0.19000000
   19.27694511   82.08930206    0.03000000    0.19000000
   19.28027725   87.26930237    0.03000000    0.19000000
   19.28361130   87.43399811    0.03000000    0.19000000
   19.28666687   86.59829712    0.03000000    0.19000000
   19.28999901   87.57959747    0.03000000    0.19000000
   19.29305458   80.63510132    0.03000000    0.19000000
   19.29638863   85.24009705    0.03000000    0.19000000
   19.29916573   77.31529999    0.03000000    0.19000000
   19.29999924   75.11450195    0.03000000    0.19000000
   19.30333328   86.64219666    0.03000000    0.19000000
   19.30638885   86.69719696    0.03000000    0.19000000
   19.30972099   83.67700195    0.03000000    0.19000000
   19.31305504   87.13860321    0.03000000    0.19000000
   19.31611061   73.22010040    0.03000000    0.19000000
   19.32083511   73.22010040    0.03000000    0.19000000
   19.32500076   76.39420319    0.03000000    0.19000000
   19.32833481   86.38310242    0.03000000    0.19000000
   19.33139038   76.50489807    0.03000000    0.19000000
   19.33472252   81.87989807    0.03000000    0.19000000
   19.33777809   78.87750244    0.03000000    0.19000000
   19.34111214   77.10459900    0.03000000    0.19000000
   19.34444427   86.93599701    0.03000000    0.19000000
   19.34749985   85.43090057    0.03000000    0.19000000
   19.34916687   81.09529877    0.03000000    0.19000000
   19.35111237   89.48899841    0.03000000    0.19000000
   19.35444450   87.30619812    0.03000000    0.19000000
   19.35750008   85.31680298    0.03000000    0.19000000
   19.36083412   83.30490112    0.03000000    0.19000000
   19.36416626   79.65249634    0.03000000    0.19000000
   19.36722183   86.99829865    0.03000000    0.19000000
   19.37194443   86.99829865    0.03000000    0.19000000
   19.37611198   88.48999786    0.03000000    0.19000000
   19.37944412   92.81600189    0.03000000    0.19000000
   19.38249969   90.39849854    0.03000000    0.19000000
   19.38583374   88.68920135    0.03000000    0.19000000
   19.38916588   86.69129944    0.03000000    0.19000000
   19.39222145   83.85030365    0.03000000    0.19000000
   19.39555550   89.99759674    0.03000000    0.19000000
   19.39888954   86.36129761    0.03000000    0.19000000
   19.39916611   82.16400146    0.03000000    0.19000000
   19.40250015   81.29280090    0.03000000    0.19000000
   19.40583229   94.09339905    0.03000000    0.19000000
   19.40888786   84.98020172    0.03000000    0.19000000
   19.41222191   86.94480133    0.03000000    0.19000000
   19.41555595   80.20010376    0.03000000    0.19000000
   19.41860962   88.58439636    0.03000000    0.19000000
   19.42333221   88.58439636    0.03000000    0.19000000
   19.42722130   87.34860229    0.03000000    0.19000000
   19.43055534   88.85669708    0.03000000    0.19000000
   19.43388748   94.14810181    0.03000000    0.19000000
   19.43694305   90.98539734    0.03000000    0.19000000
   19.44027710   94.27380371    0.03000000    0.19000000
   19.44361115   88.02040100    0.03000000    0.19000000
   19.44666672   79.70510101    0.03000000    0.19000000
   19.44944382   88.28050232    0.03000000    0.19000000
   19.45027924   90.39489746    0.03000000    0.19000000
   19.45361137   88.06359863    0.03000000    0.19000000
   19.45666695   89.25090027    0.03000000    0.19000000
   19.46000099   95.10820007    0.03000000    0.19000000
   19.46333504   87.73110199    0.03000000    0.19000000
   19.46638870   90.18409729    0.03000000    0.19000000
   19.46972275   78.98940277    0.03000000    0.19000000
   19.47444534   78.98940277    0.03000000    0.19000000
   19.47861099   83.18309784    0.03000000    0.19000000
   19.48166656   85.02749634    0.03000000    0.19000000
   19.48500061   88.95149994    0.03000000    0.19000000
   19.48833275   83.76629639    0.03000000    0.19000000
   19.49138832   79.28549957    0.03000000    0.19000000
   19.49472237   84.08219910    0.03000000    0.19000000
   19.49777794   96.57640076    0.03000000    0.19000000
   19.49944496   85.68139648    0.03000000    0.19000000
   19.50138855   85.93530273    0.03000000    0.19000000
   19.50472260   84.10880280    0.03000000    0.19000000
   19.50777817   96.29949951    0.03000000    0.19000000
   19.51111031   82.92839813    0.03000000    0.19000000
   19.51444435   81.50199890    0.03000000    0.19000000
   19.51749992   86.56970215    0.03000000    0.19000000
   19.52083397   90.15419769    0.03000000    0.19000000
   19.52555466   90.15419769    0.03000000    0.19000000
   19.52972221   95.63839722    0.03000000    0.19000000
   19.53277779   99.01609802    0.03000000    0.19000000
   19.53610992   92.60440063    0.03000000    0.19000000
   19.53944397   82.93560028    0.03000000    0.19000000
   19.54249954   90.11350250    0.03000000    0.19000000
   19.54583359   89.24939728    0.03000000    0.19000000
   19.54916573   81.84570313    0.03000000    0.19000000
   19.54944420   87.43270111    0.03000000    0.19000000
   19.55277634   83.96880341    0.03000000    0.19000000
   19.55611038   84.57150269    0.03000000    0.19000000
   19.55916595   88.55729675    0.03000000    0.19000000
   19.56250000   96.70999908    0.03000000    0.19000000
   19.56583214   84.22940063    0.03000000    0.19000000
   19.56888962   83.76229858    0.03000000    0.19000000
   19.57222366   86.08979797    0.03000000    0.19000000
   19.57666779   86.08979797    0.03000000    0.19000000
   19.58083344   85.06800079    0.03000000    0.19000000
   19.58416748   85.68470001    0.03000000    0.19000000
   19.58722305   87.91739655    0.03000000    0.19000000
   19.59055710   83.41220093    0.03000000    0.19000000
   19.59388924   87.15110016    0.03000000    0.19000000
   19.59694481   88.07050323    0.03000000    0.19000000
   19.59944534   83.77809906    0.03000000    0.19000000
   19.60083389   86.45610046    0.03000000    0.19000000
   19.60416794   86.62779999    0.03000000    0.19000000
   19.60750008   90.78209686    0.03000000    0.19000000
   19.61055565   83.67179871    0.03000000    0.19000000
   19.61388969   92.65760040    0.03000000    0.19000000
   19.61694527   86.08370209    0.03000000    0.19000000
   19.62027740   84.62220001    0.03000000    0.19000000
   19.62361145   86.63880157    0.03000000    0.19000000
   19.62805557   86.63880157    0.03000000    0.19000000
   19.63194466   85.00969696    0.03000000    0.19000000
   19.63527679   86.98590088    0.03000000    0.19000000
   19.63861084   93.67469788    0.03000000    0.19000000
   19.64166641   90.28130341    0.03000000    0.19000000
   19.64500046   89.86889648    0.03000000    0.19000000
   19.64833260   88.92340088    0.03000000    0.19000000
   19.64972115   88.53250122    0.03000000    0.19000000
   19.65166664   87.85690308    0.03000000    0.19000000
   19.65499878   82.65129852    0.03000000    0.19000000
   19.65805435   82.87819672    0.03000000    0.19000000
   19.66138840   85.43389893    0.03000000    0.19000000
   19.66472244   83.79759979    0.03000000    0.19000000
   19.66777802   86.65450287    0.03000000    0.19000000
   19.67111015   83.02169800    0.03000000    0.19000000
   19.67444420   85.15499878    0.03000000    0.19000000
   19.67916679   85.15499878    0.03000000    0.19000000
   19.68333244   85.90360260    0.03000000    0.19000000
   19.68638802   87.02570343    0.03000000    0.19000000
   19.68972206   86.42849731    0.03000000    0.19000000
   19.69305420   91.15260315    0.03000000    0.19000000
   19.69610977   84.48000336    0.03000000    0.19000000
   19.69944382   84.83350372    0.03000000    0.19000000
   19.70000076   88.32009888    0.03000000    0.19000000
   19.70333481   88.55709839    0.03000000    0.19000000
   19.70639038   89.15019989    0.03000000    0.19000000
   19.70972252   90.89270020    0.03000000    0.19000000
   19.71277809   87.17459869    0.03000000    0.19000000
   19.71611214   87.59600067    0.03000000    0.19000000
   19.71944427   85.70749664    0.03000000    0.19000000
   19.72249985   86.75370026    0.03000000    0.19000000
   19.72583389   90.50839996    0.03000000    0.19000000
   19.73027802   90.50839996    0.03000000    0.19000000
   19.73444557   85.73989868    0.03000000    0.19000000
   19.73777771   85.77799988    0.03000000    0.19000000
   19.74083328   86.38919830    0.03000000    0.19000000
   19.74416733   86.50530243    0.03000000    0.19000000
   19.74722290   83.42130280    0.03000000    0.19000000
   19.75000000   82.46520233    0.03000000    0.19000000
   19.75111198   83.11260223    0.03000000    0.19000000
   19.75416756   85.85659790    0.03000000    0.19000000
   19.75749969   84.35510254    0.03000000    0.19000000
   19.76055527   86.49500275    0.03000000    0.19000000
   19.76388931   85.91000366    0.03000000    0.19000000
   19.76722145   81.44879913    0.03000000    0.19000000
   19.77027702   79.33149719    0.03000000    0.19000000
   19.77361107   83.70220184    0.03000000    0.19000000
   19.77694511   87.38040161    0.03000000    0.19000000
   19.78138924   87.38040161    0.03000000    0.19000000
   19.78555489   84.16249847    0.03000000    0.19000000
   19.78888893   76.69400024    0.03000000    0.19000000
   19.79194450   82.55030060    0.03000000    0.19000000
   19.79527664   89.47869873    0.03000000    0.19000000
   19.81499863   87.32119751    0.03000000    0.19000000
   19.81555557   86.08599854    0.03000000    0.19000000
   19.81861115   85.82839966    0.03000000    0.19000000
   19.82194519   90.28990173    0.03000000    0.19000000
   19.82527924   88.39289856    0.03000000    0.19000000
   19.82833481   87.18650055    0.03000000    0.19000000
   19.83277893   87.18650055    0.03000000    0.19000000
   19.83666801   85.76399994    0.03000000    0.19000000
   19.84000015   83.80200195    0.03000000    0.19000000
   19.84333420   85.56510162    0.03000000    0.19000000
   19.84638977   77.32630157    0.03000000    0.19000000
   19.84972191   85.33940125    0.03000000    0.19000000
   19.85305595   89.56749725    0.03000000    0.19000000
   19.85611153   85.50740051    0.03000000    0.19000000
   19.85944557   82.23000336    0.03000000    0.19000000
   19.86250114   90.43470001    0.03000000    0.19000000
   19.86555672   86.43049622    0.03000000    0.19000000
   19.86638832   88.67199707    0.03000000    0.19000000
   19.86944389   84.95980072    0.03000000    0.19000000
   19.87277794   86.14240265    0.03000000    0.19000000
   19.87611198   83.73359680    0.03000000    0.19000000
   19.87916756   91.46749878    0.03000000    0.19000000
   19.88388824   91.46749878    0.03000000    0.19000000
   19.88805580   93.51499939    0.03000000    0.19000000
   19.89111137   93.52739716    0.03000000    0.19000000
   19.89444351   88.86270142    0.03000000    0.19000000
   19.89777756   84.13040161    0.03000000    0.19000000
   19.90083313   88.21939850    0.03000000    0.19000000
   19.90416718   87.33519745    0.03000000    0.19000000
   19.90722275   84.05680084    0.03000000    0.19000000
   19.91055489   87.08409882    0.03000000    0.19000000
   19.91388893   86.10990143    0.03000000    0.19000000
   19.91555595   83.76650238    0.03000000    0.19000000
   19.91749954   86.47689819    0.03000000    0.19000000
   19.92055511   86.11699677    0.03000000    0.19000000
   19.92388916   83.21739960    0.03000000    0.19000000
   19.92722130   83.41010284    0.03000000    0.19000000
   19.93027687   82.42179871    0.03000000    0.19000000
   19.93499947   82.42179871    0.03000000    0.19000000
   19.93916512   87.22270203    0.03000000    0.19000000
   19.94249916   87.05819702    0.03000000    0.19000000
   19.94555473   85.84110260    0.03000000    0.19000000
   19.94888878   88.07250214    0.03000000    0.19000000
   19.95222282   86.41829681    0.03000000    0.19000000
   19.95527840   85.64309692    0.03000000    0.19000000
   19.95861244   85.13999939    0.03000000    0.19000000
   19.96194458   87.88809967    0.03000000    0.19000000
   19.96500015   87.41999817    0.03000000    0.19000000
   19.96555710   84.80349731    0.03000000    0.19000000
   19.96861076   80.11460114    0.03000000    0.19000000
   19.97166634   88.34750366    0.03000000    0.19000000
   19.97500038   81.72080231    0.03000000    0.19000000
   19.97833443   85.46990204    0.03000000    0.19000000
   19.98139000   83.35769653    0.03000000    0.19000000
   19.98611069   83.35769653    0.03000000    0.19000000
   19.99027824   84.03929901    0.03000000    0.19000000
   19.99361229   88.44319916    0.03000000    0.19000000
   19.99666786   86.97689819    0.03000000    0.19000000
   20.00000000   86.85469818    0.03000000    0.19000000
   20.00333405   90.59190369    0.03000000    0.19000000
   20.00638962   81.71800232    0.03000000    0.19000000
   20.00972176   83.02079773    0.03000000    0.19000000
   20.01305580   83.35109711    0.03000000    0.19000000
   20.01555634   89.59970093    0.03000000    0.19000000
   20.01666641   81.85710144    0.03000000    0.19000000
   20.01972198   83.69799805    0.03000000    0.19000000
   20.02305603   86.30030060    0.03000000    0.19000000
   20.02638817   76.56199646    0.03000000    0.19000000
   20.02944374   86.61299896    0.03000000    0.19000000
   20.03277779   92.67949677    0.03000000    0.19000000
   20.03750038   92.67949677    0.03000000    0.19000000
   20.04138756   93.69249725    0.03000000    0.19000000
   20.04472160   85.10389709    0.03000000    0.19000000
   20.04805565   81.69830322    0.03000000    0.19000000
   20.05111122   84.35540009    0.03000000    0.19000000
   20.05444336   89.44660187    0.03000000    0.19000000
   20.05777740   86.35590363    0.03000000    0.19000000
   20.06083298   90.07340240    0.03000000    0.19000000
   20.06416512   85.26239777    0.03000000    0.19000000
   20.06583214   86.64589691    0.03000000    0.19000000
   20.06777954   84.44159698    0.03000000    0.19000000
   20.07083511   86.84300232    0.03000000    0.19000000
   20.07416725   86.81510162    0.03000000    0.19000000
   20.07750130   90.29650116    0.03000000    0.19000000
   20.08055687   94.40699768    0.03000000    0.19000000
   20.08388901   90.27839661    0.03000000    0.19000000
   20.08861160   90.27839661    0.03000000    0.19000000
   20.09277916   86.97250366    0.03000000    0.19000000
   20.09583473   97.35459900    0.03000000    0.19000000
   20.09916687   94.56500244    0.03000000    0.19000000
   20.10250092   89.44139862    0.03000000    0.19000000
   20.10555649   93.76770020    0.03000000    0.19000000
   20.10888863   94.83989716    0.03000000    0.19000000
   20.11194420   89.94159698    0.03000000    0.19000000
   20.11527824   86.02040100    0.03000000    0.19000000
   20.11583328   82.19049835    0.03000000    0.19000000
   20.11888885   86.78420258    0.03000000    0.19000000
   20.12194443   97.51820374    0.03000000    0.19000000
   20.12527847   94.18270111    0.03000000    0.19000000
   20.12861061   95.73960114    0.03000000    0.19000000
   20.13166618   90.80010223    0.03000000    0.19000000
   20.13500023   94.75219727    0.03000000    0.19000000
   20.13972282   94.75219727    0.03000000    0.19000000
   20.14388847   96.11630249    0.03000000    0.19000000
   20.14722252   89.05709839    0.03000000    0.19000000
   20.15027809   90.43129730    0.03000000    0.19000000
   20.15472221   87.85890198    0.03000000    0.19000000
   20.15777779   83.68550110    0.03000000    0.19000000
   20.16110992   83.28589630    0.03000000    0.19000000
   20.46250153   88.21690369    0.03000000    0.19000000
   20.46583366   94.94509888    0.03000000    0.19000000
   20.46888924   98.29579926    0.03000000    0.19000000
   20.47222328   94.01370239    0.03000000    0.19000000
   20.47555542   97.17420197    0.03000000    0.19000000
   20.47861099   95.30750275    0.03000000    0.19000000
   20.48194504  105.49400330    0.03000000    0.19000000
   20.48500061   83.09110260    0.03000000    0.19000000
   20.49111176   83.09110260    0.03000000    0.19000000
   20.49527740   88.62010193    0.03000000    0.19000000
   20.49861145  108.82199860    0.03000000    0.19000000
   20.50166702  109.03399658    0.03000000    0.19000000
   20.50499916   80.00569916    0.03000000    0.19000000
   20.50833321   89.43530273    0.03000000    0.19000000
   20.51138878   85.66179657    0.03000000    0.19000000
   20.51250076   82.43240356    0.03000000    0.19000000
   20.51527786   87.65969849    0.03000000    0.19000000
   20.51833344  114.71600342    0.03000000    0.19000000
   20.52166557  128.00199890    0.03000000    0.19000000
   20.52499962  150.41900635    0.03000000    0.19000000
   20.52805519  145.95500183    0.03000000    0.19000000
   20.53138924   60.17179871    0.03000000    0.19000000
   20.53444481  123.36399841    0.03000000    0.19000000
   20.53777695   -1.00000000    0.03000000    0.19000000
   20.54638863   -1.00000000    0.03000000    0.19000000
   20.54944420   -1.00000000    0.03000000    0.19000000
   20.55277634   -1.00000000    0.03000000    0.19000000
   20.55611038   -1.00000000    0.03000000    0.19000000
   20.55916595   -1.00000000    0.03000000    0.19000000
   20.56277657   -1.00000000    0.03000000    0.19000000
   20.56611061   -1.00000000    0.03000000    0.19000000
   20.56944466   -1.00000000    0.03000000    0.19000000
   20.57250023   -1.00000000    0.03000000    0.19000000
   20.57583427   -1.00000000    0.03000000    0.19000000
   20.57888985   -1.00000000    0.03000000    0.19000000
   20.58222389   -1.00000000    0.03000000    0.19000000
   20.58555603   -1.00000000    0.03000000    0.19000000
   20.58861160   -1.00000000    0.03000000    0.19000000
   20.59749985   -1.00000000    0.03000000    0.19000000
   20.60083389   -1.00000000    0.03000000    0.19000000
   20.60388947   -1.00000000    0.03000000    0.19000000
   20.60722351   -1.00000000    0.03000000    0.19000000
   20.61027908   -1.00000000    0.03000000    0.19000000
   20.61388969   -1.00000000    0.03000000    0.19000000
   20.61722183   -1.00000000    0.03000000    0.19000000
   20.62055588   -1.00000000    0.03000000    0.19000000
   20.62361145   -1.00000000    0.03000000    0.19000000
   20.62694550   -1.00000000    0.03000000    0.19000000
   20.63000107   -1.00000000    0.03000000    0.19000000
   20.63333321   -1.00000000    0.03000000    0.19000000
   20.63666725   -1.00000000    0.03000000    0.19000000
   20.63972282   -1.00000000    0.03000000    0.19000000
   20.64861107   -1.00000000    0.03000000    0.19000000
   20.65194321   -1.00000000    0.03000000    0.19000000
   20.65499878   -1.00000000    0.03000000    0.19000000
   20.65833282   -1.00000000    0.03000000    0.19000000
   20.66166687   -1.00000000    0.03000000    0.19000000
   20.66499901   -1.00000000    0.03000000    0.19000000
   20.66833305   -1.00000000    0.03000000    0.19000000
   20.67166519   -1.00000000    0.03000000    0.19000000
   20.67472076   -1.00000000    0.03000000    0.19000000
   20.67805481   -1.00000000    0.03000000    0.19000000
   20.68111038   -1.00000000    0.03000000    0.19000000
   20.68444443   -1.00000000    0.03000000    0.19000000
   20.68777657   -1.00000000    0.03000000    0.19000000
   20.69083214   -1.00000000    0.03000000    0.19000000
   20.69972038   -1.00000000    0.03000000    0.19000000
   20.70305634   -1.00000000    0.03000000    0.19000000
   20.70639038   -1.00000000    0.03000000    0.19000000
   20.70944595   -1.00000000    0.03000000    0.19000000
   20.71305656   -1.00000000    0.03000000    0.19000000
   20.71638870   -1.00000000    0.03000000    0.19000000
   20.71972275   -1.00000000    0.03000000    0.19000000
   20.72277832   -1.00000000    0.03000000    0.19000000
   20.72611237   -1.00000000    0.03000000    0.19000000
   20.72916794   -1.00000000    0.03000000    0.19000000
   20.73250008   -1.00000000    0.03000000    0.19000000
   20.73583412   -1.00000000    0.03000000    0.19000000
   20.73888969   -1.00000000    0.03000000    0.19000000
   20.74222183   -1.00000000    0.03000000    0.19000000
   20.75111198   -1.00000000    0.03000000    0.19000000
   20.75416756   -1.00000000    0.03000000    0.19000000
   20.75749969   -1.00000000    0.03000000    0.19000000
   20.76083374   -1.00000000    0.03000000    0.19000000
   20.76416588   -1.00000000    0.03000000    0.19000000
   20.76749992   -1.00000000    0.03000000    0.19000000
   20.77083397   -1.00000000    0.03000000    0.19000000
   20.77388954   -1.00000000    0.03000000    0.19000000
   20.77722168   -1.00000000    0.03000000    0.19000000
   20.78055573   -1.00000000    0.03000000    0.19000000
   20.78361130   -1.00000000    0.03000000    0.19000000
   20.78694344   -1.00000000    0.03000000    0.19000000
   20.78999901   -1.00000000    0.03000000    0.19000000
   20.79333305   -1.00000000    0.03000000    0.19000000
   20.80222130   -1.00000000    0.03000000    0.19000000
   20.80555534   -1.00000000    0.03000000    0.19000000
   20.80861092   -1.00000000    0.03000000    0.19000000
   20.81194305   -1.00000000    0.03000000    0.19000000
   20.81527710   -1.00000000    0.03000000    0.19000000
   20.81861115   -1.00000000    0.03000000    0.19000000
   20.82194519   -1.00000000    0.03000000    0.19000000
   20.82500076   -1.00000000    0.03000000    0.19000000
   20.82833481   -1.00000000    0.03000000    0.19000000
   20.83139038   -1.00000000    0.03000000    0.19000000
   20.83472252   -1.00000000    0.03000000    0.19000000
   20.83805656   -1.00000000    0.03000000    0.19000000
   20.84111214   -1.00000000    0.03000000    0.19000000
   20.84444427   -1.00000000    0.03000000    0.19000000
   20.85333443   -1.00000000    0.03000000    0.19000000
   20.85666656   -1.00000000    0.03000000    0.19000000
   20.85972214   -1.00000000    0.03000000    0.19000000
   20.86333466   -1.00000000    0.03000000    0.19000000
   20.86666679   -1.00000000    0.03000000    0.19000000
   20.87000084   -1.00000000    0.03000000    0.19000000
   20.87305641   -1.00000000    0.03000000    0.19000000
   20.87638855   -1.00000000    0.03000000    0.19000000
   20.87944412   -1.00000000    0.03000000    0.19000000
   20.88277817   -1.00000000    0.03000000    0.19000000
   20.88611031   -1.00000000    0.03000000    0.19000000
   20.88916588   -1.00000000    0.03000000    0.19000000
   20.89249992   -1.00000000    0.03000000    0.19000000
   20.89583397   -1.00000000    0.03000000    0.19000000
   20.90444374   -1.00000000    0.03000000    0.19000000
   20.90777779   -1.00000000    0.03000000    0.19000000
   20.91110992   -1.00000000    0.03000000    0.19000000
   20.91444397   -1.00000000    0.03000000    0.19000000
   20.91777802   -1.00000000    0.03000000    0.19000000
   20.92111015   -1.00000000    0.03000000    0.19000000
   20.92416573   -1.00000000    0.03000000    0.19000000
   20.92749977   -1.00000000    0.03000000    0.19000000
   20.93055534   -1.00000000    0.03000000    0.19000000
   20.93388748   -1.00000000    0.03000000    0.19000000
   20.93722153   -1.00000000    0.03000000    0.19000000
   20.94027710   -1.00000000    0.03000000    0.19000000
   20.94361115   -1.00000000    0.03000000    0.19000000
   20.94694328   -1.00000000    0.03000000    0.19000000
   20.95583344   -1.00000000    0.03000000    0.19000000
   20.95888901   -1.00000000    0.03000000    0.19000000
   20.96222305   -1.00000000    0.03000000    0.19000000
   20.96583366   -1.00000000    0.03000000    0.19000000
