    HOUR (UT)   FLARE FACTOR    SKY TESTER    SUN TESTER
   12.58638859   -1.00000000   -1.00000000   -1.00000000
   12.90083313   77.53730011    1.19000006    2.82999992
   12.90388870   81.43229675    1.19000006    2.82999992
   12.90722179   76.24359894    1.19000006    2.82999992
   12.91027737   75.70570374    1.21000004    2.82999992
   12.91361046   75.91429901    1.21000004    2.82999992
   12.91666698   75.92199707    1.25000000    2.82999992
   12.92000008   76.27629852    1.25000000    2.82999992
   12.92305565   77.13880157    1.25000000    2.82999992
   12.92944431   77.13880157    1.25000000    2.82999992
   12.93361092   77.35579681    1.25000000    2.80999994
   12.93666649   78.32759857    1.21000004    2.80999994
   12.94000053   78.23950195    1.21000004    2.82999992
   12.94305515   77.53530121    1.21000004    2.80999994
   12.94638920   73.41419983    1.21000004    2.82999992
   12.94944477   74.04419708    1.64999998    2.82999992
   12.95083332   77.41190338    1.44000006    2.82999992
   12.95333290   75.48490143    1.21000004    2.82999992
   12.95638847   75.53530121    1.21000004    2.82999992
   12.95972157   74.80310059    1.21000004    2.82999992
   12.96277714   77.71289825    1.19000006    2.84999990
   12.96611118   78.50969696    1.19000006    2.82999992
   12.96916580   78.27449799    1.19000006    2.82999992
   12.97249985   76.66850281    1.19000006    2.82999992
   12.97555542   81.81179810    1.19000006    2.84999990
   12.98055553   81.81179810    1.30999994    2.84999990
   12.98472214   77.53320313    1.16999996    2.84999990
   12.98777771   76.59369659    1.14999998    2.82999992
   12.99111176   75.39420319    1.14999998    2.82999992
   12.99416733   76.43060303    1.14999998    2.84999990
   12.99750042   76.40110016    1.14999998    2.84999990
   13.00055599   74.49729919    1.14999998    2.84999990
   13.00111103   75.84929657    1.14999998    2.84999990
   13.00444412   75.33540344    1.14999998    2.82999992
   13.00749969   77.33899689    1.14999998    2.84999990
   13.01083374   77.43329620    1.16999996    2.82999992
   13.01388931   79.37270355    1.16999996    2.84999990
   13.01722240   73.66310120    1.16999996    2.84999990
   13.02027798   74.11489868    1.13000000    2.84999990
   13.02361107   75.94979858    1.14999998    2.84999990
   13.02666664   76.19120026    1.14999998    2.84999990
   13.03166676   76.19120026    1.13000000    2.84999990
   13.03583336   76.76640320    1.13000000    2.84999990
   13.03916740   76.54399872    1.13000000    2.84999990
   13.04222298   76.87480164    1.13000000    2.84999990
   13.04555607   77.04149628    1.13000000    2.84999990
   13.04861164   77.98400116    1.11000001    2.82999992
   13.05111122   80.21990204    1.11000001    2.82999992
   13.05222225   74.94239807    1.11000001    2.82999992
   13.05527782   77.24629974    1.09000003    2.84999990
   13.05833340   81.87509918    1.11000001    2.84999990
   13.06166649   78.33499908    1.11000001    2.82999992
   13.06472206   78.96710205    1.11000001    2.84999990
   13.06805515   80.63970184    1.11000001    2.84999990
   13.07111073   82.00489807    1.13000000    2.84999990
   13.07444477   80.12619781    1.13000000    2.82999992
   13.07750034   82.36180115    1.09000003    2.84999990
   13.08305550   82.36180115    1.09000003    2.86999989
   13.08694458   73.64579773    1.09000003    2.84999990
   13.09027767   74.87789917    1.09000003    2.84999990
   13.09333324   76.14939880    1.09000003    2.86999989
   13.09666634   78.20880127    1.09000003    2.84999990
   13.09972191   78.67359924    1.07000005    2.84999990
   13.10111141   77.64399719    1.07000005    2.84999990
   13.10333347   81.08619690    1.07000005    2.84999990
   13.10638905   84.12950134    1.07000005    2.84999990
   13.10972214   80.97589874    1.07000005    2.84999990
   13.11277771   77.56250000    1.07000005    2.84999990
   13.11611176   78.00839996    1.07000005    2.86999989
   13.11916637   75.33170319    1.07000005    2.86999989
   13.12250042   76.56359863    1.07000005    2.86999989
   13.12555599   76.31420135    1.09000003    2.86999989
   13.12888908   79.90419769    1.07000005    2.86999989
   13.13416672   79.90419769    1.09000003    2.86999989
   13.13833332   78.20520020    1.07000005    2.84999990
   13.14138889   76.88110352    1.09000003    2.84999990
   13.14472198   72.59100342    1.07000005    2.86999989
   13.14777756   75.10939789    1.07000005    2.86999989
   13.15111065   76.22170258    1.07000005    2.84999990
   13.15138817   76.02590179    1.07000005    2.84999990
   13.15472221   77.68090057    1.09000003    2.84999990
   13.15777779   80.62290192    1.11000001    2.84999990
   13.16111088   74.68550110    1.09000003    2.84999990
   13.16416645   74.52839661    1.09000003    2.86999989
   13.16750050   75.28610229    1.11000001    2.84999990
   13.17055607   76.82150269    1.09000003    2.84999990
   13.17388916   78.76329803    1.09000003    2.86999989
   13.17694473   79.30169678    1.07000005    2.86999989
   13.18027782   76.34719849    1.09000003    2.86999989
   13.18527794   76.34719849    1.09000003    2.84999990
   13.18944454   75.96150208    1.09000003    2.84999990
   13.19250011   79.33100128    1.09000003    2.84999990
   13.19583321   76.96309662    1.05999994    2.86999989
   13.19888878   79.40309906    1.05999994    2.84999990
   13.20138836   74.87860107    1.03999996    2.86999989
   13.20249939   77.14530182    1.03999996    2.89000010
   13.20583344   77.57240295    1.03999996    2.89000010
   13.20916653   75.65360260    1.03999996    2.84999990
   13.21222210   75.38249969    1.03999996    2.84999990
   13.21555519   75.10479736    1.03999996    2.84999990
   13.21861076   73.64199829    1.03999996    2.86999989
   13.22194386   80.51149750    1.03999996    2.86999989
   13.22499943   79.33589935    1.03999996    2.86999989
   13.22833252   79.53430176    1.03999996    2.86999989
   13.23138809   80.39890289    1.05999994    2.86999989
   13.23638916   80.39890289    1.05999994    2.86999989
   13.24055576   81.22570038    1.05999994    2.89000010
   13.24388885   79.65699768    2.44000006    2.86999989
   13.24694443   74.79789734    1.38000000    2.69000006
   13.25027752   77.58309937    1.07000005    2.86999989
   13.25166702   72.57599640    1.07000005    2.84999990
   13.25388908   78.94390106    1.07000005    2.86999989
   13.25694466   77.97059631    1.07000005    2.89000010
   13.26027775   87.21389771    1.09000003    2.89000010
   13.26333332   76.08869934    4.90999985    2.59999990
   13.26666641   72.19380188    4.90999985    3.00000000
   13.26972198   77.49539948    1.07000005    2.89000010
   13.27305508   77.40920258    1.05999994    2.86999989
   13.27611065   79.02469635    1.05999994    2.89000010
   13.27944374   76.86440277    1.05999994    2.89000010
   13.28249931   75.33350372    1.05999994    2.84999990
   13.28777790   75.33350372    1.03999996    2.86999989
   13.29166698   75.69819641    1.03999996    2.86999989
   13.29500008   75.95709991    1.03999996    2.89000010
   13.29805565   81.41529846    1.03999996    2.86999989
   13.30138874   75.98449707    1.03999996    2.86999989
   13.30194473   74.66989899    1.03999996    2.86999989
   13.30472279   72.99620056    1.03999996    2.84999990
   13.30805588   73.33399963    1.05999994    2.89000010
   13.31111145   77.12789917    1.05999994    2.84999990
   13.31444454   74.76349640    1.05999994    2.86999989
   13.31750011   75.48490143    1.05999994    2.86999989
   13.32083321   80.51889801    1.05999994    2.86999989
   13.32388878   74.82479858    1.07000005    2.86999989
   13.32722187   76.00399780    1.09000003    2.86999989
   13.33027744   76.77310181    1.09000003    2.86999989
   13.33361053   76.62120056    1.09000003    2.89000010
   13.33888817   76.62120056    1.11000001    2.89000010
   13.34305477   78.66929626    1.39999998    2.89000010
   13.34611034   75.35749817    4.90999985    2.91000009
   13.34944439   75.93890381    1.09000003    2.89000010
   13.35194492   76.95149994    1.09000003    2.86999989
   13.35277843   83.39119720    1.11000001    2.86999989
   13.35583401   74.87930298    1.09000003    2.86999989
   13.35916710  117.06500244    3.01999998    2.89000010
   13.36222267   75.99349976    4.90999985    2.78999996
   13.36555576   74.91639709    1.80999994    2.91000009
   13.36861134   77.79879761    1.26999998    2.86999989
   13.37194443   78.79560089    1.13000000    2.86999989
   13.37500000   73.12239838    1.11000001    2.89000010
   13.37833309   74.63510132    2.21000004    2.89000010
   13.38138866   73.88459778    2.13000011    2.89000010
   13.38472176   74.79640198    1.96000004    2.86999989
   13.39000034   74.79640198    1.11000001    2.86999989
   13.39416695   76.76830292    1.19000006    2.84999990
   13.39722252   93.90350342    2.15000010    2.86999989
   13.40055561  102.00199890    4.90999985    2.64000010
   13.40194416  123.21499634    4.90999985    2.28999996
   13.40388870   -1.00000000    4.90999985    1.94000006
   13.40694427   -1.00000000    4.90999985    0.98000002
   13.41027737   -1.00000000    4.90999985    1.34000003
   13.41333294   -1.00000000    4.90999985    1.01999998
   13.41666698   -1.00000000    4.90999985    0.69000000
   13.41972256   -1.00000000    4.90999985    0.40000001
   13.42277813   75.76249695    4.90999985    0.64999998
   13.42611122   76.23269653    4.90999985    2.98000002
   13.42916679   77.85810089    2.42000008    2.91000009
   13.43249989   79.82109833    1.07000005    2.89000010
   13.43555546   78.52660370    1.01999998    2.89000010
   13.44111156   78.52660370    1.01999998    2.91000009
   13.44527817   78.66280365    0.98000002    2.86999989
   13.44861126   75.50700378    1.00000000    2.89000010
   13.45166683   76.10600281    1.00000000    2.89000010
   13.45222187   76.62519836    1.01999998    2.89000010
   13.45499992   73.20149994    0.98000002    2.91000009
   13.45833302   75.95580292    0.98000002    2.89000010
   13.46138859   72.60549927    0.98000002    2.86999989
   13.46472168   74.62149811    1.00000000    2.89000010
   13.46777725   76.32460022    1.00000000    2.89000010
   13.47111034   77.85469818    1.01999998    2.86999989
   13.47416592   73.72979736    1.01999998    2.89000010
   13.47777748   71.34380341    1.00000000    2.86999989
   13.48083305   74.16549683    1.00000000    2.89000010
   13.48416710   75.55840302    1.00000000    2.89000010
   13.48722267   78.29049683    1.01999998    2.89000010
   13.49250031   78.29049683    0.98000002    2.91000009
   13.49638939   75.19139862    1.00000000    2.89000010
   13.49972248   76.26010132    0.98000002    2.91000009
   13.50222206   78.48590088    0.98000002    2.89000010
   13.50305557   80.28919983    0.98000002    2.89000010
   13.50638866   76.14430237    0.98000002    2.91000009
   13.50944424   78.02600098    0.98000002    2.91000009
   13.51277733   75.26709747    0.98000002    2.89000010
   13.51583290   76.64730072    0.98000002    2.91000009
   13.51916599   77.88169861    0.98000002    2.91000009
   13.52222157   74.21160126    0.98000002    2.89000010
   13.52555561   78.46260071    0.98000002    2.89000010
   13.52861118   74.07879639    0.98000002    2.89000010
   13.53194427   72.31919861    0.98000002    2.89000010
   13.53500080   81.23519897    0.98000002    2.91000009
   13.53833389   76.55989838    0.95999998    2.91000009
   13.54361153   76.55989838    0.95999998    2.89000010
   13.54777813   74.25759888    0.95999998    2.91000009
   13.55083370   76.07479858    0.95999998    2.91000009
   13.55222225   74.96320343    0.95999998    2.91000009
   13.55416679   78.89309692    0.95999998    2.89000010
   13.55749989   77.01629639    0.95999998    2.91000009
   13.56055546   78.86399841    0.95999998    2.89000010
   13.56388950   80.87519836    0.95999998    2.89000010
   13.56694412   77.05549622    0.95999998    2.89000010
   13.57027817   74.04570007    0.95999998    2.91000009
   13.57333374   75.71369934    0.95999998    2.89000010
   13.57666683   80.97100067    0.95999998    2.91000009
   13.57972240   77.61519623    0.95999998    2.89000010
   13.58305550   72.92130280    0.95999998    2.91000009
   13.58611107   75.96250153    0.94000000    2.91000009
   13.58944416   77.60060120    0.94000000    2.91000009
   13.59472179   77.60060120    0.94000000    2.91000009
   13.59888840   80.10320282    0.94000000    2.91000009
   13.60194492   74.52330017    0.94000000    2.91000009
   13.60249996   74.21279907    0.94000000    2.91000009
   13.60555553   79.03289795    0.94000000    2.91000009
   13.60888958   78.07240295    0.92000002    2.91000009
   13.61194515   77.41760254    0.94000000    2.89000010
   13.61527824   78.60150146    0.94000000    2.91000009
   13.61833382   75.73210144    0.92000002    2.91000009
   13.62166691   77.76560211    0.92000002    2.91000009
   13.62472248   74.72869873    0.92000002    2.91000009
   13.62805557   72.66780090    0.94000000    2.91000009
   13.63111115   77.22640228    0.94000000    2.91000009
   13.63444424   85.39179993    0.95999998    2.93000007
   13.63749981   73.79840088    0.95999998    2.89000010
   13.64083290   76.69059753    0.95999998    2.89000010
   13.64583302   76.69059753    0.95999998    2.91000009
   13.64999962   76.88289642    0.94000000    2.91000009
   13.65249920   77.86250305    0.94000000    2.91000009
   13.65333271   79.47250366    0.94000000    2.91000009
   13.65666676   73.46320343    0.92000002    2.91000009
   13.65972137   77.84239960    0.92000002    2.91000009
   13.66305542   73.51930237    0.92000002    2.91000009
   13.66611099   76.52529907    0.94000000    2.93000007
   13.66944504   76.05850220    0.94000000    2.89000010
   13.67250061   79.99500275    0.92000002    2.91000009
   13.67583370   75.12950134    0.92000002    2.93000007
   13.67888927   75.59390259    0.92000002    2.93000007
   13.68222237   74.25409698    0.92000002    2.91000009
   13.68527794   75.28289795    0.92000002    2.91000009
   13.68861103   77.31600189    0.89999998    2.93000007
   13.69166660   77.56490326    0.89999998    2.93000007
   13.69694424   77.56490326    0.89999998    2.91000009
   13.70111084   77.42279816    0.89999998    2.93000007
   13.70249939   79.39900208    0.88000000    2.91000009
   13.70444393   77.45970154    0.88000000    2.93000007
   13.70777798   79.68609619    0.86000001    2.91000009
   13.71083355   78.94020081    0.86000001    2.91000009
   13.71416664   74.21459961    0.86000001    2.91000009
   13.71722221   75.67739868    0.86000001    2.93000007
   13.72055531   75.98919678    0.86000001    2.93000007
   13.72361088   74.82330322    0.86000001    2.93000007
   13.72694397   75.12319946    0.86000001    2.93000007
   13.72999954   83.75240326    0.88000000    2.93000007
   13.73333359   76.57019806    0.88000000    2.93000007
   13.73638916   75.45110321    0.88000000    2.91000009
   13.73972225   74.44020081    0.88000000    2.93000007
   13.74277782   78.51740265    0.88000000    2.93000007
   13.74833393   78.51740265    0.95999998    2.93000007
   13.75222206   77.77890015    4.55999994    2.96000004
   13.75277805   78.03450012    4.90999985    3.00000000
   13.75611115   74.71170044    4.90999985    3.01999998
   13.75916672   75.03350067    4.90999985    3.01999998
   13.76249981   76.59310150    4.90999985    3.01999998
   13.76555538   77.59210205    1.88000000    2.98000002
   13.76888847   74.65950012    0.86000001    2.94000006
   13.77194405   78.77780151    0.83999997    2.93000007
   13.77527714   78.17099762    0.81999999    2.93000007
   13.77833271   78.55539703    0.81999999    2.93000007
   13.78166676   79.84709930    0.83999997    2.91000009
   13.78472233   78.21289825    0.86000001    2.91000009
   13.78805637   73.60199738    0.86000001    2.93000007
   13.79111195   73.07779694    0.86000001    2.91000009
   13.79444504   80.11920166    0.86000001    2.93000007
   13.79944515   80.11920166    0.86000001    2.93000007
   13.80361176   73.00189972    0.86000001    2.93000007
   13.80666733   74.91040039    0.86000001    2.93000007
   13.81000042   75.64739990    0.86000001    2.93000007
   13.81305599   75.55069733    0.81999999    2.93000007
   13.81638908   74.43289948    0.83999997    2.93000007
   13.81944466   75.84609985    0.81999999    2.94000006
   13.82277775   78.36150360    0.81999999    2.93000007
   13.82583332   76.46659851    0.80000001    2.91000009
   13.82916641   76.03160095    0.80000001    2.93000007
   13.83222198   76.10720062    0.80000001    2.94000006
   13.83555508   76.35279846    0.80000001    2.93000007
   13.83861065   75.59049988    0.80000001    2.94000006
   13.84194374   76.74340057    0.80000001    2.93000007
   13.84499931   73.47730255    0.81999999    2.93000007
   13.85055637   73.47730255    0.81999999    2.94000006
   13.85472298   72.80319977    0.81999999    2.94000006
   13.85777855   74.46350098    0.81999999    2.93000007
   13.86111164   75.96459961    0.83999997    2.94000006
   13.86416721   73.06400299    0.83999997    2.94000006
   13.86750031   76.46179962    0.83999997    2.94000006
   13.87055588   75.58239746    0.83999997    2.93000007
   13.87388897   76.19560242    0.83999997    2.94000006
   13.87694454   81.71980286    0.83999997    2.93000007
   13.88027763   74.34200287    0.81999999    2.93000007
   13.88333321   77.26229858    0.83999997    2.94000006
   13.88666630   76.05549622    0.83999997    2.94000006
   13.88972187   80.93640137    0.83999997    2.94000006
   13.89305496   77.98249817    0.81999999    2.94000006
   13.89611053   76.69860077    0.81999999    2.94000006
   13.91805553   79.53600311    0.81999999    2.93000007
   13.91833401   86.39820099    0.81999999    2.93000007
   13.92138958   81.61789703    0.81999999    2.94000006
   13.92472267   75.05329895    0.83999997    2.93000007
   13.92777824   76.07350159    0.81999999    2.94000006
   13.93111134   78.97579956    0.81999999    2.93000007
   13.93416691   76.50279999    0.81999999    2.94000006
   13.93750000   77.51740265    0.81999999    2.93000007
   13.94055557   75.63240051    0.81999999    2.93000007
   13.94388866   74.16680145    0.81999999    2.93000007
   13.94694424   79.24310303    0.81999999    2.93000007
   13.95305538   79.24310303    0.81999999    2.93000007
   13.95722198   78.52249908    0.80000001    2.93000007
   13.96027756   75.57029724    0.80000001    2.94000006
   13.96361065   74.06069946    0.79000002    2.94000006
   13.96666622   78.29589844    0.79000002    2.93000007
   13.96777725   73.91699982    0.79000002    2.93000007
   13.97027779   74.55960083    0.79000002    2.93000007
   13.97361088   78.08260345    0.79000002    2.94000006
   13.97666645   75.57599640    0.76999998    2.96000004
   13.97999954   80.57969666    0.76999998    2.93000007
   13.98305511   78.61100006    0.79000002    2.94000006
   13.98638916   77.23229980    0.79000002    2.94000006
   13.98944473   82.31410217    0.80000001    2.94000006
   13.99277782   82.85369873    0.79000002    2.93000007
   13.99583340   76.84339905    0.79000002    2.94000006
   13.99916649   79.08260345    0.79000002    2.94000006
   14.00416660   79.08260345    0.79000002    2.93000007
   14.00833321   74.56220245    0.79000002    2.93000007
   14.01166630   74.68599701    0.79000002    2.93000007
   14.01472187   73.84600067    0.76999998    2.94000006
   14.01777744   76.02380371    0.76999998    2.94000006
   14.01833344   73.93440247    0.79000002    2.94000006
   14.02166653   73.86940002    0.76999998    2.93000007
   14.02472210   77.08789825    0.79000002    2.93000007
   14.02805519   75.97250366    0.79000002    2.94000006
   14.03111076   74.93160248    0.79000002    2.94000006
   14.03444481   79.37740326    0.80000001    2.93000007
   14.03750038   75.39270020    0.79000002    2.94000006
   14.04083347   73.30380249    0.79000002    2.94000006
   14.04388905   77.31330109    0.76999998    2.93000007
   14.04722309   75.27950287    0.76999998    2.94000006
   14.05027771   73.36889648    0.76999998    2.94000006
   14.05555534   73.36889648    0.75000000    2.94000006
   14.05972195   80.47599792    0.73000002    2.93000007
   14.06277752   75.46910095    0.75000000    2.94000006
   14.06611156   77.65070343    0.75000000    2.94000006
   14.06777763   83.83889771    0.75000000    2.94000006
   14.06944466   73.91590118    0.75000000    2.94000006
   14.07277775   86.06670380    0.75000000    2.94000006
   14.07583332   73.66410065    0.75000000    2.93000007
   14.07916641   79.24859619    0.75000000    2.94000006
   14.08222198   75.94010162    0.76999998    2.94000006
   14.08555508   78.44380188    0.76999998    2.93000007
   14.08861065   73.75859833    0.76999998    2.94000006
   14.09194374   78.11990356    0.76999998    2.93000007
   14.09499931   76.84329987    0.76999998    2.94000006
   14.09833336   76.47949982    0.76999998    2.94000006
   14.10138893   82.94300079    0.76999998    2.94000006
   14.10666752   82.94300079    0.75000000    2.96000004
   14.11083412   79.20210266    0.76999998    2.94000006
   14.11388969   78.31849670    0.76999998    2.94000006
   14.11722279   74.69650269    0.76999998    2.94000006
   14.11777782   77.88289642    0.76999998    2.94000006
   14.12083340   80.33609772    0.76999998    2.94000006
   14.12388897   80.83070374    0.79000002    2.94000006
   14.12722206   78.43789673    0.79000002    2.94000006
   14.13027763   79.88469696    0.79000002    2.94000006
   14.13361073   78.82039642    0.79000002    2.94000006
   14.13666630   77.52030182    0.76999998    2.94000006
   14.14000034   74.78179932    0.79000002    2.93000007
   14.14305496   76.18039703    0.79000002    2.94000006
   14.14638901   77.58260345    0.79000002    2.94000006
   14.14944458   73.01239777    0.79000002    2.94000006
   14.15277767   76.60279846    0.79000002    2.94000006
   14.15777779   76.60279846    0.80000001    2.94000006
   14.16194439   75.15609741    0.80000001    2.94000006
   14.16527748   77.36160278    0.79000002    2.94000006
   14.16777802   77.58820343    0.79000002    2.94000006
   14.16888905   76.51779938    0.79000002    2.94000006
   14.17194462   78.22319794    0.79000002    2.94000006
   14.17527771   75.90209961    0.79000002    2.94000006
   14.17833328   78.16880035    0.79000002    2.94000006
   14.18166733   80.35260010    0.79000002    2.93000007
   14.18472195   79.92710114    0.79000002    2.93000007
   14.18805599   78.99530029    0.79000002    2.94000006
   14.19111156   78.38359833    0.80000001    2.94000006
   14.19444466   75.01699829    0.80000001    2.94000006
   14.19750023   80.16249847    0.76999998    2.94000006
   14.20083332   82.62830353    0.76999998    2.94000006
   14.20388889   75.70149994    0.76999998    2.94000006
   14.20916653   75.70149994    0.76999998    2.94000006
   14.21305561   78.30429840    0.79000002    2.96000004
   14.21638870   80.08550262    0.76999998    2.94000006
   14.21777725   79.57630157    0.76999998    2.94000006
   14.21999931   76.00939941    0.75000000    2.94000006
   14.22305489   76.36620331    0.75000000    2.94000006
   14.22638798   78.02439880    0.75000000    2.94000006
   14.22944355   79.66519928    0.73000002    2.94000006
   14.23277760   76.20040131    0.73000002    2.94000006
   14.23583317   73.86090088    0.73000002    2.94000006
   14.23916721   79.30650330    0.73000002    2.96000004
   14.24222279   76.55280304    0.73000002    2.94000006
   14.24555588   76.66439819    0.73000002    2.93000007
   14.24861145   76.91870117    0.75000000    2.96000004
   14.25194454   76.56009674    0.73000002    2.94000006
   14.25500011   74.60399628    0.75000000    2.93000007
   14.26027775   74.60399628    0.75000000    2.96000004
   14.26444435   73.97090149    0.75000000    2.93000007
   14.26749992   74.84799957    0.75000000    2.94000006
   14.26805496   77.01139832    0.75000000    2.94000006
   14.27111053   78.36759949    0.75000000    2.96000004
   14.27444458   76.61820221    0.75000000    2.94000006
   14.27750015   77.41400146    0.76999998    2.94000006
   14.28083324   75.37090302    0.76999998    2.94000006
   14.28388977   80.58529663    0.75000000    2.94000006
   14.28722286   76.26170349    0.75000000    2.94000006
   14.29027843   79.25240326    0.75000000    2.94000006
   14.29361153   76.83319855    0.75000000    2.93000007
   14.29666710   81.07109833    0.75000000    2.94000006
   14.30000019   79.44779968    0.75000000    2.94000006
   14.30305576   77.36889648    0.73000002    2.94000006
   14.30638885   79.00499725    0.75000000    2.96000004
   14.31138897   79.00499725    0.75000000    2.94000006
   14.31555557   80.83959961    0.75000000    2.94000006
   14.31805515   75.83760071    0.75000000    2.94000006
   14.31888866   76.91860199    0.75000000    2.94000006
   14.32222176   77.09709930    0.75000000    2.96000004
   14.32527733   77.65920258    0.73000002    2.96000004
   14.32861137   74.96970367    0.75000000    2.94000006
   14.33166695   79.22129822    0.70999998    2.96000004
   14.33500004   75.84660339    0.70999998    2.94000006
   14.33805561   79.91529846    0.70999998    2.94000006
   14.34138870   79.56719971    0.70999998    2.96000004
   14.34444427   74.49220276    0.69000000    2.98000002
   14.34777737   77.00839996    0.69000000    2.96000004
   14.35111141   76.64980316    0.64999998    2.98000002
   14.35416698   78.99839783    0.64999998    2.98000002
   14.35750008   77.39260101    0.64999998    2.96000004
   14.36250019   77.39260101    0.64999998    2.96000004
   14.36666679   78.52030182    0.63000000    2.98000002
   14.36805534   84.84439850    0.63000000    2.96000004
   14.37027836   82.16780090    0.63000000    2.96000004
   14.37361145   74.81900024    0.63000000    2.96000004
   14.37666702   79.36820221    0.64999998    2.96000004
   14.38000011   79.10949707    0.64999998    2.98000002
   14.38305569   76.34839630    0.64999998    2.96000004
   14.38638878   74.41819763    0.67000002    2.98000002
   14.38944435   73.12500000    0.67000002    2.96000004
   14.39277744   76.60399628    0.67000002    2.96000004
   14.39583302   72.50340271    0.67000002    2.96000004
   14.39916611   75.27349854    0.67000002    2.96000004
   14.40222168   78.34819794    0.67000002    2.96000004
   14.40555477   76.39720154    0.67000002    2.96000004
   14.40861034   80.95459747    0.67000002    2.96000004
   14.41361046   80.95459747    0.64999998    2.98000002
   14.41777802   75.99369812    0.64999998    2.96000004
   14.41833401   76.78340149    0.64999998    2.96000004
   14.42138958   82.36609650    0.63000000    2.96000004
   14.42472267   81.34919739    0.63000000    2.98000002
   14.42777824   79.06210327    0.63000000    2.98000002
   14.43111134   78.40450287    0.63000000    2.96000004
   14.43416691   79.92469788    0.61000001    2.98000002
   14.43750000   75.53810120    0.61000001    2.96000004
   14.44055557   79.10040283    0.61000001    2.96000004
   14.44388866   82.12039948    0.61000001    2.98000002
   14.44694424   79.30930328    0.61000001    2.98000002
   14.45027733   79.86699677    0.61000001    2.98000002
   14.45333290   73.48040009    0.61000001    2.96000004
   14.45666695   80.39700317    0.61000001    2.96000004
   14.45972157   77.54060364    0.61000001    2.98000002
   14.46500015   77.54060364    0.61000001    2.96000004
   14.46888828   79.11789703    0.61000001    2.96000004
   14.47222137   77.80460358    0.61000001    2.96000004
   14.47527695   78.31629944    0.61000001    2.96000004
   14.47861099   80.81050110    0.63000000    2.98000002
   14.48166656   75.79930115    0.63000000    2.96000004
   14.48500061   78.40750122    0.63000000    2.98000002
   14.48805618   84.05259705    0.61000001    2.98000002
   14.49138927   75.39109802    0.61000001    2.96000004
   14.49444485   79.44650269    0.63000000    2.98000002
   14.49777794   77.77539825    0.63000000    2.98000002
   14.50083351   76.66899872    0.63000000    2.96000004
   14.50416660   79.92320251    0.63000000    2.98000002
   14.50722218   73.17819977    0.63000000    2.98000002
   14.51055527   74.46019745    0.64999998    2.96000004
   14.51611137   74.46019745    0.69000000    2.98000002
   14.52027798   78.05740356    0.67000002    2.98000002
   14.52333355   76.20610046    0.69000000    2.96000004
   14.52666664   73.67369843    0.69000000    2.98000002
   14.52972221   76.87819672    0.70999998    2.98000002
   14.53305531   81.98190308    0.70999998    2.96000004
   14.53611183   76.13919830    0.75000000    2.96000004
   14.53944492   76.61609650    0.73000002    2.96000004
   14.54250050   75.35919952    0.73000002    2.96000004
   14.54583359   78.72609711    0.73000002    2.96000004
   14.54888916   75.95880127    0.75000000    2.96000004
   14.55222225   75.56900024    0.73000002    2.96000004
   14.55527782   76.68520355    0.73000002    2.96000004
   14.55861092   80.93990326    0.73000002    2.96000004
   14.56166649   75.98639679    0.73000002    2.98000002
   14.56722260   75.98639679    0.69000000    2.98000002
   14.57138920   77.12039948    0.67000002    2.96000004
   14.57444477   75.05169678    0.61000001    3.00000000
   14.57777786   78.78739929    0.58999997    2.98000002
   14.58083344   77.47640228    0.56999999    2.98000002
   14.58416653   74.97599792    0.56999999    2.98000002
   14.58722210   73.11949921    0.55000001    3.00000000
   14.59055519   76.92859650    0.56999999    2.98000002
   14.59361076   83.08229828    0.55000001    2.98000002
   14.59694386   75.91719818    0.55000001    2.98000002
   14.60000038   83.61340332    0.56999999    2.98000002
   14.60333347   75.68859863    0.56999999    2.98000002
   14.60638905   76.82389832    0.56999999    2.98000002
   14.60972214   78.07620239    0.56999999    2.98000002
   14.61277771   77.04599762    0.56999999    2.98000002
   14.61833382   77.04599762    0.56999999    2.98000002
   14.62250042   81.57749939    0.56999999    2.98000002
   14.62583351   77.36460114    0.56999999    2.98000002
   14.62888908   76.84739685    0.56999999    2.98000002
   14.63222218   78.16510010    0.55000001    2.94000006
   14.63527775   75.65440369    0.55000001    3.00000000
   14.63861084   80.64330292    0.52999997    2.98000002
   14.64166641   77.30120087    0.52999997    2.98000002
   14.64499950   76.35189819    0.52999997    3.00000000
   14.64805508   77.14189911    0.51999998    3.00000000
   14.65138817   82.52420044    0.52999997    2.98000002
   14.65444374   80.91529846    0.51999998    2.98000002
   14.65777779   84.67900085    0.51999998    3.00000000
   14.66083336   85.81639862    0.51999998    2.98000002
   14.66416645   85.53759766    0.51999998    3.00000000
   14.66972256   85.53759766    0.50000000    2.98000002
   14.67361164   82.43170166    0.50000000    2.98000002
   14.67694473   86.83149719    0.47999999    2.98000002
   14.68000031   82.78559875    0.50000000    2.98000002
   14.68333340   84.70670319    0.50000000    2.98000002
   14.68638897   84.00260162    0.50000000    3.00000000
   14.68972206   77.24459839    0.50000000    3.00000000
   14.69277763   80.09190369    0.50000000    3.00000000
   14.69611073   86.83959961    0.50000000    3.00000000
   14.69916630   79.32150269    0.50000000    3.00000000
   14.70249939   81.80879974    0.51999998    2.98000002
   14.70555496   76.62100220    0.51999998    2.98000002
   14.70888901   77.60829926    0.52999997    3.00000000
   14.71194458   75.38249969    0.52999997    2.96000004
   14.71527767   80.08519745    0.52999997    2.98000002
   14.72083282   80.08519745    0.52999997    3.00000000
   14.72499943   74.51210022    0.52999997    3.00000000
   14.72805500   77.33609772    0.51999998    2.98000002
   14.73138809   84.41670227    0.50000000    3.00000000
   14.73444462   77.45059967    0.50000000    3.00000000
   14.73777771   77.64749908    0.50000000    3.00000000
   14.74083328   78.14820099    0.50000000    3.00000000
   14.74416733   82.06680298    0.50000000    3.00000000
   14.74722290   81.20549774    0.50000000    3.00000000
   14.75055599   78.15989685    0.47999999    3.00000000
   14.75361156   84.72339630    0.47999999    3.00000000
   14.75694466   81.19719696    0.47999999    2.98000002
   14.76000023   78.55190277    0.50000000    3.00000000
   14.76333332   81.13520050    0.50000000    3.00000000
   14.76638889   79.57800293    0.50000000    3.00000000
   14.77194405   79.57800293    0.50000000    3.00000000
   14.77611065   80.42230225    0.50000000    3.00000000
   14.89361095   -1.00000000   -1.00000000   -1.00000000
   14.99527836   -1.00000000   -1.00000000   -1.00000000
   15.26861095   -1.00000000   -1.00000000   -1.00000000
   15.36222267   61.02719879    0.61000001    3.00000000
   15.36555576   72.36920166    0.67000002    3.01999998
   15.36861134   75.20860291    0.69000000    3.00000000
   15.37194443   74.11080170    0.75000000    3.01999998
   15.37500000   74.41929626    0.75000000    3.01999998
   15.37833309   73.31469727    0.63000000    3.00000000
   15.38138866   73.46209717    0.63000000    3.01999998
   15.38472176   74.46730042    0.67000002    3.00000000
   15.39083290   74.46730042    0.76999998    3.00000000
   15.39499950   78.53929901    0.76999998    3.00000000
   15.39805508   77.16339874    0.75000000    3.01999998
   15.40138817   78.29730225    0.73000002    3.00000000
   15.40444374   74.08309937    0.73000002    3.00000000
   15.40777779   81.02189636    0.73000002    3.00000000
   15.41083336   80.23619843    0.73000002    3.00000000
   15.41222191   77.04309845    0.73000002    3.00000000
   15.41416645   87.03389740    0.75000000    3.00000000
   15.41750050   78.67160034    0.73000002    3.00000000
   15.42055607   79.61609650    0.69000000    3.01999998
   15.42388916   86.54519653    0.69000000    3.01999998
   15.42694473   83.05349731    0.67000002    3.01999998
   15.43027782   77.14559937    0.67000002    3.00000000
   15.43333340   80.88310242    0.67000002    3.01999998
   15.43666649   86.20639801    0.69000000    3.00000000
   15.44194412   86.20639801    0.67000002    3.00000000
   15.44611073   83.80950165    0.64999998    3.00000000
   15.44916630   77.22059631    0.64999998    3.01999998
   15.45249939   83.72309875    0.64999998    3.00000000
   15.45555496   78.73719788    0.64999998    3.00000000
   15.45888901   86.29640198    0.64999998    3.00000000
   15.46194458   78.30940247    0.64999998    3.00000000
   15.46249962   82.14089966    0.64999998    3.00000000
   15.46583271   80.87280273    0.63000000    3.00000000
   15.46888828   78.29309845    0.63000000    3.00000000
   15.47222137   80.54090118    0.63000000    3.00000000
   15.47527695   86.14160156    0.63000000    3.01999998
   15.47861099   76.61049652    0.64999998    3.00000000
   15.48166656   79.17759705    0.64999998    3.00000000
   15.48500061   80.04579926    0.64999998    3.00000000
   15.48805618   79.35659790    0.64999998    3.01999998
   15.49305534   79.35659790    0.67000002    3.00000000
   15.49722290   74.23889923    0.67000002    3.01999998
   15.50055599   78.17109680    0.67000002    3.01999998
   15.50361156   76.68969727    0.67000002    3.00000000
   15.50694466   78.72540283    0.69000000    3.01999998
   15.51000023   75.62190247    0.67000002    3.00000000
   15.51249981   74.98619843    0.67000002    3.00000000
   15.51361084   71.19470215    0.67000002    3.00000000
   15.51666641   77.08020020    0.67000002    3.00000000
   15.51999950   74.71430206    0.69000000    3.00000000
   15.52305508   76.88999939    0.67000002    3.00000000
   15.52638817   72.99849701    0.67000002    3.00000000
   15.52944374   75.34480286    0.67000002    2.98000002
   15.53277779   75.50769806    0.67000002    3.00000000
   15.53583336   79.71569824    0.67000002    3.00000000
   15.53916740   80.93090057    0.67000002    3.00000000
   15.54444504   80.93090057    0.67000002    3.00000000
   15.54833412   81.48899841    0.67000002    3.00000000
   15.55166721   85.71430206    0.67000002    3.01999998
   15.55472279   82.56410217    0.64999998    3.00000000
   15.55805588   78.91130066    0.64999998    3.00000000
   15.56111145   80.64659882    0.63000000    3.00000000
   15.56250000   75.46350098    0.63000000    3.01999998
   15.56472206   78.53009796    0.63000000    3.00000000
   15.56777763   80.70490265    0.61000001    3.01999998
   15.57111073   80.20529938    0.61000001    3.00000000
   15.57416630   79.95500183    0.63000000    3.01999998
   15.57750034   78.27559662    0.63000000    3.01999998
   15.58055592   77.32289886    0.63000000    3.01999998
   15.58388901   75.11699677    0.63000000    3.01999998
   15.58694458   72.69960022    0.64999998    3.01999998
   15.59027767   78.15789795    0.64999998    3.00000000
   15.59555531   78.15789795    0.64999998    3.00000000
   15.59972191   77.55750275    0.64999998    3.00000000
   15.60277843   81.72460175    0.67000002    2.98000002
   15.60611153   83.47810364    0.69000000    3.00000000
   15.60916710   80.27069855    0.69000000    3.00000000
   15.61250019   76.83360291    0.70999998    3.01999998
   15.61277771   80.36139679    0.70999998    3.01999998
   15.61611176   79.17369843    0.67000002    3.00000000
   15.61916637   75.45770264    0.67000002    3.00000000
   15.62250042   82.99690247    0.69000000    3.00000000
   15.62555599   80.19809723    0.70999998    3.00000000
   15.62888908   78.77649689    0.75000000    3.01999998
   15.63194466   81.32299805    0.75000000    3.00000000
   15.63527775   81.79229736    0.75000000    3.00000000
   15.63833332   80.28060150    0.75000000    3.00000000
   15.64166641   77.26119995    0.76999998    3.01999998
   15.64666653   77.26119995    0.73000002    3.00000000
   15.65083313   77.33670044    0.75000000    3.01999998
   15.65388870   77.93329620    0.70999998    3.00000000
   15.65722179   87.05699921    0.69000000    2.98000002
   15.66055489   80.08889771    0.69000000    3.00000000
   15.66277695   78.71389771    0.69000000    3.00000000
   15.66388893   78.95870209    0.69000000    3.00000000
   15.66694450   85.22840118    0.67000002    3.00000000
   15.67027855   79.72139740    0.69000000    3.00000000
   15.67333412   79.24569702    0.69000000    3.01999998
   15.67666721   75.80899811    0.64999998    3.01999998
   15.67972279   79.66300201    0.64999998    3.00000000
   15.68305588   81.31919861    0.63000000    3.00000000
   15.68611145   80.02819824    0.63000000    3.00000000
   15.68944454   80.25820160    0.64999998    3.00000000
   15.69250011   80.52059937    0.63000000    3.00000000
   15.69777775   80.52059937    0.63000000    3.00000000
   15.70194435   75.29979706    0.63000000    3.00000000
   15.70527744   73.82700348    0.63000000    3.01999998
   15.70833302   76.64250183    0.63000000    3.01999998
   15.71166611   79.04000092    0.63000000    3.01999998
   15.71305561   77.05650330    0.61000001    3.01999998
   15.71500015   79.35929871    0.61000001    3.01999998
   15.71805477   82.98449707    0.61000001    3.01999998
   15.72138882   76.31790161    0.61000001    3.01999998
   15.72444439   77.96980286    0.58999997    3.01999998
   15.72777748   77.28150177    0.56999999    3.00000000
   15.73083305   85.30359650    0.56999999    3.00000000
   15.73416710   79.92230225    0.56999999    3.00000000
   15.73722267   85.19339752    0.56999999    3.00000000
   15.74055576   77.74310303    0.56999999    3.00000000
   15.74361134   77.80280304    0.56999999    3.01999998
   15.74916649   77.80280304    0.56999999    3.01999998
   15.75305557   79.32740021    0.58999997    3.01999998
   15.75638866   85.27100372    0.58999997    3.00000000
   15.75944424   87.26349640    0.58999997    3.00000000
   15.76277733   87.79509735    0.58999997    3.00000000
   15.76333332   82.16269684    0.58999997    3.00000000
   15.76611137   77.44860077    0.56999999    3.00000000
   15.76944447   81.75119781    0.58999997    3.00000000
   15.77250004   83.53780365    0.55000001    3.01999998
   15.77583313   80.58910370    0.56999999    3.00000000
   15.77888870   79.03669739    0.56999999    3.00000000
   15.78222179   76.38020325    0.55000001    3.00000000
   15.78527832   81.93939972    0.55000001    3.01999998
   15.78861141   76.41739655    0.55000001    3.01999998
   15.79166698   86.35310364    0.55000001    3.00000000
   15.79500008   79.66979980    0.56999999    3.00000000
   15.80027771   79.66979980    0.55000001    3.00000000
   15.80444431   75.42400360    0.55000001    3.01999998
   15.80749989   84.71739960    0.55000001    3.00000000
   15.81083393   87.65010071    0.56999999    3.00000000
   15.81333351   81.03919983    0.56999999    3.01999998
   15.81416702   81.49459839    0.56999999    3.01999998
   15.81750011   77.45159912    0.56999999    3.00000000
   15.82055569   77.22090149    0.56999999    3.01999998
   15.82388878   76.73970032    0.58999997    3.01999998
   15.82694435   78.59719849    0.56999999    3.01999998
   15.83027744   83.95240021    0.58999997    3.00000000
   15.83333302   77.97660065    0.56999999    3.01999998
   15.83666611   75.10169983    0.56999999    3.00000000
   15.83972168   82.28829956    0.56999999    3.00000000
   15.84305477   89.73139954    0.56999999    3.00000000
   15.84611034   77.70459747    0.56999999    3.00000000
   15.85138893   77.70459747    0.55000001    3.00000000
   15.85555553   79.94309998    0.55000001    3.01999998
   15.85861111   81.98069763    0.56999999    3.01999998
   15.86194515   81.46330261    0.58999997    3.01999998
   15.86333370   81.84899902    0.58999997    3.01999998
   15.86527824   85.04660034    0.58999997    3.01999998
   15.86861134   82.93229675    0.56999999    3.00000000
   15.87166691   84.49330139    0.56999999    3.00000000
   15.87500000   85.70410156    0.56999999    3.00000000
   15.87805557   76.98549652    0.56999999    3.01999998
   15.88138866   81.09069824    0.56999999    3.00000000
   15.88444424   82.34549713    0.55000001    3.00000000
   15.88777733   73.09079742    0.55000001    3.01999998
   15.89083290   79.47989655    0.55000001    3.01999998
   15.89416695   84.24359894    0.55000001    3.00000000
   15.89722252   76.78869629    0.55000001    3.01999998
   15.90249920   76.78869629    0.52999997    3.01999998
   15.90666676   82.77880096    0.55000001    3.01999998
   15.90999985   77.81729889    0.55000001    3.00000000
   15.91305542   85.56060028    0.52999997    3.01999998
   15.91361046   83.58139801    0.52999997    3.01999998
   15.91638851   86.25949860    0.52999997    3.01999998
   15.91972256   87.62110138    0.52999997    3.00000000
   15.92277813   82.70420074    0.52999997    3.01999998
   15.92611122   81.69689941    0.51999998    3.01999998
   15.92916679   85.34380341    0.51999998    3.01999998
   15.93249989   85.73269653    0.52999997    3.01999998
   15.93555546   81.52200317    0.58999997    3.01999998
   15.93888855   83.53119659    0.55000001    3.00000000
   15.94194412   78.76249695    0.52999997    3.01999998
   15.94527817   85.86199951    0.52999997    3.01999998
   15.94833374   90.63099670    0.52999997    3.01999998
   15.95388889   90.63099670    0.52999997    3.01999998
   15.95777798   86.05249786    0.52999997    3.00000000
   15.96111107   81.57499695    0.56999999    3.01999998
   15.96361065   78.47229767    0.56999999    3.01999998
   15.96444416   83.51470184    0.56999999    3.01999998
   15.96777725   80.04730225    0.80000001    3.00000000
   15.97083282   82.04479980    0.69000000    3.01999998
   15.97416592   85.95819855    0.63000000    3.00000000
   15.97722149   79.61150360    0.58999997    3.01999998
   15.98055553   81.84130096    0.56999999    3.00000000
   15.98361111   88.31459808    0.56999999    3.00000000
   15.98694515   81.28769684    0.58999997    3.00000000
   15.99000072   79.33740234    0.56999999    3.01999998
   15.99333382   81.93309784    0.56999999    3.01999998
   15.99638939   85.38639832    0.56999999    3.01999998
   15.99972248   79.09249878    0.58999997    3.01999998
   16.00499916   79.09249878    0.52999997    3.01999998
   16.00916672   84.99680328    0.51999998    3.01999998
   16.01222229   87.05860138    0.51999998    3.01999998
   16.01361084   82.29360199    0.51999998    3.00000000
   16.01555634   87.13310242    0.52999997    3.01999998
   16.01888847   86.95670319    0.51999998    3.01999998
   16.02194405   83.08170319    0.52999997    3.01999998
   16.02527809   84.24929810    0.55000001    3.00000000
   16.02833366   81.67489624    0.55000001    3.01999998
   16.03166580   81.88809967    0.55000001    3.01999998
   16.03472137   82.40380096    0.61000001    3.01999998
   16.03805542   79.01129913    0.63000000    3.01999998
   16.04111099   77.47509766    0.69000000    3.00000000
   16.04444313   82.48139954    0.80000001    3.00000000
   16.04749870   78.63009644    0.79000002    3.01999998
   16.05083275   74.98529816    0.86000001    3.00000000
   16.05611038   74.98529816    0.58999997    3.00000000
   16.06027794   83.21089935    0.61000001    3.01999998
   16.06333351   80.78209686    0.69000000    3.01999998
   16.06388855   81.97119904    0.69000000    3.01999998
   16.06722260   81.06439972    0.73000002    3.00000000
   16.07027817   84.22460175    0.73000002    3.01999998
   16.07361221   88.19789886    0.69000000    3.01999998
   16.07666779   84.33380127    0.69000000    3.01999998
   16.08000183   89.85199738    0.58999997    3.01999998
   16.08305550   84.19529724    0.58999997    3.00000000
   16.08638954   82.66249847    0.58999997    3.00000000
   16.08944511   82.06719971    0.56999999    3.00000000
   16.09277916   85.16310120    0.56999999    3.01999998
   16.09583473   93.39520264    0.56999999    3.01999998
   16.09916687   90.69529724    0.56999999    3.01999998
   16.10222244   85.39160156    0.56999999    3.01999998
   16.10722351   85.39160156    0.56999999    3.00000000
   16.11138916   85.85769653    0.55000001    3.00000000
   16.11388969   83.48750305    0.56999999    3.00000000
   16.11499977   86.20089722    0.55000001    3.01999998
   16.11805534   90.04380035    0.55000001    3.00000000
   16.12111092   85.67970276    0.56999999    3.01999998
   16.12444496   84.81970215    0.58999997    3.00000000
   16.12750053   83.99690247    0.58999997    3.00000000
   16.13083267   83.99710083    0.61000001    3.01999998
   16.13388824   82.46440125    0.63000000    3.01999998
   16.13722229   79.53009796    0.63000000    3.01999998
   16.14027786   77.43520355    0.61000001    3.01999998
   16.14361191   81.82440186    0.58999997    3.01999998
   16.14666748   85.25180054    0.56999999    3.01999998
   16.14999962   84.72460175    0.56999999    3.01999998
   16.15305519   81.66159821    0.56999999    3.00000000
   16.15861130   81.66159821    0.56999999    3.01999998
   16.16250038   91.03099823    0.55000001    3.01999998
   16.16388893   90.91130066    0.55000001    3.01999998
   16.16638756   94.16300201    0.55000001    3.00000000
   16.16944313   89.39119720    0.11000000    0.63000000
   16.17277718   88.43759918    0.03000000    0.15000001
   16.17583275   80.62999725    0.03000000    0.15000001
   16.17916679   80.02189636    0.03000000    0.15000001
   16.18222237   85.71730042    0.03000000    0.15000001
   16.18555450   80.59259796    0.03000000    0.15000001
   16.18861008   85.86239624    0.03000000    0.15000001
   16.19194412   81.96389771    0.03000000    0.15000001
   16.19499969   87.17900085    0.03000000    0.15000001
   16.19833183   82.30439758    0.03000000    0.15000001
   16.20138931   81.55860138    0.03000000    0.15000001
   16.20472336   81.76959991    0.03000000    0.15000001
   16.20972252   81.76959991    0.03000000    0.15000001
   16.21389008   82.20870209    0.03000000    0.15000001
   16.21416664   81.58679962    0.03000000    0.15000001
   16.21750069   82.08699799    0.03000000    0.15000001
   16.22055626   85.21600342    0.03000000    0.15000001
   16.22389030   85.13130188    0.03000000    0.15000001
   16.22694588   88.77870178    0.03000000    0.15000001
   16.23027802   84.90260315    0.03000000    0.15000001
   16.23333359   87.87249756    0.03000000    0.15000001
   16.23666763   87.58979797    0.03000000    0.15000001
   16.23972321  101.06400299    0.03000000    0.15000001
   16.24305534   92.22039795    0.03000000    0.15000001
   16.24611092   94.69580078    0.03000000    0.15000001
   16.24944496   81.63950348    0.03000000    0.15000001
   16.25250053   83.39689636    0.03000000    0.15000001
   16.25583267   80.93119812    0.03000000    0.15000001
   16.26083374   80.93119812    0.03000000    0.15000001
   16.26499939   82.77510071    0.03000000    0.15000001
   16.26805496   91.19989777    0.03000000    0.15000001
   16.27138901   74.87580109    0.03000000    0.15000001
   16.27444458   86.49649811    0.03000000    0.15000001
   16.27777672   86.98549652    0.03000000    0.15000001
   16.28083229   82.52010345    0.03000000    0.15000001
   16.28416634   84.73960114    0.03000000    0.15000001
   16.28722191   81.07109833    0.03000000    0.15000001
   16.29055595   79.13150024    0.03000000    0.15000001
   16.29361153   83.07669830    0.03000000    0.15000001
   16.29694366   80.38680267    0.03000000    0.15000001
   16.29999924   77.88849640    0.03000000    0.15000001
   16.30333328   83.12840271    0.03000000    0.15000001
   16.30638885   84.25180054    0.03000000    0.15000001
   16.31194305   84.25180054    0.03000000    0.15000001
   16.31611061   82.35009766    0.03000000    0.15000001
   16.31944466   82.12570190    0.03000000    0.15000001
   16.32250023   83.39369965    0.03000000    0.15000001
   16.32583427   77.90550232    0.03000000    0.15000001
   16.32888985   80.90930176    0.03000000    0.15000001
   16.33222389   76.79759979    0.03000000    0.15000001
   16.33527756   81.44439697    0.03000000    0.15000001
   16.33861160   77.91970062    0.03000000    0.15000001
   16.34166718   79.81600189    0.03000000    0.15000001
   16.34500122   79.69589996    0.03000000    0.15000001
   16.34805679   88.32800293    0.03000000    0.15000001
   16.35138893   81.94270325    0.03000000    0.15000001
   16.35444450   83.73629761    0.03000000    0.15000001
   16.35777855   83.29129791    0.03000000    0.15000001
   16.37944412   83.99970245    0.03000000    0.15000001
   16.37972260   81.28900146    0.03000000    0.15000001
   16.38305473   95.75689697    0.03000000    0.15000001
   16.38611031   85.46219635    0.03000000    0.15000001
   16.38944435   94.56610107    0.03000000    0.15000001
   16.39249992   86.25900269    0.03000000    0.15000001
   16.39583397   86.48940277    0.03000000    0.15000001
   16.39888954   80.91079712    0.03000000    0.15000001
   16.40222168   85.98989868    0.03000000    0.15000001
   16.40527725   82.54509735    0.03000000    0.15000001
   16.40861130   85.35520172    0.03000000    0.15000001
   16.41444397   85.35520172    0.03000000    0.15000001
   16.41860962   80.88999939    0.03000000    0.15000001
   16.42166519   82.55670166    0.03000000    0.15000001
   16.42499924   86.66300201    0.03000000    0.15000001
   16.42805481   83.00679779    0.03000000    0.15000001
   16.42916679   89.81410217    0.03000000    0.15000001
   16.43166542   86.29940033    0.03000000    0.15000001
   16.43499947   79.96279907    0.03000000    0.15000001
   16.43805504   87.32230377    0.03000000    0.15000001
   16.44138718   80.23110199    0.03000000    0.15000001
   16.44444275   82.55619812    0.03000000    0.15000001
   16.44777679   80.61489868    0.03000000    0.15000001
   16.45083427   79.23609924    0.03000000    0.15000001
   16.45416832   79.66780090    0.03000000    0.15000001
   16.45722389   81.10710144    0.03000000    0.15000001
   16.46055603   81.22550201    0.03000000    0.15000001
   16.46555710   81.22550201    0.03000000    0.15000001
   16.46972275   86.40830231    0.03000000    0.15000001
   16.47305679   82.51390076    0.03000000    0.15000001
   16.47611237   80.97550201    0.03000000    0.15000001
   16.47916794   85.29900360    0.03000000    0.15000001
   16.47944450   79.93019867    0.03000000    0.15000001
   16.48277855   76.97869873    0.03000000    0.15000001
   16.48583412   83.47619629    0.03000000    0.15000001
   16.48916626   83.68959808    0.03000000    0.15000001
   16.49222183   82.13189697    0.03000000    0.15000001
   16.49555588   87.07389832    0.03000000    0.15000001
   16.49861145   85.16729736    0.03000000    0.15000001
   16.50194359   81.61319733    0.03000000    0.15000001
   16.50499916   82.75700378    0.03000000    0.15000001
   16.50833321   81.85659790    0.03000000    0.15000001
   16.51138878   90.67379761    0.03000000    0.15000001
   16.51694489   90.67379761    0.03000000    0.15000001
   16.52083397   77.70390320    0.03000000    0.15000001
   16.52416611   82.59269714    0.03000000    0.15000001
   16.52722168   80.09559631    0.03000000    0.15000001
   16.52916718   86.93720245    0.03000000    0.15000001
   16.53111076   81.26090240    0.03000000    0.15000001
   16.53416634   84.72930145    0.03000000    0.15000001
   16.53750038   87.26730347    0.03000000    0.15000001
   16.54055595   93.77369690    0.03000000    0.15000001
   16.54388809   82.36910248    0.03000000    0.15000001
   16.54694366   85.39389801    0.03000000    0.15000001
   16.55027771   83.76129913    0.03000000    0.15000001
   16.55333328   84.93039703    0.03000000    0.15000001
   16.55666542   88.72399902    0.03000000    0.15000001
   16.55972099   85.71749878    0.03000000    0.15000001
   16.56305504   86.83280182    0.03000000    0.15000001
   16.56805611   86.83280182    0.03000000    0.15000001
   16.57222366   79.65370178    0.03000000    0.15000001
   16.57527924   85.75440216    0.03000000    0.15000001
   16.57861137   86.81639862    0.03000000    0.15000001
   16.57916832   82.47090149    0.03000000    0.15000001
   16.58222389   79.06289673    0.03000000    0.15000001
   16.58527756   86.58080292    0.03000000    0.15000001
   16.58861160   87.53440094    0.03000000    0.15000001
   16.59166718   86.38629913    0.03000000    0.15000001
   16.59500122   83.57700348    0.03000000    0.15000001
   16.59805679   79.03479767    0.03000000    0.15000001
   16.60138893   87.05249786    0.03000000    0.15000001
   16.60444450   79.78810120    0.03000000    0.15000001
   16.60777855   83.84829712    0.03000000    0.15000001
   16.61083412   83.98739624    0.03000000    0.15000001
   16.61416626   82.70410156    0.03000000    0.15000001
   16.61916733   82.70410156    0.03000000    0.15000001
   16.62333298   88.03549957    0.03000000    0.15000001
   16.62638855   77.90740204    0.03000000    0.15000001
   16.62916756   86.57990265    0.03000000    0.15000001
   16.63027763   78.16179657    0.03000000    0.15000001
   16.63333321   85.26059723    0.03000000    0.15000001
   16.63666725   88.19580078    0.03000000    0.15000001
   16.63972282   86.77400208    0.03000000    0.15000001
   16.64305496   78.13400269    0.03000000    0.15000001
   16.64611053   86.99870300    0.03000000    0.15000001
   16.64944458   86.67710114    0.03000000    0.15000001
   16.65250015   84.32620239    0.03000000    0.15000001
   16.65583229   82.31469727    0.03000000    0.15000001
   16.65888786   87.28959656    0.03000000    0.15000001
   16.66222191   77.63289642    0.03000000    0.15000001
   16.66527748   81.42880249    0.03000000    0.15000001
   16.67027664   81.42880249    0.03000000    0.15000001
   16.67444420   84.37650299    0.03000000    0.15000001
   16.67777634   87.98229980    0.03000000    0.15000001
   16.67916679   81.35769653    0.03000000    0.15000001
   16.68138885   82.40830231    0.03000000    0.15000001
   16.68444443   88.63310242    0.03000000    0.15000001
   16.68777657   84.01770020    0.03000000    0.15000001
   16.69083214   88.03299713    0.03000000    0.15000001
   16.69416618   85.22019958    0.03000000    0.15000001
   16.69722176   80.23320007    0.03000000    0.15000001
   16.70055580   85.91239929    0.03000000    0.15000001
   16.70361137   85.32250214    0.03000000    0.15000001
   16.70694542   86.97499847    0.03000000    0.15000001
   16.71000099   84.33969879    0.03000000    0.15000001
   16.71333504   82.90010071    0.03000000    0.15000001
   16.71638870   79.15360260    0.03000000    0.15000001
   16.72166634   79.15360260    0.03000000    0.15000001
   16.72555542   80.84120178    0.03000000    0.15000001
   16.72888947   90.78459930    0.03000000    0.15000001
   16.72944450   87.66760254    0.03000000    0.15000001
   16.73222351   86.54820251    0.03000000    0.15000001
   16.73555565   86.39550018    0.03000000    0.15000001
   16.73861122   89.16320038    0.03000000    0.15000001
   16.74194527   84.66960144    0.03000000    0.15000001
   16.74500084   93.85140228    0.03000000    0.15000001
   16.74833298   85.72109985    0.03000000    0.15000001
   16.75138855   93.14379883    0.03000000    0.15000001
   16.75472260   80.20279694    0.03000000    0.15000001
   16.75777817   83.49939728    0.03000000    0.15000001
   16.76111031   89.09940338    0.03000000    0.15000001
   16.76416588   98.86519623    0.03000000    0.15000001
   16.76749992   94.65100098    0.03000000    0.15000001
   16.77277756   94.65100098    0.03000000    0.15000001
   16.77694511   80.87629700    0.03000000    0.15000001
   16.77944374   83.76560211    0.03000000    0.15000001
   16.78027725   80.75890350    0.03000000    0.15000001
   16.78333282   85.79309845    0.03000000    0.15000001
   16.78666687   86.57469940    0.03000000    0.15000001
   16.78972244   81.85169983    0.03000000    0.15000001
   16.79305458   84.20300293    0.03000000    0.15000001
   16.79611015   83.29609680    0.03000000    0.15000001
   16.79944420   84.28029633    0.03000000    0.15000001
   16.80249977   79.16809845    0.03000000    0.15000001
   16.80583191   81.17479706    0.03000000    0.15000001
   16.80888748   87.71369934    0.03000000    0.15000001
   16.81222153   92.35720062    0.03000000    0.15000001
   16.81527710   83.04260254    0.03000000    0.15000001
   16.81861115   93.34210205    0.03000000    0.15000001
   16.82389069   93.34210205    0.03000000    0.15000001
   16.82805634   80.98639679    0.03000000    0.15000001
   16.82944489   85.74720001    0.03000000    0.15000001
   16.83139038   84.49250031    0.03000000    0.15000001
   16.83472252   86.70960236    0.03000000    0.15000001
   16.83777809   82.28050232    0.03000000    0.15000001
   16.84111214   90.01180267    0.03000000    0.15000001
   16.84416771   84.01689911    0.03000000    0.15000001
   16.84749985   86.49340057    0.03000000    0.15000001
   16.85055542   81.32839966    0.03000000    0.15000001
   16.85388947   79.74659729    0.03000000    0.15000001
   16.85694504   74.80329895    0.03000000    0.15000001
   16.86027908   81.40059662    0.03000000    0.15000001
   16.86333466   85.76619720    0.03000000    0.15000001
   16.86666679   83.68109894    0.03000000    0.15000001
   16.86972237   84.10610199    0.03000000    0.15000001
   16.87500000   84.10610199    0.03000000    0.15000001
   16.87916756   83.12599945    0.03000000    0.15000001
   16.87972260   79.24960327    0.03000000    0.15000001
   16.88277817   77.27549744    0.03000000    0.15000001
   16.88611031   84.49060059    0.03000000    0.15000001
   16.88916588   84.52189636    0.03000000    0.15000001
   16.89249992   89.76020050    0.03000000    0.15000001
   16.89555550   86.23149872    0.03000000    0.15000001
   16.89888954   83.00859833    0.03000000    0.15000001
   16.90194321   82.75859833    0.03000000    0.15000001
   16.90527725   85.45390320    0.03000000    0.15000001
   16.90833282   80.92970276    0.03000000    0.15000001
   16.91166687   83.96839905    0.03000000    0.15000001
   16.91472244   79.88480377    0.03000000    0.15000001
   16.91805458   81.17880249    0.03000000    0.15000001
   16.92111015   85.98490143    0.03000000    0.15000001
   16.92638779   85.98490143    0.03000000    0.15000001
   16.93055534   85.47720337    0.03000000    0.15000001
   16.93361092   85.44830322    0.03000000    0.15000001
   16.93694305   83.38420105    0.03000000    0.15000001
   16.93999863   83.34179688    0.03000000    0.15000001
   16.94333267   78.92469788    0.03000000    0.15000001
   16.94638824   82.54930115    0.03000000    0.15000001
   16.94972038   86.15110016    0.03000000    0.15000001
   16.95277786   84.52030182    0.03000000    0.15000001
   16.95611191   84.35320282    0.03000000    0.15000001
   16.95916748   91.66310120    0.03000000    0.15000001
   16.96250153   87.72360229    0.03000000    0.15000001
   16.96555710   81.81529999    0.03000000    0.15000001
   16.96888924   86.55799866    0.03000000    0.15000001
   16.97194481   81.99739838    0.03000000    0.15000001
   16.97750092   81.99739838    0.03000000    0.15000001
   16.98166656   86.39350128    0.03000000    0.15000001
   16.98472214   75.19670105    0.03000000    0.15000001
   16.98805618   82.51640320    0.03000000    0.15000001
   16.99111176   82.16069794    0.03000000    0.15000001
   16.99444389   78.90509796    0.03000000    0.15000001
   16.99749947   84.96389771    0.03000000    0.15000001
   17.00083351   85.95320129    0.03000000    0.15000001
   17.00388908   80.54270172    0.03000000    0.15000001
   17.00722313   82.51010132    0.03000000    0.15000001
   17.01027870   80.26760101    0.03000000    0.15000001
   17.01361084   81.20210266    0.03000000    0.15000001
   17.01666641   82.15979767    0.03000000    0.15000001
   17.02000046   83.79010010    0.03000000    0.15000001
   17.02305603   83.82530212    0.03000000    0.15000001
   17.02861023   83.82530212    0.03000000    0.15000001
   17.03277779   79.76190186    0.03000000    0.15000001
   17.03610992   76.65049744    0.03000000    0.15000001
   17.03916550   82.95729828    0.03000000    0.15000001
   17.04249954   79.94950104    0.03000000    0.15000001
   17.04555511   82.05190277    0.03000000    0.15000001
   17.04888916   90.12239838    0.03000000    0.15000001
   17.05194283   80.88040161    0.03000000    0.15000001
   17.05527687   78.98940277    0.03000000    0.15000001
   17.05833244   83.11830139    0.03000000    0.15000001
   17.06166649   79.60469818    0.03000000    0.15000001
   17.06472206   81.08390045    0.03000000    0.15000001
   17.06805611   75.62870026    0.03000000    0.15000001
   17.07111168   82.58010101    0.03000000    0.15000001
   17.07444572   80.48999786    0.03000000    0.15000001
   17.08000183   80.48999786    0.03000000    0.15000001
   17.08388901   76.92870331    0.03000000    0.15000001
   17.08722305   79.24949646    0.03000000    0.15000001
   17.09027863   78.30970001    0.03000000    0.15000001
   17.09361267   80.36959839    0.03000000    0.15000001
   17.09666824   80.45510101    0.03000000    0.15000001
   17.10000038   77.44159698    0.03000000    0.15000001
   17.10305595   77.13240051    0.03000000    0.15000001
   17.10639000   81.91280365    0.03000000    0.15000001
   17.10944557   80.46739960    0.03000000    0.15000001
   17.11277771   82.98970032    0.03000000    0.15000001
   17.11583328   79.90160370    0.03000000    0.15000001
   17.11916733   80.86270142    0.03000000    0.15000001
   17.12222290   79.58719635    0.03000000    0.15000001
   17.12555504   78.33409882    0.03000000    0.15000001
   17.13111115   78.33409882    0.03000000    0.15000001
   17.13527679   83.44930267    0.03000000    0.15000001
   17.13833237   82.77179718    0.03000000    0.15000001
   17.14166641   80.50959778    0.03000000    0.15000001
   17.14472198   82.73930359    0.03000000    0.15000001
   17.14805603   78.16449738    0.03000000    0.15000001
   17.15111160   80.38059998    0.03000000    0.15000001
   17.15444374   85.82450104    0.03000000    0.15000001
   17.15749931   79.60679626    0.03000000    0.15000001
   17.16083336   81.86340332    0.03000000    0.15000001
   17.16388893   83.68689728    0.03000000    0.15000001
   17.16722107   71.92030334    0.03000000    0.15000001
   17.17027664   83.38059998    0.03000000    0.15000001
   17.17361069   83.40380096    0.03000000    0.15000001
   17.17666626   87.60299683    0.03000000    0.15000001
   17.18222237   87.60299683    0.03000000    0.15000001
   17.18638802   87.54470062    0.03000000    0.15000001
   17.18944359   87.53980255    0.03000000    0.15000001
   17.19277763   91.15219879    0.03000000    0.15000001
   17.19583321   82.84310150    0.03000000    0.15000001
   17.19916534   79.32579803    0.03000000    0.15000001
   17.20222282   82.80190277    0.03000000    0.15000001
   17.20555687   83.43139648    0.03000000    0.15000001
   17.20861244   82.16190338    0.03000000    0.15000001
   17.21194458   87.47820282    0.03000000    0.15000001
   17.21500015   81.99590302    0.03000000    0.15000001
   17.21833420   83.65249634    0.03000000    0.15000001
   17.22138977   89.67649841    0.03000000    0.15000001
   17.22472191   -1.00000000    0.03000000    0.15000001
   17.22777748   -1.00000000    0.03000000    0.15000001
