    HOUR (UT)   FLARE FACTOR    SKY TESTER    SUN TESTER
   11.42944431   -1.00000000   -1.00000000   -1.00000000
   11.44999981   81.77760315    1.55999994    2.53999996
   11.45472240   82.08000183    1.55999994    2.53999996
   11.45861053   85.19210052    1.58000004    2.53999996
   11.46194458   81.44719696    1.55999994    2.55999994
   11.46500015   81.12249756    1.55999994    2.55999994
   11.46833324   81.78230286    1.58000004    2.55999994
   11.47138882   79.55999756    1.55999994    2.55999994
   11.47472191   75.63680267    1.55999994    2.55999994
   11.47777748   82.92299652    1.55999994    2.55999994
   11.48111057   82.96320343    1.53999996    2.55999994
   11.48333359   86.70870209    1.53999996    2.55999994
   11.48472214   83.37950134    1.53999996    2.55999994
   11.48777771   86.73200226    1.51999998    2.55999994
   11.49111176   83.85859680    1.51999998    2.55999994
   11.49444485   85.86049652    1.51999998    2.55999994
   11.49750042   82.76270294    1.51999998    2.55999994
   11.50055599   81.69560242    1.51999998    2.55999994
   11.50388908   86.98529816    1.51999998    2.55999994
   11.50694466   87.14279938    1.51999998    2.57999992
   11.51027775   89.62979889    1.51999998    2.57999992
   11.51333332   87.61070251    1.50000000    2.57999992
   11.51666641   94.52490234    1.50000000    2.57999992
   11.51972198   84.64250183    1.50000000    2.57999992
   11.52305508   81.86990356    1.50000000    2.55999994
   11.52611065   78.64150238    1.50000000    2.55999994
   11.52944374   80.47200012    1.48000002    2.57999992
   11.53277779   85.22830200    1.46000004    2.57999992
   11.53333378   78.80699921    1.46000004    2.57999992
   11.53611183   81.02919769    1.44000006    2.57999992
   11.53944492   81.03959656    1.44000006    2.59999990
   11.54250050   83.02050018    1.44000006    2.59999990
   11.54583359   85.39510345    1.41999996    2.59999990
   11.54888916   88.47350311    1.41999996    2.57999992
   11.55222225   80.37830353    1.41999996    2.59999990
   11.55527782   83.12609863    1.41999996    2.59999990
   11.55861092   90.12909698    1.39999998    2.59999990
   11.56166649   82.82589722    1.38000000    2.59999990
   11.56500053   80.47029877    1.38000000    2.59999990
   11.56805515   91.81449890    1.38000000    2.59999990
   11.57138920   79.15889740    1.36000001    2.57999992
   11.57444477   80.85140228    1.36000001    2.59999990
   11.57777786   82.76799774    1.34000003    2.57999992
   11.58083344   87.32299805    1.34000003    2.59999990
   11.58333302   92.31739807    1.34000003    2.59999990
   11.58444405   86.98970032    1.34000003    2.59999990
   11.58777714   81.63990021    1.34000003    2.59999990
   11.59083271   90.41609955    1.34000003    2.64000010
   11.59416676   80.32620239    1.34000003    2.64000010
   11.59722233   80.60610199    1.33000004    2.59999990
   11.60055637   83.45800018    1.33000004    2.59999990
   11.60361195   82.66410065    1.33000004    2.59999990
   11.60694504   77.58280182    1.30999994    2.61999989
   11.61000061   87.57830048    1.30999994    2.61999989
   11.61333370   88.22650146    1.30999994    2.61999989
   11.61638927   83.28230286    1.28999996    2.61999989
   11.61972237   82.02950287    1.30999994    2.61999989
   11.62277794   84.44869995    1.28999996    2.64000010
   11.62611103   85.52189636    1.30999994    2.61999989
   11.62916660   84.10749817    1.28999996    2.61999989
   11.63249969   79.23940277    1.28999996    2.61999989
   11.63333321   80.34549713    1.28999996    2.61999989
   11.63583279   81.86789703    1.30999994    2.64000010
   11.63916683   80.35600281    1.30999994    2.61999989
   11.64222240   81.05100250    1.28999996    2.64000010
   11.64555550   84.66369629    1.28999996    2.61999989
   11.64861107   84.74620056    1.28999996    2.61999989
   11.65194416   89.15859985    1.28999996    2.61999989
   11.65499973   85.55180359    1.28999996    2.61999989
   11.65833282   87.94889832    1.30999994    2.64000010
   11.66138840   83.67209625    1.28999996    2.64000010
   11.66472149   82.16220093    1.28999996    2.59999990
   11.66777802   84.58419800    1.26999998    2.61999989
   11.67111111   85.72350311    1.26999998    2.61999989
   11.67416668   84.36370087    1.26999998    2.61999989
   11.67750072   84.29350281    1.26999998    2.61999989
   11.68055630   82.25869751    1.26999998    2.61999989
   11.68333340   82.04470062    1.26999998    2.61999989
   11.68416691   82.01760101    1.26999998    2.61999989
   11.68750000   81.65599823    1.26999998    2.64000010
   11.69055557   86.03520203    1.25000000    2.61999989
   11.69388866   83.93029785    1.23000002    2.64000010
   11.69694424   85.47730255    1.23000002    2.64000010
   11.70027733   81.63430023    1.23000002    2.64000010
   11.70333290   82.23660278    1.23000002    2.64000010
   11.70666695   79.67489624    1.23000002    2.64000010
   11.70972157   82.06790161    1.23000002    2.61999989
   11.71305561   83.23359680    1.23000002    2.64000010
   11.71611118   83.65100098    1.23000002    2.64000010
   11.71944427   87.22820282    1.23000002    2.64000010
   11.72249985   83.13729858    1.23000002    2.64000010
   11.72583294   85.81590271    1.23000002    2.64000010
   11.72888851   86.15869904    1.23000002    2.64000010
   11.73222160   76.34230042    1.23000002    2.61999989
   11.73333359   78.53289795    1.23000002    2.64000010
   11.73555565   81.39550018    1.23000002    2.64000010
   11.73888874   78.46289825    1.23000002    2.66000009
   11.74194431   86.17299652    1.25000000    2.64000010
   11.74527836   90.30030060    1.25000000    2.64000010
   11.74833393   81.05930328    1.25000000    2.64000010
   11.75166702   85.77549744    1.25000000    2.64000010
   11.75472260   86.38559723    1.25000000    2.64000010
   11.75805569   88.33020020    1.25000000    2.64000010
   11.76111126   77.56909943    1.25000000    2.64000010
   11.76444435   86.46970367    1.25000000    2.66000009
   11.76749992   91.39990234    1.26999998    2.64000010
   11.77083302   84.48829651    1.25000000    2.64000010
   11.77388859   81.90660095    1.23000002    2.66000009
   11.77722168   81.73899841    1.23000002    2.66000009
   11.78027725   81.90959930    1.21000004    2.64000010
   11.78333378   84.77890015    1.21000004    2.66000009
   11.78388977   80.63590240    1.21000004    2.66000009
   11.78722286   84.52079773    1.21000004    2.66000009
   11.79027843   82.41819763    1.21000004    2.66000009
   11.79333401   85.41979980    1.21000004    2.66000009
   11.79666710   82.26260376    1.21000004    2.66000009
   11.79972267   84.39980316    1.21000004    2.66000009
   11.80305576   86.81510162    1.21000004    2.66000009
   11.80611134   88.61750031    1.21000004    2.66000009
   11.80944443   83.12380219    1.21000004    2.66000009
   11.81250000   80.33850098    1.21000004    2.66000009
   11.81583309   82.87249756    1.21000004    2.66000009
   11.81888866   86.08560181    1.21000004    2.66000009
   11.82222176   76.10610199    1.21000004    2.66000009
   11.82527733   81.91249847    1.19000006    2.64000010
   11.82861137   78.54260254    1.19000006    2.66000009
   11.83166695   85.76760101    1.21000004    2.66000009
   11.83333302   88.08499908    1.21000004    2.66000009
   11.83527756   81.36720276    1.19000006    2.67000008
   11.83861065   84.17669678    1.19000006    2.67000008
   11.84166622   90.69750214    1.19000006    2.67000008
   11.84499931   86.28170013    1.19000006    2.66000009
   11.84805489   82.07129669    1.19000006    2.67000008
   11.85138893   83.99289703    1.19000006    2.66000009
   11.85444450   80.61180115    1.19000006    2.66000009
   11.85777855   82.86699677    1.19000006    2.66000009
   11.86083412   81.00279999    1.16999996    2.67000008
   11.86416721   84.91089630    1.16999996    2.66000009
   11.86722279   83.50730133    1.16999996    2.67000008
   11.87055588   85.21810150    1.16999996    2.66000009
   11.87361145   82.37149811    1.14999998    2.67000008
   11.87694454   83.63169861    1.14999998    2.67000008
   11.88000011   88.61260223    1.13000000    2.67000008
   11.88333321   81.29609680    1.14999998    2.69000006
   11.88361073   76.30259705    1.14999998    2.69000006
   11.88694477   84.75260162    1.13000000    2.67000008
   11.89000034   84.38939667    1.13000000    2.67000008
   11.89333344   82.61640167    1.13000000    2.67000008
   11.89638901   83.52269745    1.13000000    2.67000008
   11.89972210   83.76930237    1.11000001    2.69000006
   11.90277767   83.48110199    1.11000001    2.67000008
   11.90611076   81.41639709    1.11000001    2.67000008
   11.90916634   85.94380188    1.11000001    2.67000008
   11.91249943   83.34809875    1.09000003    2.67000008
   11.91555500   83.17030334    1.09000003    2.67000008
   11.91861153   85.50150299    1.09000003    2.69000006
   11.92194462   88.57569885    1.09000003    2.69000006
   11.92500019   87.28730011    1.07000005    2.69000006
   11.92833328   84.61840057    1.07000005    2.67000008
   11.93138885   84.22720337    1.07000005    2.67000008
   11.93333340   86.96559906    1.07000005    2.67000008
   11.93472195   91.37180328    1.07000005    2.69000006
   11.93805599   83.11350250    1.07000005    2.67000008
   11.94111156   81.66000366    1.07000005    2.69000006
   11.94444466   86.33869934    1.05999994    2.67000008
   11.94750023   88.99440002    1.05999994    2.67000008
   11.95083332   82.91940308    1.05999994    2.69000006
   11.95388889   85.09539795    1.03999996    2.69000006
   11.95722198   84.77169800    1.03999996    2.69000006
   11.96027756   80.80940247    1.03999996    2.69000006
   11.96333313   79.80220032    1.03999996    2.69000006
   11.96666622   82.47470093    1.03999996    2.69000006
   11.96972179   82.23010254    1.03999996    2.71000004
   11.97305489   83.24140167    1.03999996    2.71000004
   11.97611046   79.65879822    1.03999996    2.71000004
   11.97916603   82.12079620    1.03999996    2.71000004
   11.98249912   86.00330353    1.03999996    2.69000006
   11.98333359   79.26329803    1.03999996    2.69000006
   11.98583317   84.41670227    1.03999996    2.69000006
   11.98916721   85.02169800    1.01999998    2.71000004
   11.99250031   85.97010040    1.01999998    2.71000004
   11.99555588   84.10849762    1.01999998    2.69000006
   11.99888897   78.92510223    1.01999998    2.71000004
   12.00194454   85.89289856    1.01999998    2.69000006
   12.00527763   85.16709900    1.00000000    2.69000006
   12.00833321   79.95999908    1.00000000    2.71000004
   12.01166630   83.80159760    1.00000000    2.71000004
   12.01472187   82.89700317    1.00000000    2.71000004
   12.01777744   89.76770020    1.00000000    2.69000006
   12.02111053   82.22070313    1.00000000    2.71000004
   12.02416611   85.35739899    1.00000000    2.71000004
   12.02833271   83.69090271    1.00000000    2.69000006
   12.03138828   87.34519958    1.00000000    2.71000004
   12.03333378   86.68650055    0.98000002    2.71000004
   12.03500080   83.66049957    0.98000002    2.71000004
   12.03833389   84.54260254    0.98000002    2.71000004
   12.04138947   82.94000244    1.00000000    2.73000002
   12.04472256   80.49079895    1.00000000    2.71000004
   12.04777813   87.61029816    0.98000002    2.71000004
   12.05111122   83.08339691    0.98000002    2.71000004
   12.05416679   77.91459656    1.00000000    2.71000004
   12.05722237   84.45549774    0.98000002    2.73000002
   12.06055546   82.43450165    0.98000002    2.71000004
   12.06361103   86.87100220    0.98000002    2.73000002
   12.06694412   80.18180084    1.00000000    2.71000004
   12.06999969   78.65329742    0.98000002    2.71000004
   12.07333374   81.91580200    0.98000002    2.71000004
   12.07638836   82.45300293    1.00000000    2.71000004
   12.07972240   81.89620209    1.00000000    2.73000002
   12.08277798   83.86329651    0.98000002    2.71000004
   12.08333302   85.90350342    0.98000002    2.71000004
   12.08611107   87.10179901    0.98000002    2.71000004
   12.08944416   77.48130035    0.98000002    2.73000002
   12.09249973   82.43560028    1.00000000    2.71000004
   12.09583282   85.63269806    0.98000002    2.71000004
   12.09888840   84.51820374    0.98000002    2.73000002
   12.10222244   83.29830170    0.98000002    2.73000002
   12.10527802   86.43579865    0.98000002    2.73000002
   12.10861111   86.67929840    0.98000002    2.71000004
   12.11166668   82.97810364    0.98000002    2.73000002
   12.11472225   83.03820038    1.00000000    2.75000000
   12.11805534   81.03399658    1.00000000    2.71000004
   12.12138939   78.89040375    0.98000002    2.73000002
   12.12444496   90.66739655    0.98000002    2.71000004
   12.12777805   86.14320374    0.98000002    2.73000002
   12.13083363   83.19339752    0.98000002    2.73000002
   12.13333321   86.50779724    0.95999998    2.73000002
   12.13416672   81.44309998    0.95999998    2.73000002
   12.13749981   83.89440155    0.98000002    2.73000002
   12.14055538   81.91459656    0.98000002    2.73000002
   12.14388847   82.56130219    0.98000002    2.73000002
   12.14694405   86.46749878    0.98000002    2.73000002
   12.15027714   83.59329987    0.98000002    2.73000002
   12.15333271   84.13590240    0.95999998    2.73000002
   12.15666676   80.27839661    0.95999998    2.73000002
   12.15972137   88.03440094    0.95999998    2.73000002
   12.16305542   81.58080292    0.95999998    2.73000002
   12.16611099   80.96589661    0.94000000    2.73000002
   12.16916656   82.58219910    0.94000000    2.73000002
   12.17250061   82.30139923    0.95999998    2.73000002
   12.17555618   80.03690338    0.94000000    2.71000004
   12.17888927   81.07360077    0.95999998    2.73000002
   12.18194485   80.81800079    0.95999998    2.73000002
   12.18333340   86.99169922    0.95999998    2.73000002
   12.18555546   80.41390228    0.95999998    2.73000002
   12.18861103   83.93209839    0.98000002    2.75000000
   12.19166660   84.18550110    0.98000002    2.75000000
   12.19499969   84.22139740    0.95999998    2.75000000
   12.19805527   83.00160217    0.95999998    2.73000002
   12.20138836   80.83059692    0.95999998    2.73000002
   12.20444393   78.16000366    0.98000002    2.75000000
   12.20777798   87.62870026    0.95999998    2.75000000
   12.21083355   80.19419861    0.95999998    2.75000000
   12.21416664   83.52600098    0.94000000    2.73000002
   12.21722221   81.01920319    0.94000000    2.73000002
   12.22055531   79.65070343    0.94000000    2.73000002
   12.22361088   85.75279999    0.92000002    2.75000000
   12.22694397   82.16539764    0.92000002    2.73000002
   12.22999954   81.49849701    0.92000002    2.75000000
   12.23333359   85.52749634    0.92000002    2.75000000
   12.23388958   85.47160339    0.94000000    2.75000000
   12.23694515   88.75949860    0.92000002    2.73000002
   12.24027824   89.81980133    0.92000002    2.75000000
   12.24333382   84.46230316    0.92000002    2.75000000
   12.24666691   81.06800079    0.92000002    2.75000000
   12.24972248   79.71279907    0.92000002    2.75000000
   12.25305557   88.21430206    0.92000002    2.75000000
   12.25611115   79.52339935    0.92000002    2.75000000
   12.25944424   77.79290009    0.94000000    2.75000000
   12.26249981   85.78040314    0.94000000    2.75000000
   12.26583290   76.72339630    0.94000000    2.75000000
   12.26888847   80.64559937    0.94000000    2.75000000
   12.27222157   85.40380096    0.95999998    2.75000000
   12.27527714   84.39089966    0.95999998    2.75000000
   12.27861118   79.01940155    0.95999998    2.76999998
   12.28166676   82.12280273    0.95999998    2.75000000
   12.28333378   80.60079956    0.95999998    2.75000000
   12.28527832   84.47489929    0.95999998    2.75000000
   12.28833389   79.02010345    0.95999998    2.76999998
   12.29166698   82.06980133    0.94000000    2.75000000
   12.29472256   88.49649811    0.94000000    2.75000000
   12.29805565   86.15589905    0.94000000    2.75000000
   12.30111122   84.57920074    0.94000000    2.75000000
   12.30444431   89.42569733    0.94000000    2.75000000
   12.30749989   81.76000214    0.94000000    2.75000000
   12.31083393   84.04550171    0.92000002    2.75000000
   12.31388950   87.23090363    0.92000002    2.75000000
   12.31722260   83.32849884    0.92000002    2.75000000
   12.32027817   82.07209778    0.92000002    2.76999998
   12.32361126   79.50289917    0.92000002    2.75000000
   12.32666683   81.41290283    0.89999998    2.75000000
   12.32999992   81.93370056    0.89999998    2.75000000
   12.33305550   80.35690308    0.89999998    2.76999998
   12.33361053   81.55519867    0.89999998    2.75000000
   12.33666611   80.95189667    0.89999998    2.76999998
   12.34000015   87.97119904    0.89999998    2.75000000
   12.34305477   87.55889893    0.89999998    2.76999998
   12.34638882   86.37650299    0.89999998    2.75000000
   12.34944439   80.59310150    0.89999998    2.76999998
   12.35277843   89.28520203    0.89999998    2.76999998
   12.35583401   82.17440033    0.89999998    2.76999998
   12.35916710   89.92289734    0.89999998    2.76999998
   12.36222267   80.78679657    0.89999998    2.76999998
   12.36555576   82.63430023    0.89999998    2.75000000
   12.36861134   80.79740143    0.89999998    2.75000000
   12.37194443   79.69210052    0.89999998    2.76999998
   12.37500000   79.79080200    0.89999998    2.75000000
   12.37833309   84.38809967    0.88000000    2.76999998
   12.38138866   81.85649872    0.89999998    2.78999996
   12.38361073   81.87180328    0.89999998    2.78999996
   12.38500023   81.08460236    0.89999998    2.78999996
   12.38833332   81.67220306    0.89999998    2.76999998
   12.39138889   79.80120087    0.88000000    2.76999998
   12.39472198   80.71939850    0.88000000    2.76999998
   12.39777756   82.39240265    0.88000000    2.76999998
   12.40111065   86.44940186    0.86000001    2.75000000
   12.40416622   82.74250031    0.86000001    2.75000000
   12.40749931   81.33159637    0.88000000    2.76999998
   12.41055489   84.65309906    0.88000000    2.76999998
   12.41388893   77.42310333    0.88000000    2.76999998
   12.41694450   88.15540314    0.88000000    2.78999996
   12.42027855   84.02400208    0.88000000    2.76999998
   12.42333412   83.01490021    0.88000000    2.76999998
   12.42666721   81.37110138    0.88000000    2.76999998
   12.42972279   74.88790131    0.88000000    2.76999998
   12.43305588   80.16429901    0.88000000    2.76999998
   12.43361092   86.17870331    0.88000000    2.78999996
   12.43638897   84.25969696    0.88000000    2.76999998
   12.43972206   80.30950165    0.88000000    2.78999996
   12.44277763   85.25250244    0.88000000    2.76999998
   12.44611073   78.29769897    0.86000001    2.76999998
   12.44916630   80.53910065    0.88000000    2.76999998
   12.46861076   84.33660126    0.86000001    2.78999996
   12.47194386   76.75060272    0.86000001    2.76999998
   12.47499943   85.67900085    0.83999997    2.76999998
   12.47833252   87.22000122    0.86000001    2.78999996
   12.48138809   85.68720245    0.83999997    2.76999998
   12.48361111   83.57949829    0.86000001    2.76999998
   12.48500061   83.55149841    0.86000001    2.76999998
   12.48805618   87.70629883    0.86000001    2.78999996
   12.49138927   84.75180054    0.86000001    2.78999996
   12.49444485   89.00330353    0.83999997    2.78999996
   12.49777794   78.10310364    0.86000001    2.78999996
   12.50083351   83.74620056    0.83999997    2.78999996
   12.50416660   82.29340363    0.83999997    2.78999996
   12.50722218   85.45089722    0.81999999    2.78999996
   12.51055527   79.49349976    0.83999997    2.78999996
   12.51361084   78.64029694    0.81999999    2.78999996
   12.51694393   81.82769775    0.81999999    2.80999994
   12.51999950   85.42400360    0.80000001    2.78999996
   12.52333355   81.36389923    0.80000001    2.80999994
   12.52638817   87.89959717    0.80000001    2.78999996
   12.52972221   85.71990204    0.80000001    2.78999996
   12.53277779   79.04409790    0.80000001    2.78999996
   12.53361130   79.74230194    0.80000001    2.78999996
   12.53638935   81.16239929    0.80000001    2.78999996
   12.53944492   78.88449860    0.80000001    2.80999994
   12.54277802   82.55580139    0.80000001    2.78999996
   12.54583359   83.12920380    0.80000001    2.80999994
   12.54916668   82.97049713    0.80000001    2.80999994
   12.55222225   89.37830353    0.80000001    2.80999994
   12.55555534   80.58640289    0.80000001    2.78999996
   12.55861092   80.70950317    0.80000001    2.80999994
   12.56194496   82.56690216    0.80000001    2.80999994
   12.56500053   80.26509857    0.80000001    2.82999992
   12.56833363   81.27519989    0.80000001    2.78999996
   12.57138920   84.85009766    0.80000001    2.78999996
   12.57472229   83.10620117    0.79000002    2.80999994
   12.57777786   77.91490173    0.79000002    2.78999996
   12.58111095   79.93979645    0.79000002    2.80999994
   12.58361053   84.40499878    0.79000002    2.80999994
   12.58472157   80.52709961    0.79000002    2.80999994
   12.58777714   80.90119934    0.79000002    2.80999994
   12.59111118   85.26760101    0.79000002    2.80999994
   12.59416676   79.63939667    0.79000002    2.78999996
   12.59749985   81.48970032    0.79000002    2.80999994
   12.60055637   84.20099640    0.79000002    2.80999994
   12.60388947   83.44439697    0.79000002    2.78999996
   12.60694504   84.03630066    0.79000002    2.80999994
   12.61027813   85.66680145    0.79000002    2.80999994
   12.61333370   88.10449982    0.76999998    2.80999994
   12.61666679   83.66870117    0.76999998    2.80999994
   12.61972237   83.23889923    0.76999998    2.80999994
   12.62305546   88.24269867    0.76999998    2.80999994
   12.62611103   77.06169891    0.75000000    2.82999992
   12.62944412   77.90679932    0.76999998    2.82999992
   12.63249969   82.15239716    0.75000000    2.82999992
   12.63388920   78.08879852    0.76999998    2.80999994
   12.63611126   80.07119751    0.76999998    2.80999994
   12.63944435   84.35189819    0.76999998    2.82999992
   12.64249992   84.09680176    0.75000000    2.80999994
   12.64583302   78.03250122    0.75000000    2.80999994
   12.64888859   82.00520325    0.75000000    2.80999994
   12.65222168   79.82369995    0.75000000    2.80999994
   12.65527725   82.30460358    0.75000000    2.80999994
   12.65861034   80.47419739    0.75000000    2.80999994
   12.66166592   81.93430328    0.75000000    2.80999994
   12.66499996   82.00189972    0.75000000    2.82999992
   12.66805553   84.91790009    0.75000000    2.80999994
   12.67138958   79.26180267    0.75000000    2.80999994
   12.67444515   76.78250122    0.75000000    2.80999994
   12.67777824   78.68460083    0.75000000    2.80999994
   12.68083382   79.52870178    0.75000000    2.80999994
   12.68388939   85.21360016    0.75000000    2.80999994
   12.68444443   74.63469696    0.75000000    2.80999994
   12.68750000   79.08599854    0.75000000    2.80999994
   12.69083309   76.71980286    0.75000000    2.80999994
   12.69388866   78.47789764    0.75000000    2.82999992
   12.69722271   82.53209686    0.75000000    2.82999992
   12.70027733   83.17639923    0.75000000    2.78999996
   12.70388889   82.36889648    0.75000000    2.80999994
   12.70694447   78.61080170    0.75000000    2.80999994
   12.71000004   83.89620209    0.75000000    2.82999992
   12.71333313   87.11280060    0.75000000    2.82999992
   12.71638870   86.53959656    0.75000000    2.80999994
   12.71972179   78.80169678    0.76999998    2.82999992
   12.72277737   82.11830139    0.75000000    2.80999994
   12.72611046   82.30680084    0.75000000    2.80999994
   12.72916603   80.95230103    0.75000000    2.82999992
   12.73249912   80.36470032    0.76999998    2.82999992
   12.73388958   77.16410065    0.76999998    2.82999992
   12.73611164   85.20240021    0.76999998    2.82999992
   12.73944473   80.47779846    0.76999998    2.82999992
   12.74250031   78.40679932    0.79000002    2.82999992
   12.74583340   79.57330322    0.76999998    2.80999994
   12.74888897   78.60199738    0.76999998    2.80999994
   12.75222206   79.75389862    0.75000000    2.82999992
   12.75527763   76.77089691    0.75000000    2.82999992
   12.75861073   81.89330292    0.75000000    2.82999992
   12.76166630   82.19719696    0.75000000    2.80999994
   12.76500034   84.99109650    0.75000000    2.82999992
   12.76805496   77.12889862    0.75000000    2.82999992
   12.77138901   80.10060120    0.75000000    2.82999992
   12.77444458   82.89409637    0.75000000    2.84999990
   12.77777767   82.12039948    0.75000000    2.82999992
   12.78083324   86.03440094    0.75000000    2.82999992
   12.78388977   86.60140228    0.75000000    2.82999992
   12.78444481   85.89610291    0.73000002    2.82999992
   12.78750038   76.33830261    0.73000002    2.82999992
   12.79083347   80.61879730    0.73000002    2.82999992
   12.79388905   80.45960236    0.73000002    2.82999992
   12.79722309   90.55449677    0.73000002    2.82999992
   12.80027771   82.28810120    0.73000002    2.80999994
   12.80361176   80.65360260    0.73000002    2.82999992
   12.80666733   82.05930328    0.73000002    2.82999992
   12.81000042   84.42890167    0.73000002    2.82999992
   12.81305599   79.50060272    0.73000002    2.82999992
   12.81638908   75.27660370    0.73000002    2.82999992
   12.81944466   77.43430328    0.73000002    2.82999992
   12.82277775   87.50890350    0.73000002    2.82999992
   12.82583332   81.12249756    0.73000002    2.82999992
   12.82916641   82.67449951    0.70999998    2.84999990
   12.83222198   79.45310211    0.70999998    2.82999992
   12.83388901   82.02259827    0.70999998    2.82999992
   12.83583260   77.70950317    0.70999998    2.82999992
   12.83888817   77.26110077    0.70999998    2.82999992
   12.84222221   86.11769867    0.70999998    2.82999992
   12.84527779   87.64040375    0.70999998    2.82999992
   12.84861088   77.31839752    0.70999998    2.82999992
   12.85166740   79.21130371    0.69000000    2.84999990
   12.85500050   85.60639954    0.70999998    2.82999992
   12.85805607   80.93219757    0.70999998    2.84999990
   12.86138916   83.86360168    0.70999998    2.84999990
   12.86444473   74.82990265    0.70999998    2.84999990
   12.86750031   79.91429901    0.70999998    2.82999992
   12.87083340   82.74759674    0.70999998    2.84999990
   12.87388897   88.40609741    0.70999998    2.84999990
   12.87722206   78.70069885    0.73000002    2.84999990
   12.88027763   81.09380341    0.73000002    2.84999990
   12.88361073   77.35410309    0.73000002    2.84999990
   12.88416672   78.29859924    0.73000002    2.84999990
   12.88722229   85.92800140    0.73000002    2.84999990
   12.89055538   83.13999939    0.73000002    2.84999990
   12.89361095   87.46459961    0.73000002    2.84999990
   12.89666653   75.26360321    0.70999998    2.84999990
   12.89999962   79.61489868    0.70999998    2.84999990
   12.90305519   85.86920166    0.73000002    2.84999990
   12.90638828   88.10600281    0.73000002    2.84999990
   12.90944386   90.34159851    0.73000002    2.84999990
   12.91277695   83.94380188    0.73000002    2.84999990
   12.91583252   78.50650024    0.73000002    2.84999990
   12.91888905   90.24009705    0.73000002    2.82999992
   12.92222214   80.70749664    0.73000002    2.84999990
   12.92527771   81.71260071    0.75000000    2.86999989
   12.92861176   78.89150238    0.75000000    2.84999990
   12.93166733   85.84339905    0.75000000    2.84999990
   12.93416691   79.87349701    0.75000000    2.84999990
   12.93527794   81.67469788    0.75000000    2.84999990
   12.93833351   84.49829865    0.76999998    2.84999990
   12.94166660   79.49150085    0.79000002    2.84999990
   12.94472218   80.19740295    0.79000002    2.82999992
   12.94805527   76.55269623    0.79000002    2.84999990
   12.95111084   86.31009674    0.76999998    2.82999992
   12.95444393   82.87259674    0.75000000    2.84999990
   12.95749950   81.59770203    0.76999998    2.84999990
   12.96083355   83.64859772    0.76999998    2.84999990
   12.96388912   77.20449829    0.75000000    2.84999990
   12.96694374   80.50140381    0.75000000    2.84999990
   12.97027779   87.02500153    0.75000000    2.84999990
   12.97333336   85.80049896    0.75000000    2.86999989
   12.97666645   83.92590332    0.76999998    2.86999989
   12.97972202   79.43810272    0.76999998    2.84999990
   12.98305511   81.17060089    0.76999998    2.84999990
   12.98416710   84.54479980    0.76999998    2.84999990
   12.98638916   80.45999908    0.76999998    2.86999989
   12.98972225   81.25980377    0.75000000    2.84999990
   12.99277782   84.17359924    0.75000000    2.86999989
   12.99583340   79.70249939    0.75000000    2.86999989
   12.99916649   85.75700378    0.75000000    2.84999990
   13.00222206   79.34500122    0.75000000    2.84999990
   13.00555515   81.46890259    0.75000000    2.84999990
   13.00861073   81.56559753    0.76999998    2.84999990
   13.01166630   82.52890015    0.76999998    2.84999990
   13.01500034   86.06379700    0.75000000    2.84999990
   13.01805496   82.00679779    0.75000000    2.86999989
   13.02138901   81.88220215    0.75000000    2.86999989
   13.02444458   76.65239716    0.75000000    2.86999989
   13.02750015   80.65689850    0.75000000    2.84999990
   13.03083324   79.03910065    0.75000000    2.84999990
   13.03388977   76.76830292    0.73000002    2.84999990
   13.03444481   86.11869812    0.73000002    2.84999990
   13.03750038   81.89990234    0.73000002    2.84999990
   13.04083347   77.37370300    0.73000002    2.86999989
   13.04388905   80.62490082    0.73000002    2.86999989
   13.04722309   78.68779755    0.70999998    2.86999989
   13.05027771   78.84719849    0.69000000    2.84999990
   13.05361176   82.71440125    0.69000000    2.84999990
   13.05666733   79.41049957    0.70999998    2.86999989
   13.05972195   78.54239655    0.70999998    2.86999989
   13.06305599   85.32289886    0.69000000    2.84999990
   13.06611156   81.64869690    0.67000002    2.86999989
   13.06944466   79.35810089    0.69000000    2.86999989
   13.07250023   80.36979675    0.67000002    2.86999989
   13.07555580   79.29319763    0.69000000    2.86999989
   13.07888889   76.68959808    0.67000002    2.86999989
   13.08194447   83.50360107    0.67000002    2.86999989
   13.08444405   81.72380066    0.67000002    2.86999989
   13.08527756   79.35279846    0.67000002    2.86999989
   13.08861065   75.65869904    0.67000002    2.86999989
   13.09166622   79.94899750    0.67000002    2.86999989
   13.09499931   79.16110229    0.67000002    2.86999989
   13.09805489   79.84519958    0.64999998    2.86999989
   13.10138893   80.70010376    0.64999998    2.89000010
   13.10444450   84.68720245    0.64999998    2.86999989
   13.10750008   82.38870239    0.64999998    2.86999989
   13.11083412   81.62180328    0.64999998    2.86999989
   13.11388969   74.18859863    0.64999998    2.86999989
   13.11722279   81.04869843    0.64999998    2.86999989
   13.12027836   84.21080017    0.64999998    2.86999989
   13.12361145   85.57589722    0.63000000    2.89000010
   13.12666702   80.97879791    0.63000000    2.89000010
   13.13000011   80.36669922    0.63000000    2.89000010
   13.13305569   83.81430054    0.63000000    2.89000010
   13.13444424   80.04180145    0.63000000    2.89000010
   13.13666630   84.62030029    0.61000001    2.86999989
   13.13972187   78.64689636    0.63000000    2.86999989
   13.14277744   85.89209747    0.61000001    2.86999989
   13.14611053   79.20670319    0.61000001    2.89000010
   13.14916611   78.27480316    0.61000001    2.89000010
   13.15249920   80.09179688    0.61000001    2.89000010
   13.15555477   81.08059692    0.61000001    2.86999989
   13.15861034   80.20819855    0.61000001    2.89000010
   13.16194439   81.42050171    0.61000001    2.86999989
   13.16499996   84.62879944    0.61000001    2.86999989
   13.16833401   83.71790314    0.61000001    2.89000010
   13.17138958   80.44029999    0.61000001    2.89000010
   13.17444515   82.12770081    0.61000001    2.89000010
   13.17777824   78.61660004    0.61000001    2.89000010
   13.18083382   79.69280243    0.58999997    2.86999989
   13.18416691   82.07550049    0.61000001    2.86999989
   13.18444443   75.44650269    0.58999997    2.91000009
   13.18750000   78.14980316    0.61000001    2.89000010
   13.19055557   82.85479736    0.58999997    2.86999989
   13.19388866   77.20639801    0.58999997    2.89000010
   13.19694424   81.15080261    0.61000001    2.86999989
   13.20027733   83.14070129    0.58999997    2.86999989
   13.20333290   78.40989685    0.58999997    2.89000010
   13.20666695   83.96179962    0.58999997    2.86999989
   13.20972157   74.26409912    0.58999997    2.89000010
   13.21305561   80.36239624    0.58999997    2.89000010
   13.21611118   77.76879883    0.58999997    2.89000010
   13.21944427   78.42289734    0.58999997    2.89000010
   13.22249985   81.57669830    0.58999997    2.89000010
   13.22583294   84.31999969    0.56999999    2.91000009
   13.22888851   78.46880341    0.56999999    2.91000009
   13.23222160   74.68920135    0.58999997    2.89000010
   13.23444462   79.84700012    0.58999997    2.89000010
   13.23555565   86.94499969    0.58999997    2.89000010
   13.23861122   75.70909882    0.58999997    2.89000010
   13.24194431   80.51869965    0.61000001    2.89000010
   13.24499989   85.87500000    0.61000001    2.89000010
   13.24833393   74.88140106    0.58999997    2.89000010
   13.25138855   81.67970276    0.61000001    2.89000010
   13.25472260   77.56289673    0.61000001    2.86999989
   13.25777817   74.90930176    0.58999997    2.91000009
   13.26111126   75.42109680    0.61000001    2.89000010
   13.26416683   78.66139984    0.58999997    2.89000010
   13.26749992   75.29329681    0.58999997    2.91000009
   13.27055550   77.75939941    0.58999997    2.89000010
   13.27388859   77.43070221    0.56999999    2.89000010
   13.27694416   76.70960236    0.56999999    2.89000010
   13.28027725   88.21479797    0.56999999    2.89000010
   13.28333378   82.20020294    0.55000001    2.89000010
   13.28472233   81.05359650    0.55000001    2.89000010
   13.28694534   79.23130035    0.55000001    2.89000010
   13.29027843   79.83660126    0.55000001    2.91000009
   13.29333401   94.32099915    0.55000001    2.91000009
   13.29666710   76.18689728    0.55000001    2.89000010
   13.29972267   83.34590149    0.55000001    2.89000010
   13.30305576   80.97129822    0.52999997    2.89000010
   13.30611134   83.21389771    0.52999997    2.89000010
   13.30944443   84.34809875    0.55000001    2.91000009
   13.31250000   81.31890106    0.52999997    2.89000010
   13.31583309   82.54109955    0.52999997    2.91000009
   13.31888866   82.07420349    0.51999998    2.89000010
   13.32194424   86.16410065    0.51999998    2.89000010
   13.32527733   79.94819641    0.52999997    2.91000009
   13.32833290   80.62899780    0.52999997    2.91000009
   13.33166695   74.48690033    0.52999997    2.91000009
   13.33472157   81.25450134    0.52999997    2.91000009
   13.33500004   76.70089722    0.52999997    2.91000009
   13.33805561   76.18399811    0.52999997    2.91000009
   13.34138870   82.00589752    0.52999997    2.89000010
   13.34444427   80.38459778    0.55000001    2.91000009
   13.34777737   78.26409912    0.52999997    2.91000009
   13.35083389   80.20179749    0.52999997    2.89000010
   13.35388947   79.31629944    0.52999997    2.91000009
   13.35722256   79.45459747    0.52999997    2.91000009
   13.36027813   78.15350342    0.52999997    2.89000010
   13.36361122   76.27050018    0.52999997    2.89000010
   13.36666679   81.72129822    0.52999997    2.91000009
   13.36999989   73.40160370    0.52999997    2.89000010
   13.37305546   75.43550110    0.52999997    2.89000010
   13.37611103   73.39489746    0.52999997    2.89000010
   13.37944412   75.95230103    0.52999997    2.91000009
   13.38249969   77.95729828    0.52999997    2.93000007
   13.38472176   79.95929718    0.52999997    2.93000007
   13.38611126   76.01820374    0.52999997    2.91000009
   13.38944435   80.00700378    0.55000001    2.93000007
   13.39249992   76.65699768    0.52999997    2.91000009
   13.39583302   81.46040344    0.52999997    2.91000009
   13.39888859   80.19120026    0.52999997    2.91000009
   13.40222168   84.25460052    0.51999998    2.91000009
   13.40527725   82.69270325    0.51999998    2.93000007
   13.40833282   78.29920197    0.50000000    2.91000009
   13.41166592   81.53559875    0.50000000    2.91000009
   13.41472149   75.35890198    0.51999998    2.91000009
   13.41805553   81.75659943    0.51999998    2.93000007
   13.42111111   78.78369904    0.50000000    2.91000009
   13.42444515   75.41139984    0.50000000    2.89000010
   13.42750072   80.19329834    0.50000000    2.91000009
   13.43083382   79.26609802    0.51999998    2.91000009
   13.43388939   82.39939880    0.51999998    2.89000010
   13.43472195   78.52539825    0.51999998    2.93000007
   13.43750000   76.39219666    0.51999998    2.91000009
   13.44083309   73.69930267    0.51999998    2.91000009
   13.44388866   76.27809906    0.51999998    2.93000007
   13.44722271   77.66449738    0.51999998    2.91000009
   13.45027733   80.10260010    0.51999998    2.93000007
   13.45361137   74.16960144    0.51999998    2.91000009
   13.45666695   75.04010010    0.51999998    2.91000009
   13.46000004   78.01390076    0.55000001    2.91000009
   13.46305561   78.53029633    0.55000001    2.91000009
   13.46638870   81.37470245    0.55000001    2.91000009
   13.48472214   79.75090027    0.52999997    2.91000009
   13.48611164   77.60279846    0.52999997    2.93000007
   13.48916721   85.92310333    0.51999998    2.93000007
   13.49250031   86.44490051    0.51999998    2.91000009
   13.49555588   82.88649750    0.51999998    2.89000010
   13.49888897   82.94640350    0.51999998    2.91000009
   13.50194454   85.58599854    0.51999998    2.93000007
   13.50527763   78.13030243    0.51999998    2.93000007
   13.50833321   79.37560272    0.51999998    2.93000007
   13.51166630   84.69470215    0.51999998    2.91000009
   13.51472187   76.89340210    0.51999998    2.93000007
   13.51805496   79.49759674    0.51999998    2.93000007
   13.52111053   80.36979675    0.47999999    2.93000007
   13.52444458   81.77140045    0.47999999    2.93000007
   13.52750015   79.41400146    0.46000001    2.91000009
   13.53083324   81.43119812    0.46000001    2.94000006
   13.53388977   85.80560303    0.46000001    2.93000007
   13.53472233   75.92079926    0.46000001    2.91000009
   13.53750038   86.60520172    0.44000000    2.93000007
   13.54083347   86.69170380    0.44000000    2.94000006
   13.54388905   78.53220367    0.40000001    2.94000006
   13.54722309   80.39119720    0.40000001    2.94000006
   13.55027771   84.41030121    0.40000001    2.94000006
   13.55361176   78.07569885    0.40000001    2.94000006
   13.55666733   84.14230347    0.40000001    2.93000007
   13.56000042   77.05190277    0.40000001    2.93000007
   13.56305599   75.54049683    0.40000001    2.93000007
   13.56638908   92.18720245    0.40000001    2.94000006
   13.56944466   81.23880005    0.40000001    2.93000007
   13.57277775   81.62779999    0.41999999    2.93000007
   13.57583332   85.74040222    0.41999999    2.94000006
   13.57916641   86.44619751    0.41999999    2.93000007
   13.58222198   86.77799988    0.41999999    2.94000006
   13.58472157   83.32219696    0.41999999    2.93000007
   13.58583260   87.00820160    0.41999999    2.93000007
   13.58916664   87.62969971    0.40000001    2.93000007
   13.59222221   83.73200226    0.40000001    2.94000006
   13.59555531   80.21739960    0.40000001    2.93000007
   13.59861088   82.05539703    0.40000001    2.94000006
   13.60194492   75.77259827    0.40000001    2.93000007
   13.60500050   81.37920380    0.40000001    2.94000006
   13.60833359   74.89469910    0.40000001    2.94000006
   13.61138916   75.86139679    0.40000001    2.94000006
   13.61472225   75.93450165    0.40000001    2.94000006
   13.61777782   86.43190002    0.40000001    2.93000007
   13.62111092   87.94170380    0.41999999    2.91000009
   13.62416649   79.11799622    0.40000001    2.94000006
   13.62750053   80.09590149    0.40000001    2.93000007
   13.63055611   80.32420349    0.40000001    2.94000006
   13.63388920   76.37480164    0.40000001    2.94000006
   13.63472176  185.99000549    0.41999999    2.94000006
   13.63722229   84.41249847    0.41999999    2.93000007
   13.64055538   78.32420349    0.41999999    2.93000007
   13.64361095   83.31449890    0.41999999    2.93000007
   13.64694405   82.17669678    0.41999999    2.94000006
   13.64999962   82.75129700    0.41999999    2.94000006
   13.65333271   79.98439789    0.41999999    2.94000006
   13.65638828   77.71769714    0.41999999    2.93000007
   13.65972137   81.04889679    0.41999999    2.93000007
   13.66277695   80.80870056    0.41999999    2.94000006
   13.66611099   77.45870209    0.41999999    2.94000006
   13.66916656   79.87989807    0.41999999    2.93000007
   13.67250061   79.60720062    0.41999999    2.94000006
   13.67555618   77.10639954    0.44000000    2.94000006
   13.67888927   82.69460297    0.41999999    2.96000004
   13.68194485   79.15959930    0.41999999    2.94000006
   13.68472195   76.18990326    0.41999999    2.94000006
   13.68555546   79.30519867    0.41999999    2.94000006
   13.68888855   91.36260223    0.41999999    2.93000007
   13.69194412   76.88790131    0.41999999    2.94000006
   13.69527817   87.23609924    0.41999999    2.94000006
   13.69833374   83.42630005    0.41999999    2.94000006
   13.70166683   78.50050354    0.41999999    2.94000006
   13.70472240   76.50039673    0.41999999    2.94000006
   13.70805550   74.55300140    0.41999999    2.94000006
   13.71111107   79.35169983    0.40000001    2.94000006
   13.71444416   94.88539886    0.40000001    2.93000007
   13.71749973   81.35070038    0.41999999    2.94000006
   13.72083282   78.39080048    0.41999999    2.94000006
   13.72388840   78.82350159    0.41999999    2.94000006
   13.72722149   75.59529877    0.41999999    2.94000006
   13.73027706   76.36499786    0.44000000    2.93000007
   13.73361111   81.07009888    0.44000000    2.93000007
   13.73472214   84.25499725    0.44000000    2.94000006
   13.73694515   77.75720215    0.46000001    2.94000006
   13.74027824   78.66670227    0.46000001    2.93000007
   13.74333382   81.11280060    0.46000001    2.93000007
   13.74666691   76.15519714    0.46000001    2.94000006
   13.85972214   -1.00000000   -1.00000000   -1.00000000
   13.95611095   -1.00000000   -1.00000000   -1.00000000
   14.05666733   -1.00000000   -1.00000000   -1.00000000
   14.09249973   60.42900085    0.51999998    2.94000006
   14.09583282   82.05400085    0.52999997    2.94000006
   14.09888840   74.70939636    0.51999998    2.96000004
   14.10222244   77.22859955    0.52999997    2.96000004
   14.10527802   73.71839905    0.52999997    2.94000006
   14.10861111   78.73000336    0.52999997    2.94000006
   14.11166668   72.18599701    0.55000001    2.94000006
   14.11500072   78.49680328    0.52999997    2.94000006
   14.12111092   78.49680328    0.55000001    2.94000006
   14.12527752   79.92109680    0.52999997    2.96000004
   14.12833309   77.91660309    0.55000001    2.94000006
   14.13166714   75.33319855    0.55000001    2.94000006
   14.13472176   76.87380219    0.55000001    2.94000006
   14.13805580   76.11119843    0.55000001    2.94000006
   14.14111137   77.52050018    0.55000001    2.94000006
   14.14249992   76.11699677    0.55000001    2.94000006
   14.14499950   78.29669952    0.55000001    2.96000004
   14.14805508   75.74520111    0.55000001    2.94000006
   14.15138817   75.32790375    0.55000001    2.94000006
   14.15444374   77.01129913    0.55000001    2.94000006
   14.15777779   80.43250275    0.55000001    2.94000006
   14.16083336   76.64350128    0.55000001    2.94000006
   14.16416645   80.24089813    0.55000001    2.94000006
   14.16722298   79.78269958    0.56999999    2.94000006
   14.17250061   79.78269958    0.56999999    2.94000006
   14.17638874   77.61669922    0.56999999    2.94000006
   14.17972279   78.91940308    0.56999999    2.94000006
   14.18277836   78.72489929    0.56999999    2.94000006
   14.18611145   77.47689819    0.56999999    2.94000006
   14.18916702   82.36519623    0.56999999    2.94000006
   14.19250011   82.57330322    0.56999999    2.94000006
   14.19277763   82.97470093    0.56999999    2.94000006
   14.19611073   84.91870117    0.55000001    2.94000006
   14.19916630   83.87699890    0.55000001    2.94000006
   14.20249939   80.29149628    0.52999997    2.94000006
   14.20555496   86.57340240    0.55000001    2.94000006
   14.20888901   82.94699860    0.52999997    2.94000006
   14.21194458   77.56939697    0.51999998    2.96000004
   14.21527767   92.13610077    0.52999997    2.96000004
   14.21833324   79.91979980    0.51999998    2.94000006
   14.22361088   79.91979980    0.47999999    2.94000006
   14.22749996   76.93209839    0.46000001    2.96000004
   14.23083305   89.46189880    0.47999999    2.96000004
   14.23388958   76.69210052    0.44000000    2.96000004
   14.23722267   80.68879700    0.44000000    2.96000004
   14.24027824   76.94120026    0.44000000    2.96000004
   14.24277782   78.07469940    0.44000000    2.94000006
   14.24388885   83.11979675    0.44000000    2.96000004
   14.24694443   84.78720093    0.41999999    2.96000004
   14.25027752   75.06179810    0.44000000    2.98000002
   14.25333309   80.76309967    0.41999999    2.96000004
   14.25666714   76.55750275    0.41999999    2.96000004
   14.25972176   79.47070313    0.41999999    2.96000004
   14.26305580   80.83889771    0.41999999    2.96000004
   14.26611137   82.56179810    0.41999999    2.96000004
   14.26944447   85.06439972    0.41999999    2.96000004
   14.27472210   85.06439972    0.41999999    2.96000004
   14.27888870   79.10150146    0.41999999    2.96000004
   14.28194427   77.19139862    0.41999999    2.96000004
   14.28527832   83.33830261    0.41999999    2.98000002
   14.28833389   79.76640320    0.41999999    2.98000002
   14.29166698   86.02860260    0.40000001    2.96000004
   14.29277802   79.07749939    0.40000001    2.96000004
   14.29500008   78.71869659    0.40000001    2.96000004
   14.29805565   83.38110352    0.40000001    2.96000004
   14.30138874   80.29270172    0.40000001    2.96000004
   14.30444431   75.71510315    0.40000001    2.98000002
   14.30777836   76.87989807    0.40000001    2.98000002
   14.31083393   84.78040314    0.40000001    2.96000004
   14.31416702   80.81030273    0.40000001    2.98000002
   14.31722260   78.35870361    0.40000001    2.98000002
   14.32055569   81.01069641    0.40000001    2.98000002
   14.32583332   81.01069641    0.40000001    2.98000002
   14.32999992   83.32579803    0.40000001    2.96000004
   14.33305550   79.06690216    0.40000001    2.96000004
   14.33638859   82.19159698    0.40000001    2.98000002
   14.33944416   77.17130280    0.40000001    2.98000002
   14.34277725   81.27459717    0.38000000    2.98000002
   14.34333324   84.06739807    0.38000000    2.98000002
   14.34638882   83.96510315    0.38000000    2.96000004
   14.34972191   88.18900299    0.38000000    2.96000004
   14.35277843   80.34020233    0.38000000    2.96000004
   14.35611153   77.98000336    0.38000000    2.98000002
   14.35916710   93.68699646    0.38000000    2.98000002
   14.36250019   82.31739807    0.38000000    2.98000002
   14.36555576   91.25050354    0.38000000    2.98000002
   14.36888885   79.77950287    0.38000000    3.00000000
   14.37194443   77.40489960    0.38000000    2.98000002
   14.37694454   77.40489960    0.38000000    2.96000004
   14.38111115   76.68720245    0.38000000    2.98000002
   14.38444424   76.59480286    0.38000000    2.98000002
   14.38749981   80.94840240    0.38000000    2.98000002
   14.39083290   79.00409698    0.38000000    2.98000002
   14.39333344   76.75579834    0.36000001    2.98000002
   14.39416695   84.93579865    0.38000000    2.98000002
   14.39750004   79.63339996    0.38000000    2.98000002
   14.40055561   81.08609772    0.38000000    2.98000002
   14.40388870   85.22530365    0.36000001    2.98000002
   14.40694427   81.04119873    0.38000000    2.94000006
   14.41027737   94.67350006    0.36000001    2.98000002
   14.41333294   93.24040222    0.36000001    2.98000002
   14.41666698   76.94139862    0.36000001    2.98000002
   14.41972256   81.80780029    0.36000001    2.98000002
   14.42305565   82.24420166    0.36000001    3.00000000
   14.42833328   82.24420166    0.36000001    2.98000002
   14.43222237   80.33329773    0.38000000    2.98000002
   14.43555546   84.91369629    0.38000000    2.96000004
   14.43861103   87.30639648    0.38000000    2.98000002
   14.44194412   82.14340210    0.36000001    2.98000002
   14.44361115   87.03659821    0.36000001    2.98000002
   14.44555569   87.48370361    0.36000001    2.98000002
   14.44888878   90.13880157    0.36000001    2.98000002
   14.45194435   86.65390015    0.36000001    2.98000002
   14.45527744   87.02989960    0.36000001    2.98000002
   14.45833302   86.05570221    0.36000001    2.96000004
   14.46166611   87.30690002    0.38000000    2.98000002
   14.46472168   81.38320160    0.38000000    2.98000002
   14.46805477   86.28050232    0.38000000    2.98000002
   14.47111034   78.51210022    0.38000000    2.98000002
   14.47444439   79.55159760    0.40000001    2.98000002
   14.47944355   79.55159760    0.40000001    2.98000002
   14.48361111   77.18669891    0.40000001    2.98000002
   14.48666668   80.08229828    0.38000000    2.98000002
   14.49000072   84.48110199    0.38000000    2.98000002
   14.49305534   84.68910217    0.40000001    2.98000002
   14.49361134   86.72789764    0.40000001    2.98000002
   14.49638939   80.42109680    0.40000001    2.98000002
   14.49972248   80.73639679    0.40000001    2.98000002
   14.50277805   80.88939667    0.41999999    2.98000002
   14.50611115   84.12079620    0.44000000    2.96000004
   14.50916672   82.68299866    0.44000000    2.98000002
   14.51249981   82.61660004    0.44000000    2.96000004
   14.51555538   77.79869843    0.44000000    2.96000004
   14.51888847   83.70300293    0.44000000    2.98000002
   14.52194405   84.60079956    0.41999999    2.96000004
   14.52527714   86.01950073    0.41999999    2.98000002
   14.53055573   86.01950073    0.41999999    2.98000002
   14.53472233   77.79090118    0.41999999    2.98000002
   14.53777790   75.10919952    0.44000000    2.96000004
   14.54111195   75.06980133    0.44000000    2.96000004
   14.54361153   75.78479767    0.44000000    2.96000004
   14.54444504   88.33180237    0.44000000    2.96000004
   14.54777813   79.34149933    0.44000000    2.98000002
   14.55083370   74.45670319    0.46000001    2.96000004
   14.55416679   77.09339905    0.44000000    2.96000004
   14.55722237   74.25370026    0.44000000    2.96000004
   14.56055546   75.54329681    0.44000000    2.98000002
   14.56361103   75.52980042    0.46000001    2.98000002
   14.56694412   80.94249725    0.46000001    2.98000002
   14.57027817   80.09600067    0.46000001    2.96000004
   14.57333374   80.76850128    0.47999999    2.98000002
   14.57666683   80.04699707    0.47999999    2.96000004
   14.58166695   80.04699707    0.47999999    2.96000004
   14.58583260   76.66870117    0.47999999    2.96000004
   14.58916664   73.49240112    0.47999999    2.98000002
   14.59222221   75.59059906    0.47999999    2.96000004
   14.59361076   76.48699951    0.47999999    2.96000004
   14.59555531   76.31030273    0.47999999    2.96000004
   14.59888840   78.16059875    0.47999999    2.98000002
   14.60194492   73.65100098    0.47999999    2.98000002
   14.60527802   75.07460022    0.47999999    2.98000002
   14.60833359   75.91459656    0.50000000    2.96000004
   14.61166668   75.00980377    0.50000000    2.96000004
   14.61472225   77.18039703    0.50000000    2.96000004
   14.61805534   75.80539703    0.50000000    2.96000004
   14.62138939   76.73930359    0.50000000    2.96000004
   14.62444496   77.34140015    0.50000000    2.96000004
   14.62777805   77.33910370    0.50000000    2.96000004
   14.63305569   77.33910370    0.50000000    2.96000004
   14.63694477   75.97570038    0.50000000    2.96000004
   14.64027786   78.32949829    0.50000000    2.98000002
   14.64333344   72.99590302    0.50000000    2.96000004
   14.64388847   73.98560333    0.50000000    2.96000004
   14.64694405   75.02580261    0.51999998    2.96000004
   14.64999962   76.33129883    0.50000000    2.96000004
   14.65333271   76.04519653    0.50000000    2.98000002
   14.65638828   73.14869690    0.47999999    2.98000002
   14.65972137   80.16259766    0.46000001    2.98000002
   14.66277695   74.68509674    0.46000001    2.96000004
   14.66611099   73.66960144    0.47999999    2.98000002
   14.66916656   75.34519958    0.47999999    2.96000004
   14.67250061   74.66380310    0.47999999    2.96000004
   14.67555618   77.29540253    0.47999999    2.98000002
   14.67888927   83.43579865    0.47999999    2.98000002
   14.68416691   83.43579865    0.47999999    2.96000004
   14.68833351   79.12310028    0.50000000    2.96000004
   14.69138908   76.80439758    0.47999999    2.96000004
   14.69388866   79.84030151    0.47999999    2.96000004
   14.69499969   80.06220245    0.50000000    2.96000004
   14.69805527   78.23639679    0.50000000    2.96000004
   14.70138836   74.23439789    0.51999998    2.96000004
   14.70444393   75.29360199    0.51999998    2.96000004
   14.70777798   85.64199829    0.51999998    2.96000004
   14.71083355   78.90650177    0.51999998    2.98000002
   14.71416664   80.40080261    0.51999998    2.98000002
   14.71722221   80.97039795    0.51999998    2.96000004
   14.72055531   76.08640289    0.50000000    2.96000004
   14.72361088   75.42510223    0.51999998    2.96000004
   14.72694397   79.06860352    0.51999998    2.96000004
   14.72999954   79.99810028    0.50000000    2.96000004
   14.73527813   79.99810028    0.50000000    2.96000004
   14.73944473   78.84159851    0.50000000    2.96000004
   14.74250031   75.24449921    0.47999999    2.98000002
   14.74388885   78.91130066    0.47999999    2.98000002
   14.74611092   78.01260376    0.46000001    2.98000002
   14.74916649   74.59880066    0.41999999    2.98000002
   14.75249958   72.52980042    0.44000000    2.96000004
   14.75555515   78.34899902    0.41999999    2.98000002
   14.75888920   75.67849731    0.40000001    2.98000002
   14.76194477   77.90390015    0.38000000    2.98000002
   14.76527786   78.18139648    0.40000001    3.00000000
   14.76833344   73.58599854    0.40000001    2.98000002
   14.77166653   80.77349854    0.40000001    2.98000002
   14.77472210   78.54709625    0.38000000    3.00000000
   14.77805519   80.79979706    0.38000000    3.00000000
   14.78111076   75.78340149    0.38000000    3.01999998
   14.78638935   75.78340149    0.38000000    2.98000002
   14.79055595   75.99610138    0.40000001    3.00000000
   14.79388905   80.80329895    0.38000000    3.00000000
   14.79416752   77.01860046    0.38000000    3.00000000
   14.79750061   84.36329651    0.38000000    2.98000002
   14.80055618   80.91660309    0.38000000    2.98000002
   14.80388927   72.63369751    0.38000000    2.98000002
   14.80694485   79.56759644    0.36000001    3.00000000
   14.81027794   77.25219727    0.36000001    3.00000000
   14.81333351   77.84120178    0.38000000    3.00000000
   14.81666660   78.20929718    0.38000000    3.00000000
   14.81972218   77.90409851    0.36000001    3.00000000
   14.82305527   80.52050018    0.36000001    2.98000002
   14.82611084   77.94940186    0.36000001    3.00000000
   14.82944393   72.44830322    0.36000001    3.00000000
   14.83249950   78.76670074    0.38000000    3.00000000
   14.83777714   78.76670074    0.38000000    2.96000004
   14.84166622   75.54109955    0.36000001    3.01999998
   14.84416676   79.71160126    0.36000001    2.98000002
   14.84527779   75.36499786    0.36000001    3.00000000
   14.84833336   78.04419708    0.36000001    3.00000000
   14.85166740   77.91049957    0.36000001    3.00000000
   14.85472298   72.64589691    0.36000001    3.01999998
   14.85805607   71.65730286    0.36000001    3.00000000
   14.86111164   75.03050232    0.38000000    2.98000002
   14.86444473   75.46150208    0.36000001    3.00000000
   14.86750031   77.11599731    0.36000001    3.00000000
   14.87083340   74.41030121    0.36000001    3.00000000
   14.87388897   75.41870117    0.36000001    3.00000000
   14.87722206   74.88860321    0.36000001    3.00000000
   14.88027763   74.14099884    0.38000000    3.00000000
   14.88361073   78.37779999    0.36000001    3.00000000
   14.88888836   78.37779999    0.36000001    3.00000000
   14.89305496   76.77670288    0.38000000    3.00000000
   14.89416695   73.94219971    0.38000000    3.00000000
   14.89638901   75.06719971    0.38000000    3.00000000
   14.89944458   75.12729645    0.36000001    3.00000000
   14.90277767   75.62850189    0.36000001    3.00000000
   14.90583324   79.85839844    0.36000001    3.00000000
   14.90916634   83.55970001    0.38000000    3.00000000
   14.91222191   80.03079987    0.36000001    3.00000000
   14.91555500   80.68620300    0.36000001    2.98000002
   14.91861153   82.92839813    0.36000001    3.01999998
   14.92194462   80.07270050    0.36000001    2.98000002
   14.92500019   77.63549805    0.38000000    3.00000000
   14.92833328   80.79720306    0.36000001    3.00000000
   14.93138885   77.89739990    0.36000001    3.01999998
   14.93472195   79.04090118    0.36000001    3.00000000
   14.94000053   79.04090118    0.36000001    3.00000000
   14.94416714   75.03910065    0.34000000    3.00000000
   14.94444466   73.03250122    0.36000001    3.00000000
   14.94777775   75.60479736    0.36000001    3.00000000
   14.95111084   79.04810333    0.36000001    3.00000000
   14.95416641   72.93779755    0.36000001    3.00000000
   14.95749950   74.03579712    0.36000001    3.00000000
   14.96055508   76.30590057    0.38000000    3.00000000
   14.96388912   76.78029633    0.40000001    3.00000000
   14.96694374   78.10590363    0.38000000    3.00000000
   14.97027779   75.24539948    0.40000001    2.98000002
   14.97333336   76.73010254    0.41999999    2.98000002
   14.97666645   78.94319916    0.41999999    3.00000000
   14.97972202   78.43440247    0.41999999    2.98000002
   14.98305511   82.42980194    0.41999999    2.98000002
   14.98611164   80.58370209    0.40000001    2.98000002
   14.99111176   80.58370209    0.40000001    3.00000000
   14.99527836   76.28379822    0.40000001    3.00000000
   14.99833393   74.28240204    0.40000001    2.98000002
   15.00166702   76.68180084    0.40000001    3.00000000
   15.00472260   79.25720215    0.40000001    3.00000000
   15.00805569   76.75399780    0.40000001    3.00000000
   15.01111126   80.62200165    0.40000001    2.98000002
   15.01444435   83.77510071    0.40000001    3.00000000
   15.01749992   74.50270081    0.40000001    2.98000002
   15.02083302   76.65110016    0.41999999    3.00000000
   15.02388859   73.53299713    0.41999999    2.98000002
   15.02722168   80.00810242    0.40000001    2.98000002
   15.03027725   76.16940308    0.40000001    3.00000000
   15.03361130   75.09049988    0.40000001    3.00000000
   15.03666687   78.93419647    0.40000001    3.00000000
   15.04250050   78.93419647    0.40000001    3.00000000
   15.04638958   78.54250336    0.40000001    3.00000000
   15.04972267   80.66999817    0.40000001    3.00000000
   15.05277824   75.47440338    0.38000000    3.00000000
   15.05611134   76.13169861    0.40000001    2.98000002
   15.05916691   75.19670105    0.40000001    3.01999998
   15.06250000   77.64160156    0.40000001    3.00000000
   15.06555557   76.04060364    0.40000001    2.98000002
   15.06888866   77.60040283    0.41999999    2.98000002
   15.07194424   79.18309784    0.40000001    3.00000000
   15.07527733   77.35549927    0.40000001    3.00000000
   15.07833290   76.93309784    0.40000001    3.00000000
   15.08166695   73.80609894    0.40000001    2.98000002
   15.08472157   74.92919922    0.41999999    3.00000000
   15.08805561   76.61319733    0.41999999    3.00000000
   15.10972214   73.18270111    0.44000000    2.98000002
   15.11000061   78.48169708    0.46000001    3.00000000
   15.11333370   74.53820038    0.46000001    2.98000002
   15.11638927   74.97360229    0.46000001    2.98000002
   15.11972237   75.60820007    0.46000001    2.98000002
   15.12277794   77.26770020    0.46000001    2.98000002
   15.12611103   83.30650330    0.46000001    2.98000002
   15.12916660   78.54730225    0.46000001    2.98000002
   15.13249969   80.59140015    0.46000001    2.98000002
   15.13555527   79.94059753    0.46000001    2.98000002
   15.13888836   78.70300293    0.46000001    3.00000000
   15.14472198   78.70300293    0.46000001    2.96000004
   15.14888859   81.08480072    0.46000001    2.98000002
   15.15222168   81.47100067    0.46000001    2.98000002
   15.15527725   76.63249969    0.46000001    3.00000000
   15.15861034   73.09909821    0.47999999    2.98000002
   15.15944386   74.52429962    0.47999999    2.98000002
   15.16222191   81.95909882    0.46000001    2.98000002
   15.16527748   79.33550262    0.47999999    2.98000002
   15.16861153   84.08889771    0.47999999    2.98000002
   15.17166710   78.28099823    0.47999999    2.96000004
   15.17500019   77.70020294    0.47999999    2.98000002
   15.17805576   78.05310059    0.50000000    3.00000000
   15.18138885   77.07009888    0.47999999    3.00000000
   15.18444443   79.73919678    0.51999998    2.98000002
   15.18777752   78.34390259    0.52999997    2.98000002
   15.19083309   79.05470276    0.50000000    2.98000002
   15.19611073   79.05470276    0.51999998    3.00000000
   15.19999981   72.99909973    0.50000000    2.98000002
   15.20333290   80.90319824    0.47999999    3.00000000
   15.20638847   76.07279968    0.47999999    2.96000004
   15.20944405   74.68560028    0.50000000    3.00000000
   15.21000004   75.45420074    0.50000000    2.98000002
   15.21305561   73.20870209    0.47999999    2.98000002
   15.21638870   75.20760345    0.47999999    2.98000002
   15.21944427   78.86640167    0.47999999    2.98000002
   15.22277737   72.65460205    0.50000000    3.00000000
   15.22583294   77.54669952    0.50000000    3.00000000
   15.22916603   76.47360229    0.51999998    3.00000000
   15.23222160   81.33989716    0.51999998    3.00000000
   15.23555565   78.07679749    0.52999997    3.00000000
   15.23861122   74.66909790    0.55000001    3.00000000
   15.24194431   77.04119873    0.51999998    2.98000002
   15.24722290   77.04119873    0.50000000    2.98000002
   15.25138855   79.03880310    0.46000001    3.00000000
   15.25444412   75.75379944    0.47999999    3.00000000
   15.25777817   74.13549805    1.51999998    3.14000010
   15.25944424   73.43060303    0.05000000    0.51999998
