    HOUR (UT)   FLARE FACTOR    SKY TESTER    SUN TESTER
   12.49277782   -1.00000000   -1.00000000   -1.00000000
   12.51611137   99.18759918    1.26999998    1.91999996
   12.51944447   98.18869781    1.26999998    1.91999996
   12.52277756  104.24099731    1.26999998    1.91999996
   12.52583313   99.45649719    1.25000000    1.94000006
   12.52916622   99.97679901    1.25000000    1.94000006
   12.53222179  104.93900299    1.25000000    1.96000004
   12.53638935  104.93900299    1.25000000    1.94000006
   12.54055595  110.71700287    1.23000002    1.94000006
   12.54388905  101.23200226    1.21000004    1.96000004
   12.54694462  108.61799622    1.21000004    1.96000004
   12.54916668  110.97299957    1.21000004    1.96000004
   12.55083370  103.11799622    1.21000004    1.96000004
   12.55388927  106.03399658    1.23000002    1.96000004
   12.55722237  117.17199707    1.23000002    1.96000004
   12.56055546  108.07199860    1.25000000    1.96000004
   12.56361103  113.15100098    1.25000000    1.96000004
   12.56694412  109.59600067    1.25000000    1.96000004
   12.57027817  100.99800110    1.23000002    1.96000004
   12.57333374  103.06600189    1.21000004    1.96000004
   12.57944393  103.06600189    1.23000002    1.98000002
   12.58361053  109.85900116    1.23000002    1.98000002
   12.58666611  116.47699738    1.23000002    1.98000002
   12.59000015  113.22100067    1.25000000    1.98000002
   12.59305477  105.26799774    1.25000000    1.98000002
   12.59638882  106.94000244    1.25000000    2.00000000
   12.59972191  108.55000305    1.25000000    1.98000002
   12.60305595  111.32900238    1.25000000    2.00000000
   12.60611153  118.15899658    1.25000000    2.00000000
   12.60944462  120.44699860    1.25000000    2.00000000
   12.61277771  119.33499908    1.25000000    2.00000000
   12.61583328  129.69400024    1.23000002    2.00000000
   12.61638927  123.27899933    1.23000002    2.00000000
   12.62222195  123.27899933    1.21000004    2.00000000
   12.62638855  123.16999817    1.21000004    2.00000000
   12.62972260  116.35600281    1.21000004    2.01999998
   12.63277817  130.23500061    1.21000004    2.01999998
   12.63611126  119.23400116    1.21000004    2.00000000
   12.63944435  123.03600311    1.21000004    2.01999998
   12.64249992  127.17700195    1.21000004    2.01999998
   12.64583302  120.11599731    1.19000006    2.01999998
   12.64888859  106.46900177    1.19000006    2.01999998
   12.64944458  119.75099945    1.19000006    2.01999998
   12.65277767  109.97200012    1.16999996    2.01999998
   12.65611076  126.51899719    1.16999996    2.01999998
   12.65916634  129.90400696    1.16999996    2.01999998
   12.66499996  129.90400696    1.16999996    2.03999996
   12.66916656  125.75499725    1.19000006    2.03999996
   12.67250061  110.89499664    1.16999996    2.03999996
   12.67555618  127.45500183    1.16999996    2.03999996
   12.67888927  117.89199829    1.16999996    2.03999996
   12.68222237  116.60199738    1.16999996    2.03999996
   12.68277836  121.64700317    1.16999996    2.03999996
   12.68583298  123.00700378    1.16999996    2.03999996
   12.68916702  101.41200256    1.16999996    2.03999996
   12.69222260  115.35299683    1.16999996    2.05999994
   12.69555569  111.01200104    1.16999996    2.05999994
   12.69888878  120.71299744    1.16999996    2.03999996
   12.70194435  111.73300171    1.13000000    2.05999994
   12.70777798  111.73300171    1.11000001    2.05999994
   12.71194458  116.55899811    1.11000001    2.05999994
   12.71527767  115.74800110    1.11000001    2.07999992
   12.71611118  125.97299957    1.11000001    2.05999994
   12.71888828  118.08999634    1.11000001    2.05999994
   12.72222137  126.74199677    1.11000001    2.05999994
   12.72527695  121.65599823    1.11000001    2.07999992
   12.72861099  129.04800415    1.11000001    2.07999992
   12.73194408  117.97200012    1.09000003    2.07999992
   12.73527813  117.75199890    1.11000001    2.07999992
   12.73833370  113.85500336    1.13000000    2.07999992
   12.74166679  128.98199463    1.13000000    2.07999992
   12.74499989  110.52400208    1.13000000    2.07999992
   12.75083351  110.52400208    1.19000006    2.07999992
   12.75472260  124.95500183    1.19000006    2.07999992
   12.75805569  125.56999969    1.16999996    2.07999992
   12.76138878  123.09600067    1.16999996    2.07999992
   12.76472187  110.26699829    1.16999996    2.09999990
   12.76777744  121.45999908    1.14999998    2.09999990
   12.77111053  119.44699860    1.13000000    2.09999990
   12.77416611  111.16699982    1.13000000    2.09999990
   12.77750015  112.05500031    1.13000000    2.09999990
   12.78083324  123.76599884    1.13000000    2.09999990
   12.78277779  116.67600250    1.13000000    2.09999990
   12.78444481  115.49199677    1.13000000    2.09999990
   12.78777790  125.32800293    1.11000001    2.09999990
   12.79361153  125.32800293    1.13000000    2.09999990
   12.79777813  116.13300323    1.13000000    2.11999989
   12.80083370  122.78700256    1.13000000    2.11999989
   12.80416679  115.80899811    1.11000001    2.11999989
   12.80749989  113.68699646    1.09000003    2.11999989
   12.81055546  121.41999817    1.09000003    2.11999989
   12.81388950  126.44699860    1.07000005    2.11999989
   12.81611156  119.51499939    1.07000005    2.11999989
   12.81750011  111.31700134    1.09000003    2.11999989
   12.82083321  123.10099792    1.07000005    2.11999989
   12.82388878  112.33200073    1.05999994    2.11999989
   12.82722187  123.28700256    1.03999996    2.11999989
   12.83055592  118.83499908    1.01999998    2.13000011
   12.83638859  118.83499908    1.01999998    2.13000011
   12.84055519  116.89199829    1.03999996    2.13000011
   12.84388828  115.60800171    1.03999996    2.13000011
   12.84694386  114.96499634    1.01999998    2.13000011
   12.84944439  126.78700256    1.01999998    2.13000011
   12.85055637  117.19400024    1.01999998    2.13000011
   12.85388947  112.53900146    1.00000000    2.13000011
   12.85694504  106.05699921    0.98000002    2.13000011
   12.86027813  117.32499695    0.98000002    2.15000010
   12.86361122  113.35199738    0.98000002    2.13000011
   12.86666679  131.87500000    0.95999998    2.13000011
   12.86999989  110.14399719    0.95999998    2.15000010
   12.87305546  115.50900269    0.94000000    2.15000010
   12.87916660  115.50900269    0.92000002    2.15000010
   12.88333321  123.34500122    0.92000002    2.17000008
   12.88666630  117.98500061    0.89999998    2.15000010
   12.88972187  120.25099945    0.89999998    2.15000010
   12.89305496  111.08799744    0.89999998    2.15000010
   12.89638901  110.03800201    0.89999998    2.15000010
   12.89944458  124.88700104    0.88000000    2.15000010
   12.90277767  110.21900177    0.88000000    2.15000010
   12.90611076  115.46199799    0.88000000    2.17000008
   12.90916634  114.52500153    0.88000000    2.17000008
   12.91249943  116.87300110    0.89999998    2.17000008
   12.91555500  116.12699890    0.89999998    2.17000008
   12.91611099  117.16000366    0.89999998    2.17000008
   12.92194462  117.16000366    0.89999998    2.17000008
   12.92611122  122.98699951    0.89999998    2.15000010
   12.92944431  120.95899963    0.92000002    2.17000008
   12.93277836  121.80699921    0.92000002    2.17000008
   12.93583298  120.43699646    0.92000002    2.17000008
   12.93916702  124.85199738    0.92000002    2.19000006
   12.94250011  127.49500275    0.89999998    2.19000006
   12.94555569  123.56800079    0.89999998    2.19000006
   12.94888878  114.22399902    0.86000001    2.19000006
   12.94944477  128.79400635    0.86000001    2.19000006
   12.95249939  123.34700012    0.86000001    2.19000006
   12.95583344  132.63699341    0.86000001    2.19000006
   12.95888901  129.64399719    0.86000001    2.19000006
   12.96500015  129.64399719    0.88000000    2.19000006
   12.96916580  128.76499939    0.89999998    2.19000006
   12.97222137  131.98100281    0.89999998    2.19000006
   12.97555542  132.72700500    0.89999998    2.19000006
   12.97888851  121.29100037    0.88000000    2.21000004
   12.98194408  137.97399902    0.86000001    2.19000006
   12.98277760  128.24499512    0.86000001    2.19000006
   12.98555565  120.47200012    0.83999997    2.21000004
   12.98888874  124.90399933    0.83999997    2.21000004
   12.99194431  111.41799927    0.83999997    2.21000004
   12.99527836  133.87500000    0.81999999    2.21000004
   12.99861145  132.07299805    0.83999997    2.19000006
   13.00166702  126.91699982    0.83999997    2.19000006
   13.00777817  126.91699982    0.81999999    2.21000004
   13.01194477  122.98500061    0.80000001    2.21000004
   13.01527786  120.64499664    0.80000001    2.23000002
   13.01638889  109.18800354    0.80000001    2.21000004
   13.01861095  130.02699280    0.79000002    2.21000004
   13.02194405  123.41600037    0.80000001    2.23000002
   13.02499962  129.30700684    0.79000002    2.23000002
   13.02833271  122.79499817    0.80000001    2.21000004
   13.03166676  116.09300232    0.80000001    2.23000002
   13.03472233  119.32499695    0.80000001    2.23000002
   13.03805637  127.49099731    0.80000001    2.23000002
   13.04138947  112.34500122    0.80000001    2.23000002
   13.04444504  120.19999695    0.79000002    2.23000002
   13.05055618  120.19999695    0.79000002    2.23000002
   13.05472279  113.70899963    0.79000002    2.23000002
   13.05805588  100.42700195    0.76999998    2.25000000
   13.06111145  113.78199768    0.75000000    2.23000002
   13.06444454  111.49199677    0.76999998    2.23000002
   13.06777763  118.83399963    0.76999998    2.23000002
   13.07083321  114.29000092    0.79000002    2.25000000
   13.07416630  114.70999908    0.79000002    2.25000000
   13.07722187  117.35500336    0.79000002    2.25000000
   13.08055592  125.44799805    0.76999998    2.25000000
   13.08305550  122.36199951    0.76999998    2.23000002
   13.08416653  120.58699799    0.76999998    2.25000000
   13.08749962  119.92700195    0.76999998    2.25000000
   13.09333324  119.92700195    0.76999998    2.25000000
   13.09749985  122.31300354    0.76999998    2.25000000
   13.10083389  122.66000366    0.76999998    2.25000000
   13.10416698  123.65399933    0.75000000    2.26999998
   13.10722256  124.48200226    0.75000000    2.25000000
   13.11055565  132.83799744    0.75000000    2.25000000
   13.11361122  129.46200562    0.76999998    2.25000000
   13.11638927  130.01800537    0.76999998    2.25000000
   13.11722279  132.23399353    0.76999998    2.25000000
   13.12055588  120.59799957    0.76999998    2.26999998
   13.12361145  134.76300049    0.76999998    2.26999998
   13.12694454  128.83500671    0.76999998    2.25000000
   13.13027763  135.35499573    0.76999998    2.26999998
   13.13638878  135.35499573    0.75000000    2.26999998
   13.14055538  122.91200256    0.75000000    2.26999998
   13.14361095  123.90499878    0.75000000    2.26999998
   13.14694405  133.61799622    0.75000000    2.26999998
   13.14972210  118.71499634    0.76999998    2.26999998
   13.15055561  132.17700195    0.75000000    2.26999998
   13.15388870  128.51800537    0.75000000    2.26999998
   13.15694427  129.38600159    0.75000000    2.26999998
   13.16027737  135.81700134    0.75000000    2.26999998
   13.16361046  128.28100586    0.75000000    2.26999998
   13.16666698  125.57800293    0.73000002    2.26999998
   13.17000008  130.63699341    0.75000000    2.26999998
   13.17333412  124.05100250    0.75000000    2.26999998
   13.17916679  124.05100250    0.75000000    2.26999998
   13.18333340  124.75700378    0.75000000    2.26999998
   13.18638897  124.07700348    0.73000002    2.28999996
   13.18972206  123.67500305    0.73000002    2.28999996
   13.19305515  115.47100067    0.73000002    2.28999996
   13.19611073  120.46299744    0.70999998    2.30999994
   13.19944477  125.92500305    0.69000000    2.28999996
   13.20277786  116.97399902    0.69000000    2.28999996
   13.20583344  120.05400085    0.67000002    2.28999996
   13.20916653  112.97200012    0.64999998    2.28999996
   13.21222210  111.06900024    0.64999998    2.28999996
   13.21555519   96.46179962    0.67000002    2.28999996
   13.21638870  105.30000305    0.67000002    2.28999996
   13.22194386  105.30000305    0.64999998    2.28999996
   13.22611046  117.30200195    0.64999998    2.30999994
   13.22944355  115.15599823    0.64999998    2.30999994
   13.23249912  120.58300018    0.64999998    2.30999994
   13.23583317  119.07299805    0.67000002    2.30999994
   13.23916721  119.96700287    0.67000002    2.28999996
   13.24222279  120.26499939    0.64999998    2.30999994
   13.24555588  123.00499725    0.64999998    2.28999996
   13.24861145  116.63700104    0.67000002    2.28999996
   13.24972248  127.17099762    0.67000002    2.28999996
   13.25222206  128.38999939    0.67000002    2.30999994
   13.25555515  118.91699982    0.64999998    2.30999994
   13.25888920  116.90200043    0.64999998    2.32999992
   13.26472187  116.90200043    0.64999998    2.30999994
   13.26944447  116.17500305    0.64999998    2.30999994
   13.27250004  115.47799683    0.64999998    2.32999992
   13.27583313  122.08899689    0.64999998    2.30999994
   13.27916622  115.76399994    0.63000000    2.32999992
   13.28222179  120.65100098    0.63000000    2.30999994
   13.28305531  121.85900116    0.63000000    2.30999994
   13.28583336  116.81099701    0.64999998    2.32999992
   13.28916740  125.98699951    0.64999998    2.32999992
   13.29222298  124.98600006    0.64999998    2.32999992
   13.29555607  130.03100586    0.64999998    2.32999992
   13.29888916  114.43599701    0.64999998    2.32999992
   13.30194473  124.28600311    0.64999998    2.32999992
   13.30777836  124.28600311    0.64999998    2.32999992
   13.31166649  116.27200317    0.63000000    2.32999992
   13.31500053  107.44999695    0.63000000    2.32999992
   13.31638908  125.73899841    0.61000001    2.30999994
   13.31861115  122.71399689    0.61000001    2.32999992
   13.32194424  113.15100098    0.61000001    2.32999992
   13.32499981  116.55899811    0.61000001    2.32999992
   13.32833290  125.85700226    0.61000001    2.32999992
   13.33166695  113.72599792    0.61000001    2.32999992
   13.33472157  114.23600006    0.61000001    2.32999992
   13.33805561  122.81199646    0.61000001    2.32999992
   13.34138870  125.45300293    0.58999997    2.32999992
   13.34444427  120.43499756    0.58999997    2.32999992
   13.35055637  120.43499756    0.61000001    2.32999992
   13.35472298  120.45700073    0.58999997    2.34999990
   13.35777855  109.66799927    0.61000001    2.34999990
   13.36111164  122.43900299    0.61000001    2.34999990
   13.36444473  117.52700043    0.61000001    2.32999992
   13.36750031  109.03199768    0.61000001    2.32999992
   13.37083340  108.76100159    0.58999997    2.34999990
   13.37416649  102.57299805    0.61000001    2.34999990
   13.37722206  106.33999634    0.61000001    2.34999990
   13.38055611  114.92500305    0.61000001    2.34999990
   13.38305569  120.49900055    0.61000001    2.34999990
   13.38416672  115.15699768    0.61000001    2.34999990
   13.38749981  116.21800232    0.61000001    2.34999990
   13.39333344  116.21800232    0.58999997    2.34999990
   13.39750004  110.10099792    0.58999997    2.36999989
   13.40083313  120.19999695    0.58999997    2.34999990
   13.40388870  118.92600250    0.58999997    2.34999990
   13.40722179  123.96800232    0.58999997    2.34999990
   13.41027737  114.71199799    0.56999999    2.34999990
   13.41361046  113.00700378    0.56999999    2.34999990
   13.41638851  113.55999756    0.55000001    2.36999989
   13.41722298  129.63699341    0.55000001    2.36999989
   13.42055607  114.91300201    0.55000001    2.36999989
   13.42361164  113.49299622    0.55000001    2.36999989
   13.42694473  100.19400024    0.55000001    2.36999989
   13.43027782  113.64499664    0.55000001    2.36999989
   13.43611145  113.64499664    0.55000001    2.36999989
   13.44027805  113.28399658    0.55000001    2.36999989
   13.44361115  114.91999817    0.55000001    2.36999989
   13.44694424  111.60600281    0.56999999    2.36999989
   13.44972229  112.10600281    0.56999999    2.36999989
   13.45027733  113.53900146    0.56999999    2.36999989
   13.45361137  107.95800018    0.56999999    2.36999989
   13.45694447  113.92700195    0.56999999    2.36999989
   13.46000004  112.97299957    0.55000001    2.36999989
   13.46333313  100.26699829    0.55000001    2.36999989
   13.46638870  115.41699982    0.52999997    2.36999989
   13.46972179  117.92600250    0.52999997    2.39000010
   13.47305489  105.18000031    0.52999997    2.36999989
   13.47916603  105.18000031    0.52999997    2.36999989
   13.48333359  107.50199890    0.52999997    2.36999989
   13.48638916  108.48300171    0.51999998    2.36999989
   13.48972225  118.80599976    0.51999998    2.39000010
   13.49277782  113.53299713    0.51999998    2.39000010
   13.49611092  118.84400177    0.51999998    2.39000010
   13.49944496  107.65000153    0.52999997    2.36999989
   13.50249958  102.93399811    0.52999997    2.39000010
   13.50583363  107.33200073    0.52999997    2.39000010
   13.50916672   97.19680023    0.52999997    2.39000010
   13.51222229  104.16300201    0.51999998    2.36999989
   13.51555538  113.04199982    0.52999997    2.39000010
   13.51638889   97.91290283    0.52999997    2.39000010
   13.53694534   97.91290283    0.55000001    2.39000010
   13.54111195  111.41899872    0.52999997    2.39000010
   13.54444504  102.58799744    0.52999997    2.39000010
   13.54750061  106.97499847    0.55000001    2.39000010
   13.54972267  102.76599884    0.52999997    2.39000010
   13.55111122  101.08100128    0.52999997    2.39000010
   13.55444431  107.34700012    0.51999998    2.39000010
   13.55777836  117.62300110    0.52999997    2.39000010
   13.56083393  111.74199677    0.52999997    2.39000010
   13.56416702  113.51399994    0.51999998    2.40000010
   13.56750011  110.63400269    0.51999998    2.40000010
   13.57055569  111.09600067    0.51999998    2.39000010
   13.57388878  102.76699829    0.51999998    2.39000010
   13.57972240  102.76699829    0.51999998    2.40000010
   13.58388901  113.60500336    0.50000000    2.39000010
   13.58722210  108.00599670    0.50000000    2.40000010
   13.59027767  106.55000305    0.50000000    2.40000010
   13.59361076  109.40499878    0.50000000    2.40000010
   13.59666634  115.57199860    0.50000000    2.40000010
   13.60000038  111.06600189    0.50000000    2.40000010
   13.60333347  112.77600098    0.50000000    2.40000010
   13.60638905  113.43299866    0.47999999    2.40000010
   13.60972214  115.15499878    0.47999999    2.40000010
   13.61305618   97.54340363    0.47999999    2.40000010
   13.61611176  100.32700348    0.47999999    2.40000010
   13.61666679  113.05100250    0.47999999    2.40000010
   13.62250042  113.05100250    0.50000000    2.40000010
   13.62666702  125.69899750    0.50000000    2.40000010
   13.63000011  122.71600342    0.50000000    2.40000010
   13.63305569  106.82099915    0.50000000    2.40000010
   13.63638878  114.15599823    0.50000000    2.40000010
   13.63972187  116.65699768    0.50000000    2.40000010
   13.64277744  118.02400208    0.47999999    2.42000008
   13.64611053  112.63500214    0.47999999    2.42000008
   13.64944458  118.66200256    0.47999999    2.40000010
   13.64999962  120.59899902    0.47999999    2.40000010
   13.65305519  122.26799774    0.47999999    2.40000010
   13.65611076  107.85299683    0.50000000    2.40000010
   13.65944386  116.63200378    0.50000000    2.42000008
   13.66555500  116.63200378    0.51999998    2.40000010
   13.66944504  113.77300262    0.52999997    2.40000010
   13.67277813  117.09300232    0.51999998    2.40000010
   13.67611122  110.81400299    0.51999998    2.42000008
   13.67916679  123.03900146    0.51999998    2.40000010
   13.68249989  118.48999786    0.52999997    2.42000008
   13.68333340  117.73600006    0.51999998    2.42000008
   13.68611145  124.15000153    0.51999998    2.40000010
   13.68916702  122.80300140    0.51999998    2.42000008
   13.69250011  119.04599762    0.51999998    2.42000008
   13.69583321  113.80400085    0.51999998    2.42000008
   13.69888878  116.43199921    0.52999997    2.42000008
   13.70222187  114.09600067    0.51999998    2.42000008
   13.70833302  114.09600067    0.52999997    2.42000008
   13.71249962  108.10700226    0.55000001    2.42000008
   13.71555519  129.22300720    0.52999997    2.42000008
   13.71666622  114.69799805    0.52999997    2.42000008
   13.71944427  131.08399963    0.55000001    2.42000008
   13.72249985  124.85800171    0.51999998    2.42000008
   13.72583294  120.58999634    0.51999998    2.42000008
   13.72916603  139.66400146    0.51999998    2.42000008
   13.73222160  121.89099884    0.52999997    2.42000008
   13.73555565  116.05699921    0.52999997    2.42000008
   13.73888874  124.79799652    0.52999997    2.42000008
   13.74194431  130.61300659    0.55000001    2.42000008
   13.74527836  114.13400269    0.52999997    2.42000008
   13.75111103  114.13400269    0.52999997    2.42000008
   13.75527763  126.34899902    0.52999997    2.42000008
   13.75861073  130.20100403    0.55000001    2.42000008
   13.76166630  122.04499817    0.52999997    2.42000008
   13.76500034  120.34200287    0.52999997    2.42000008
   13.76805496  132.95799255    0.51999998    2.44000006
   13.77138901  130.11099243    0.51999998    2.44000006
   13.77472210  137.62199402    0.51999998    2.42000008
   13.77777767  137.42599487    0.52999997    2.42000008
   13.78111076  129.47599792    0.55000001    2.42000008
   13.78333378  136.50399780    0.55000001    2.42000008
   13.78472233  139.89500427    0.55000001    2.42000008
   13.78777790  133.12399292    0.55000001    2.42000008
   13.79388905  133.12399292    0.55000001    2.44000006
   13.79805565  131.99299622    0.55000001    2.44000006
   13.80138874  135.98599243    0.55000001    2.44000006
   13.80444431  136.51499939    0.55000001    2.44000006
   13.80777836  125.61900330    0.55000001    2.44000006
   13.81111145  132.32899475    0.55000001    2.44000006
   13.81416702  121.97899628    0.52999997    2.46000004
   13.81666660  123.96199799    0.52999997    2.46000004
   13.81805515  123.56500244    0.52999997    2.44000006
   13.82111073  124.48500061    0.47999999    2.46000004
   13.82444477  125.72699738    0.50000000    2.44000006
   13.82777786  119.79199982    0.47999999    2.44000006
   13.83083344  125.66899872    0.50000000    2.44000006
   13.83694458  125.66899872    0.50000000    2.46000004
   13.84083271  120.17600250    0.50000000    2.44000006
   13.84416676  118.69499969    0.47999999    2.44000006
   13.84749985  111.09400177    0.46000001    2.46000004
   13.85000038  119.25199890    0.46000001    2.46000004
   13.85111141  108.36000061    0.46000001    2.46000004
   13.85416698  108.46700287    0.44000000    2.46000004
   13.85750008  119.85800171    0.44000000    2.46000004
   13.86083412  119.80100250    0.46000001    2.46000004
   13.86388969  113.58399963    0.46000001    2.46000004
   13.86722279  113.09200287    0.46000001    2.46000004
   13.87055588  123.85800171    0.46000001    2.46000004
   13.87361145  120.59300232    0.46000001    2.46000004
   13.87972260  120.59300232    0.50000000    2.46000004
   13.88388920  120.81400299    0.50000000    2.46000004
   13.88694477  117.42199707    0.51999998    2.46000004
   13.89027786  125.34400177    0.51999998    2.46000004
   13.89361095  127.35500336    0.51999998    2.46000004
   13.89666653  110.08399963    0.50000000    2.46000004
   13.89999962  122.68499756    0.50000000    2.46000004
   13.90305519  113.69699860    0.50000000    2.44000006
   13.90638828  117.76599884    0.50000000    2.46000004
   13.90972137  120.52899933    0.47999999    2.46000004
   13.91277695  112.03500366    0.47999999    2.46000004
   13.91611099  115.62599945    0.47999999    2.46000004
   13.91666698  122.31800079    0.47999999    2.46000004
   13.92250061  122.31800079    0.47999999    2.46000004
   13.92666721  119.12699890    0.47999999    2.46000004
   13.92972279  114.32099915    0.46000001    2.46000004
   13.93305588  119.28900146    0.47999999    2.46000004
   13.93638897  112.35299683    0.47999999    2.46000004
   13.93944454  106.46299744    0.47999999    2.46000004
   13.94277763  116.14299774    0.50000000    2.46000004
   13.94611073  103.48200226    0.50000000    2.46000004
   13.94916630  116.12000275    0.50000000    2.46000004
   13.94999981  109.64099884    0.50000000    2.46000004
   13.95277786  118.05699921    0.50000000    2.46000004
   13.95611095  110.94200134    0.50000000    2.46000004
   13.95916653  105.70999908    0.51999998    2.46000004
   13.96527767  105.70999908    0.50000000    2.46000004
   13.96944427  110.97100067    0.51999998    2.46000004
   13.97277737  100.66500092    0.50000000    2.48000002
   13.97583294   99.56749725    0.50000000    2.48000002
   13.97916603  115.74400330    0.47999999    2.48000002
   13.98249912  100.20600128    0.46000001    2.48000002
   13.98333359  106.47299957    0.44000000    2.48000002
   13.98611164  105.71700287    0.46000001    2.46000004
   13.98944473  105.39499664    0.46000001    2.48000002
   13.99250031  107.30999756    0.46000001    2.48000002
   13.99583340  111.20600128    0.46000001    2.46000004
   13.99888897  112.84700012    0.46000001    2.46000004
   14.00222206  112.97599792    0.46000001    2.46000004
   14.00833321  112.97599792    0.44000000    2.46000004
   14.01222229  112.62799835    0.44000000    2.48000002
   14.01555538  107.48000336    0.44000000    2.48000002
   14.01666641  117.81900024    0.44000000    2.48000002
   14.01916599  105.40899658    0.44000000    2.48000002
   14.02250004  113.13899994    0.44000000    2.48000002
   14.02555561  104.80899811    0.44000000    2.48000002
   14.02888870   96.06289673    0.44000000    2.48000002
   14.03194427  103.51300049    0.44000000    2.48000002
   14.03527832  103.06099701    0.44000000    2.46000004
   14.03861141  105.05999756    0.44000000    2.48000002
   14.04194450  104.23600006    0.44000000    2.48000002
   14.04500008  109.88400269    0.44000000    2.48000002
   14.05111122  109.88400269    0.44000000    2.48000002
   14.05527782  115.01599884    0.44000000    2.48000002
   14.05833340  108.58899689    0.44000000    2.48000002
   14.06166649  103.18499756    0.44000000    2.48000002
   14.06472206  105.79699707    0.44000000    2.48000002
   14.06805515   98.80370331    0.41999999    2.48000002
   14.07138920   95.78589630    0.41999999    2.48000002
   14.07444477   98.79219818    0.44000000    2.48000002
   14.07777786   93.95670319    0.44000000    2.48000002
   14.08111095  107.50800323    0.44000000    2.48000002
   14.08333302   97.15740204    0.44000000    2.48000002
   14.08472157  101.64099884    0.46000001    2.50000000
   14.08805561   96.07379913    0.44000000    2.48000002
   14.09388828   96.07379913    0.44000000    2.48000002
   14.09805489  102.74700165    0.44000000    2.48000002
   14.10111141   95.83209991    0.44000000    2.48000002
   14.10444450  107.84500122    0.44000000    2.48000002
   14.10777855   89.16310120    0.46000001    2.48000002
   14.11083412  103.87100220    0.46000001    2.48000002
   14.11416721  101.43399811    0.41999999    2.48000002
   14.11666679  100.46600342    0.41999999    2.48000002
   14.11777782   91.83419800    0.41999999    2.50000000
   14.12111092   99.15390015    0.41999999    2.48000002
   14.12416649  100.00299835    0.41999999    2.50000000
   14.12750053   98.80149841    0.41999999    2.48000002
   14.13083363  103.09999847    0.41999999    2.48000002
   14.13666630  103.09999847    0.40000001    2.48000002
   14.14083290  103.83000183    0.40000001    2.48000002
   14.14416695  101.78800201    0.40000001    2.50000000
   14.14722252   96.84700012    0.40000001    2.50000000
   14.14999962  103.95600128    0.40000001    2.50000000
   14.15083313  103.90599823    0.40000001    2.50000000
   14.15416622   93.62969971    0.40000001    2.50000000
   14.15722179  107.39700317    0.38000000    2.50000000
   14.16055489  102.92700195    0.38000000    2.50000000
   14.16361046  102.17099762    0.40000001    2.50000000
   14.16694450  100.49700165    0.40000001    2.50000000
   14.17027855  102.23600006    0.40000001    2.50000000
   14.17333412   93.37059784    0.40000001    2.50000000
   14.17972279   93.37059784    0.40000001    2.50000000
   14.18361092  104.59600067    0.41999999    2.50000000
   14.18694496  105.52400208    0.41999999    2.50000000
   14.19027805  101.21199799    0.40000001    2.50000000
   14.19333363  107.86799622    0.41999999    2.50000000
   14.19666672  107.71199799    0.41999999    2.50000000
   14.19972229  105.81099701    0.41999999    2.50000000
   14.20305538   98.09359741    0.41999999    2.50000000
   14.20638847  106.16899872    0.41999999    2.50000000
   14.20944405   97.51589966    0.40000001    2.51999998
   14.21277714  102.27799988    0.40000001    2.50000000
   14.21611118  101.39299774    0.40000001    2.50000000
   14.21666622  100.14299774    0.40000001    2.50000000
   14.22249985  100.14299774    0.38000000    2.50000000
   14.22666645  101.13400269    0.38000000    2.50000000
   14.22972202   99.94100189    0.38000000    2.51999998
   14.23305511   99.58129883    0.38000000    2.50000000
   14.23611164   92.68769836    0.38000000    2.50000000
   14.23944473  105.26399994    0.40000001    2.50000000
   14.24277782  101.83200073    0.38000000    2.50000000
   14.24583340   99.98079681    0.38000000    2.50000000
   14.24916649   91.67520142    0.38000000    2.50000000
   14.25000000  103.23100281    0.38000000    2.50000000
   14.25277805   93.21279907    0.40000001    2.50000000
   14.25611115   94.31759644    0.38000000    2.51999998
   14.25916672  100.46900177    0.38000000    2.51999998
   14.26527786  100.46900177    0.40000001    2.50000000
   14.26944447   94.02349854    0.34000000    2.50000000
   14.27277756   95.85220337    0.34000000    2.50000000
   14.27583313   94.20439911    0.34000000    2.50000000
   14.27916622   96.51509857    0.36000001    2.50000000
   14.28222179  106.71800232    0.36000001    2.51999998
   14.28333378   93.17859650    0.36000001    2.51999998
   14.28583336   96.51699829    0.38000000    2.51999998
   14.28916740  100.67099762    0.36000001    2.50000000
   14.29222298   96.46099854    0.36000001    2.50000000
   14.29555607   97.31800079    0.38000000    2.51999998
   14.29888916   91.36979675    0.38000000    2.51999998
   14.30194473   95.28060150    0.36000001    2.51999998
   14.30805588   95.28060150    0.36000001    2.51999998
   14.31222248   98.47560120    0.36000001    2.51999998
   14.31555557  102.04199982    0.38000000    2.51999998
   14.31666660   93.27819824    0.36000001    2.51999998
   14.31916618   96.90290070    0.36000001    2.51999998
   14.32250023   91.47209930    0.36000001    2.51999998
   14.32555580   93.01239777    0.38000000    2.51999998
   14.32888889   91.75620270    0.36000001    2.51999998
   14.33222198  100.12300110    0.36000001    2.50000000
   14.33527756   97.33470154    0.34000000    2.51999998
   14.33861065   90.57569885    0.34000000    2.51999998
   14.34166622   92.51219940    0.34000000    2.51999998
   14.34499931   91.91179657    0.34000000    2.51999998
   14.35083389   91.91179657    0.36000001    2.51999998
   14.35527802   92.21070099    0.34000000    2.51999998
   14.35861111   98.20980072    0.34000000    2.51999998
   14.36166668   91.13259888    0.34000000    2.51999998
   14.36500072   97.84100342    0.34000000    2.51999998
   14.36805534   91.69819641    0.34000000    2.51999998
   14.37138939   82.49710083    0.34000000    2.51999998
   14.37472248   90.11370087    0.34000000    2.51999998
   14.37777805   97.06770325    0.31999999    2.51999998
   14.38111115   91.61540222    0.34000000    2.51999998
   14.38333321   85.81230164    0.34000000    2.51999998
   14.38472176   89.68579865    0.34000000    2.51999998
   14.38805580   89.04850006    0.34000000    2.53999996
   14.39388847   89.04850006    0.34000000    2.51999998
   14.39805508  100.04199982    0.34000000    2.51999998
   14.40111065   92.22889709    0.34000000    2.51999998
   14.40444374   92.39019775    0.34000000    2.51999998
   14.40749931   96.20619965    0.34000000    2.51999998
   14.41083336   93.83519745    0.36000001    2.51999998
   14.41416645   94.82720184    0.36000001    2.53999996
   14.41694450   90.09770203    0.34000000    2.53999996
   14.41777802  101.08799744    0.34000000    2.53999996
   14.42111111   92.35350037    0.34000000    2.53999996
   14.42416668   91.10600281    0.34000000    2.53999996
   14.42750072   98.70429993    0.34000000    2.51999998
   14.43083382   95.85430145    0.34000000    2.51999998
   14.43666649   95.85430145    0.34000000    2.53999996
   14.44083309   94.59420013    0.34000000    2.53999996
   14.44388866   93.51010132    0.36000001    2.53999996
   14.44722271   87.90290070    0.36000001    2.53999996
   14.45027733   98.15080261    0.38000000    2.53999996
   14.45083332   99.71959686    0.38000000    2.53999996
   14.45416641   97.28929901    0.38000000    2.53999996
   14.45722198   95.57790375    0.36000001    2.53999996
   14.46055508   92.40489960    0.36000001    2.53999996
   14.46388912   86.24169922    0.36000001    2.53999996
   14.46694374   93.33419800    0.41999999    2.53999996
   14.47027779   88.10399628    0.41999999    2.53999996
   14.47361088   87.78919983    0.51999998    2.53999996
   14.47944355   87.78919983    0.47999999    2.53999996
   14.48361111  101.41200256    0.47999999    2.53999996
   14.48694515   93.00340271    0.47999999    2.53999996
   14.49000072   94.93129730    0.46000001    2.53999996
   14.49333382   87.11830139    0.50000000    2.53999996
   14.49666691  106.95600128    0.46000001    2.53999996
   14.49972248   93.68939972    0.44000000    2.53999996
   14.50305557   95.65979767    0.44000000    2.53999996
   14.50611115   94.05229950    0.41999999    2.53999996
   14.50944424   98.81659698    0.41999999    2.53999996
   14.51277733   87.06479645    0.55000001    2.53999996
   14.51583290   91.53959656    0.98000002    2.53999996
   14.51694393   97.99880219    0.98000002    2.53999996
   14.52222157   97.99880219    0.44000000    2.51999998
   14.52638817   89.99379730    0.46000001    2.53999996
   14.52972221   95.30400085    0.47999999    2.51999998
   14.53305531   91.20970154    0.46000001    2.53999996
   14.55055618   90.79399872    0.55000001    2.51999998
   14.55305576   95.01509857    0.55000001    2.53999996
   14.55611134   86.24079895    0.55000001    2.53999996
   14.55944443  100.60600281    0.55000001    2.53999996
   14.56527805  100.60600281    0.52999997    2.53999996
   14.56944466   97.91390228    0.52999997    2.53999996
   14.57277775   98.21540070    0.47999999    2.53999996
   14.57583332   98.45349884    0.44000000    2.53999996
   14.57916641   93.32990265    0.44000000    2.53999996
   14.58249950   95.98739624    0.44000000    2.53999996
   14.58388901  102.07199860    0.44000000    2.53999996
   14.58611107  102.03500366    0.47999999    2.53999996
   14.58944416   99.81040192    0.58999997    2.51999998
   14.59277725  101.26599884    0.56999999    2.53999996
   14.59583282   92.77819824    2.21000004    2.53999996
   14.59916592  104.15499878    0.80000001    2.55999994
   14.60222244   91.67040253    0.69000000    2.55999994
   14.60833359   91.67040253    1.11000001    2.57999992
   14.61222267   92.27729797    1.23000002    2.57999992
   14.61555576   94.01999664    3.73000002    2.57999992
   14.61722279   97.50399780    3.73000002    2.57999992
   14.61916637   91.82800293    3.73000002    2.57999992
   14.62250042   99.87709808    4.44999981    2.61999989
   14.62583351  106.28600311    4.90999985    2.64000010
   14.62888908   94.01059723    4.90999985    2.64000010
   14.63222218   99.01069641    4.90999985    2.61999989
   14.63555527   88.21769714    4.90999985    2.61999989
   14.63861084  100.20099640    4.90999985    2.61999989
   14.64194393   94.35520172    4.88999987    2.61999989
   14.64499950   95.20670319    3.14000010    2.61999989
   14.65111065   95.20670319    0.61000001    2.57999992
   14.65527725   96.71459961    1.13000000    2.57999992
   14.65833282   94.41999817    0.50000000    2.55999994
   14.66166592  100.74400330    0.50000000    2.55999994
   14.66499996   90.25469971    3.78999996    2.55999994
   14.66805553   96.09649658    4.90999985    2.30999994
   14.67138958  165.77400208    4.90999985    1.85000002
   14.67444515   99.76979828    4.90999985    2.03999996
   14.67777824  193.00700378    4.90999985    1.96000004
   14.68111134  336.55599976    4.90999985    1.64999998
   14.68305588   88.62030029    4.90999985    1.58000004
   14.68305588   94.41999817    0.50000000    2.55999994
   14.68333340  100.74400330    0.50000000    2.55999994
   14.68333340   90.25469971    3.78999996    2.55999994
   14.68333340   96.09649658    4.90999985    2.30999994
   14.68361092  165.77400208    4.90999985    1.85000002
   14.68361092   99.76979828    4.90999985    2.03999996
   14.68361092  193.00700378    4.90999985    1.96000004
   14.68388939  336.55599976    4.90999985    1.64999998
   14.68388939   96.71459961    1.13000000    2.57999992
   14.68944454   -1.00000000    4.90999985    1.44000006
   14.69250011   -1.00000000    4.90999985    1.16999996
   14.69583321   43.03549957    4.90999985    1.38000000
   14.69916630   -1.00000000    4.90999985    1.33000004
   14.70222187   -1.00000000    4.90999985    1.19000006
   14.71055508   -1.00000000    4.90999985    0.64999998
   14.71361065   -1.00000000    4.90999985    0.50000000
   14.71694374   -1.00000000    4.90999985    0.56999999
   14.72027779   -1.00000000    4.90999985    0.63000000
   14.72361088   -1.00000000    4.90999985    0.67000002
   14.72694397   -1.00000000    4.90999985    0.63000000
   14.72999954   -1.00000000    4.90999985    0.70999998
   14.73333359   -1.00000000    4.90999985    0.73000002
   14.73638916   -1.00000000    4.90999985    0.76999998
   14.73972225   -1.00000000    4.90999985    0.76999998
   14.74305534   -1.00000000    4.90999985    0.73000002
   14.75333309   -1.00000000    4.90999985    0.61000001
   14.75666714   -1.00000000    4.90999985    0.63000000
   14.75972176   -1.00000000    4.90999985    0.75000000
   14.76305580   -1.00000000    4.90999985    0.73000002
   14.76611137   -1.00000000    4.90999985    0.81999999
   14.76944447   -1.00000000    4.90999985    0.81999999
   14.77277756   -1.00000000    4.90999985    1.14999998
   14.77583313  149.53300476    4.90999985    1.96000004
   14.77916622   -1.00000000    4.90999985    1.48000002
   14.78249931   -1.00000000    4.90999985    0.94000000
   14.78555584   -1.00000000    4.90999985    0.83999997
   14.79222298   -1.00000000    4.90999985    1.13000000
   14.79611111  132.66000366    4.90999985    1.85000002
   14.79944515  134.79299927    4.90999985    2.23000002
   14.80277824  107.35399628    4.90999985    2.19000006
   14.80583382  102.51799774    4.90999985    2.61999989
   14.80916691   98.10970306    4.90999985    2.64000010
   14.81250000  101.67099762    4.90999985    2.66000009
   14.81555557  101.73600006    4.90999985    2.66000009
   14.81888866   99.35549927    4.90999985    2.66000009
   14.81944466   93.07299805    4.90999985    2.66000009
   14.82250023  100.63999939    4.90999985    2.64000010
   14.82555580  103.61100006    3.39000010    2.61999989
   14.82888889  102.64199829    0.44000000    2.61999989
   14.83500004  102.64199829    1.44000006    2.59999990
   14.83916664   91.91259766    1.23000002    2.59999990
   14.84222221   86.14510345    2.44000006    2.32999992
   14.84555531   93.65830231    4.90999985    2.36999989
   14.84888840  179.38499451    4.90999985    1.34000003
   14.85194492   99.48719788    4.90999985    1.61000001
   14.85277843  121.92800140    4.90999985    1.51999998
   14.85555553  338.02499390    4.90999985    1.91999996
   14.85750008  103.82399750    4.90999985    2.05999994
   14.85777855  103.61100006    3.39000010    2.61999989
   14.85777855  102.64199829    0.44000000    2.61999989
   14.85777855   91.91259766    1.23000002    2.59999990
   14.85805607   86.14510345    2.44000006    2.32999992
   14.85805607   93.65830231    4.90999985    2.36999989
   14.85805607  179.38499451    4.90999985    1.34000003
   14.85833359   99.48719788    4.90999985    1.61000001
   14.85833359  338.02499390    4.90999985    1.91999996
   14.85833359  100.63999939    4.90999985    2.64000010
   14.86027813   97.59519958    4.90999985    2.39000010
   14.86361122  118.80100250    4.90999985    2.51999998
   14.86694431  160.38699341    4.90999985    2.44000006
   14.86999989  122.06500244    4.90999985    2.19000006
   14.87333393  108.12500000    4.90999985    2.21000004
   14.87833309  108.12500000    4.90999985    2.36999989
   14.88249969   90.99410248    4.90999985    2.46000004
   14.88583279   94.47170258    4.90999985    2.69000006
   14.88888836   91.00599670    4.90999985    2.69000006
   14.89138889   94.84439850    4.90999985    2.69000006
   14.89277744  100.00800323    4.90999985    2.67000008
   14.89583302   95.38099670    2.98000002    2.66000009
   14.89916611   97.57550049    0.55000001    2.64000010
   14.90249920   91.26999664    0.40000001    2.59999990
   14.90555477   97.90899658    0.38000000    2.57999992
   14.90888882   94.88020325    0.40000001    2.59999990
   14.91194439   92.32150269    1.85000002    2.59999990
   14.91527748   88.31069946    3.72000003    2.55999994
   14.92111111   88.31069946    4.51000023    2.55999994
   14.92527771   94.30719757    3.07999992    2.28999996
   14.92861176   95.46880341    4.90999985    2.21000004
   14.93166733   90.33429718    2.53999996    2.28999996
   14.93500042   89.30480194    1.53999996    2.57999992
   14.93833351  100.56199646    0.36000001    2.59999990
   14.94166660   90.17120361    0.38000000    2.59999990
   14.94472218  100.05799866    1.30999994    2.61999989
   14.94805527   95.78140259    4.90999985    2.66000009
   14.95111084  116.00499725    4.90999985    2.66000009
   14.95444393   -1.00000000    4.90999985    1.86000001
   14.95777798  137.38900757    4.90999985    1.50000000
   14.96416664   -1.00000000    4.90999985    2.42000008
   14.96805477   91.65170288    4.90999985    2.17000008
   14.97138882   -1.00000000    4.90999985    2.11999989
   14.97472191   38.09519958    4.90999985    1.53999996
   14.97777748  104.16400146    4.90999985    2.11999989
   14.98111057   -1.00000000    4.90999985    1.98000002
   14.98444462   -1.00000000    4.90999985    1.38000000
   14.98750019   -1.00000000    4.90999985    1.21000004
   14.99083328   -1.00000000    4.90999985    1.03999996
   14.99444485   -1.00000000    4.90999985    0.69000000
   14.99777794   -1.00000000    4.90999985    0.50000000
   15.00083351   -1.00000000    4.90999985    0.47999999
   15.01083374   -1.00000000    4.90999985    0.76999998
   15.01416683   -1.00000000    4.90999985    0.88000000
   15.01749992   -1.00000000    4.90999985    0.95999998
   15.02083302  236.46099854    4.90999985    1.51999998
   15.02388859  223.55099487    4.90999985    1.63000000
   15.02499962  263.01000977    4.90999985    1.63000000
   15.02750015  319.61801147    4.90999985    1.73000002
   15.02972221   -1.00000000    4.90999985    0.50000000
   15.02972221   -1.00000000    4.90999985    0.47999999
   15.02972221   -1.00000000    4.90999985    0.76999998
   15.02999973   -1.00000000    4.90999985    0.88000000
   15.02999973   -1.00000000    4.90999985    0.95999998
   15.02999973  236.46099854    4.90999985    1.51999998
   15.03027725  223.55099487    4.90999985    1.63000000
   15.03027725  319.61801147    4.90999985    1.73000002
   15.03027725   -1.00000000    4.90999985    0.69000000
   15.03222179  203.65899658    4.90999985    1.60000002
   15.03555584   74.06590271    4.90999985    1.76999998
   15.03888893   -1.00000000    4.90999985    1.36000001
   15.04194450   -1.00000000    4.90999985    0.92000002
   15.04527855   -1.00000000    4.90999985    0.76999998
   15.05444431   -1.00000000    4.90999985    0.92000002
   15.05749989   -1.00000000    4.90999985    1.09000003
   15.06083393   -1.00000000    4.90999985    0.83999997
   15.06444454   -1.00000000    4.90999985    0.63000000
   15.06750011   -1.00000000    4.90999985    0.81999999
   15.07083321   -1.00000000    4.90999985    0.73000002
   15.07388878   -1.00000000    4.90999985    0.67000002
   15.07722187   -1.00000000    4.90999985    0.51999998
   15.08055592   -1.00000000    4.90999985    0.46000001
   15.08361053   -1.00000000    4.90999985    0.55000001
   15.08694458   -1.00000000    4.90999985    0.40000001
   15.09722233   -1.00000000    4.90999985    0.30000001
   15.10055637   -1.00000000    4.90999985    0.20999999
   15.10361195   -1.00000000    4.90999985    0.23000000
   15.10694504   -1.00000000    4.90999985    0.25000000
   15.11027813   -1.00000000    4.90999985    0.20999999
   15.11333370   -1.00000000    4.90999985    0.23000000
   15.11666679   -1.00000000    4.90999985    0.47999999
   15.11972237   -1.00000000    4.90999985    0.94000000
   15.12305546   -1.00000000    4.90999985    0.41999999
   15.12638855   -1.00000000    4.90999985    0.56999999
   15.12944412   -1.00000000    4.90999985    1.03999996
   15.13611126   -1.00000000    4.90999985    1.55999994
   15.14027786   -1.00000000    4.90999985    1.28999996
   15.14333344   -1.00000000    4.90999985    0.83999997
   15.14666653   -1.00000000    4.90999985    0.58999997
   15.14972210   -1.00000000    4.90999985    0.50000000
   15.15305519   -1.00000000    4.90999985    0.41999999
   15.15638828   -1.00000000    4.90999985    0.38000000
   15.15944386   -1.00000000    4.90999985    0.46000001
   15.16277695   -1.00000000    4.90999985    0.46000001
   15.16638851   -1.00000000    4.90999985    0.41999999
   15.16944504   -1.00000000    4.90999985    0.31999999
   15.17277813   -1.00000000    4.90999985    0.30000001
   15.18305588   -1.00000000    4.90999985    0.17000000
   15.18611145   -1.00000000    4.90999985    0.17000000
   15.18944454   -1.00000000    4.90999985    0.17000000
   15.19250011   -1.00000000    4.90999985    0.19000000
   15.19583321   -1.00000000    4.90999985    0.20999999
   15.19944477   -1.00000000    4.90999985    0.25999999
   15.20249939   -1.00000000    4.90999985    0.23000000
   15.20583344   -1.00000000    4.90999985    0.20999999
   15.20916653   -1.00000000    4.90999985    0.20999999
   15.21222210   -1.00000000    4.90999985    0.17000000
   15.21555519   -1.00000000    4.90999985    0.17000000
   15.22583294   -1.00000000    4.90999985    0.15000001
   15.22888851   -1.00000000    4.90999985    0.11000000
   15.23277760   -1.00000000    4.90999985    0.11000000
   15.23583317   -1.00000000    4.90999985    0.11000000
   15.23916721   -1.00000000    4.90999985    0.09000000
   15.24250031   -1.00000000    4.90999985    0.09000000
   15.24555588   -1.00000000    4.90999985    0.09000000
   15.24888897   -1.00000000    4.90999985    0.09000000
   15.25194454   -1.00000000    4.90999985    0.09000000
   15.25527763   -1.00000000    4.90999985    0.11000000
   15.25861073   -1.00000000    4.90999985    0.17000000
   15.26861095   -1.00000000    4.90999985    0.52999997
   15.27194405   -1.00000000    4.90999985    0.69000000
   15.27499962   -1.00000000    4.90999985    0.79000002
   15.27833271   -1.00000000    4.90999985    1.14999998
   15.28166676  133.48800659    4.90999985    1.50000000
   15.28472233  113.22899628    4.90999985    2.40000010
   15.28805637  111.78600311    4.90999985    2.75000000
   15.29111195  110.69300079    4.90999985    2.75000000
   15.29444504   99.23139954    4.90999985    2.67000008
   15.29666710   94.49050140    4.90999985    2.57999992
   15.29805565  113.18599701    4.90999985    2.34999990
   15.30138874   99.58589935    4.90999985    2.48000002
   15.30749989   99.58589935    4.90999985    2.51999998
   15.31166649   93.19989777    4.90999985    2.57999992
   15.31472206  107.69400024    4.90999985    2.57999992
   15.31805515  102.17199707    4.90999985    2.53999996
   15.32138920   99.07890320    4.90999985    2.61999989
   15.32444477  101.17500305    4.90999985    2.50000000
   15.32777786  139.39300537    4.90999985    2.03999996
   15.32999992  276.14498901    4.90999985    1.96000004
   15.33138847   78.71109772    4.90999985    1.64999998
   15.33472157  195.24800110    4.90999985    1.51999998
   15.33777714   -1.00000000    4.90999985    0.98000002
   15.34111118   -1.00000000    4.90999985    1.23000002
   15.34444427   -1.00000000    4.90999985    1.46000004
   15.35444450   -1.00000000    4.90999985    1.34000003
   15.35750008   -1.00000000    4.90999985    0.76999998
   15.36083412   -1.00000000    4.90999985    0.56999999
   15.36444473   -1.00000000    4.90999985    0.63000000
   15.36750031   -1.00000000    4.90999985    0.56999999
   15.37083340   -1.00000000    4.90999985    0.52999997
   15.37416649   -1.00000000    4.90999985    0.63000000
   15.48083305   -1.00000000   -1.00000000   -1.00000000
   15.65111065   -1.00000000   -1.00000000   -1.00000000
   15.75972176   -1.00000000   -1.00000000   -1.00000000
   17.54861069  128.73399353    0.75000000    2.61999989
   17.55249977  139.87300110    0.75000000    2.61999989
   17.55583191  134.37699890    0.75000000    2.61999989
   17.55888748  122.11599731    0.76999998    2.61999989
   17.56222153  126.36599731    0.76999998    2.61999989
   17.56888962  126.36599731    0.79000002    2.59999990
   17.57305717  133.06100464    0.79000002    2.59999990
   17.57638931  121.96199799    0.64999998    2.61999989
   17.57944489  124.27999878    0.67000002    2.61999989
   17.58194542  122.52600098    0.69000000    2.59999990
   17.58333397  127.26699829    0.69000000    2.59999990
   17.58666801  121.99199677    0.69000000    2.61999989
   17.58972359  121.93000031    0.67000002    2.59999990
   17.59305573  119.84500122    0.75000000    2.61999989
   17.59611130  126.12100220    0.75000000    2.61999989
   17.59944534  120.58399963    0.75000000    2.59999990
   17.60277748  120.06600189    0.73000002    2.61999989
   17.60583305  123.72599792    0.70999998    2.61999989
   17.61166763  123.72599792    0.73000002    2.59999990
   17.61583328  124.16100311    0.73000002    2.61999989
   17.61916733  121.05799866    0.67000002    2.59999990
   17.62222290  116.05200195    0.58999997    2.59999990
   17.62555504  126.04699707    0.55000001    2.59999990
   17.62888908  120.65699768    0.55000001    2.61999989
   17.63194466  122.30300140    0.46000001    2.61999989
   17.63527679  122.25499725    0.47999999    2.61999989
   17.63861084  120.98100281    0.50000000    2.61999989
   17.64166641  121.76399994    0.50000000    2.61999989
   17.64500046  121.33799744    0.50000000    2.61999989
   17.64805603  121.25499725    0.56999999    2.61999989
   17.64861107  119.79900360    0.56999999    2.61999989
   17.65472221  119.79900360    0.67000002    2.61999989
   17.65861130  119.06300354    0.70999998    2.61999989
   17.66194344  117.05000305    0.76999998    2.59999990
   17.66527748  113.33200073    0.80000001    2.61999989
   17.66833305  116.37999725    0.80000001    2.59999990
   17.67166519  119.93499756    0.88000000    2.61999989
   17.67499924  121.60800171    0.89999998    2.61999989
   17.67805481  117.56099701    0.89999998    2.59999990
   17.68138885  119.79299927    0.89999998    2.59999990
   17.68194389  111.61000061    0.92000002    2.61999989
   17.68499947  124.02200317    0.92000002    2.61999989
   17.68833160  118.79900360    0.92000002    2.59999990
   17.69138718  119.02899933    0.81999999    2.59999990
   17.69749832  119.02899933    0.73000002    2.59999990
   17.70166779  120.80000305    0.73000002    2.59999990
   17.70472336  108.23699951    0.73000002    2.61999989
   17.70805550  116.11299896    0.81999999    2.59999990
   17.71138954  110.99099731    0.80000001    2.59999990
   17.71444511  115.31700134    0.80000001    2.59999990
   17.71555710  114.97899628    0.79000002    2.59999990
   17.71805573  122.65799713    0.79000002    2.59999990
   17.72138977  118.86299896    0.76999998    2.59999990
   17.72444534  121.50399780    0.79000002    2.59999990
   17.72777748  114.17900085    0.79000002    2.59999990
   17.73111153  115.38600159    0.76999998    2.61999989
   17.73416710  115.20700073    0.80000001    2.59999990
   17.74027824  115.20700073    0.80000001    2.59999990
   17.74444389  107.99299622    0.70999998    2.61999989
   17.74777794  114.56400299    0.69000000    2.61999989
   17.74861145  118.73899841    0.69000000    2.61999989
   17.75138855  116.68599701    0.70999998    2.59999990
   17.75472260  121.26999664    0.70999998    2.59999990
   17.75777817  121.54699707    0.64999998    2.59999990
   17.76111031  120.08699799    0.63000000    2.61999989
   17.76444435  117.80500031    0.61000001    2.59999990
   17.76749992  118.40699768    0.63000000    2.59999990
   17.77083397  122.91899872    0.63000000    2.59999990
   17.77388954  114.60199738    0.61000001    2.59999990
   17.77722168  115.91400146    0.51999998    2.59999990
   17.78305435  115.91400146    0.46000001    2.59999990
   17.78722191  117.69599915    0.41999999    2.61999989
   17.79055595  118.98400116    0.41999999    2.61999989
   17.79361153  109.66300201    0.44000000    2.61999989
   17.79694366  117.06600189    0.44000000    2.61999989
   17.80027771  117.84500122    0.44000000    2.59999990
   17.80333328  120.91400146    0.44000000    2.59999990
   17.80666542  112.09899902    0.44000000    2.61999989
   17.80999947  117.52100372    0.46000001    2.61999989
   17.81305504  118.53500366    0.47999999    2.61999989
   17.81527710  119.34999847    0.50000000    2.61999989
   17.81666756  114.95099640    0.50000000    2.59999990
   17.82000160  119.44200134    0.50000000    2.61999989
   17.82611275  119.44200134    0.50000000    2.59999990
   17.83000183  138.95100403    0.51999998    2.59999990
   17.83333397  134.85600281    0.52999997    2.59999990
   17.83666801  139.23300171    0.52999997    2.59999990
   17.83972359  136.23899841    0.52999997    2.61999989
   17.84305573  133.17100525    0.55000001    2.59999990
   17.84638977  129.05900574    0.51999998    2.59999990
   17.84861183  135.75300598    0.58999997    2.59999990
   17.85000038  133.33000183    0.56999999    2.61999989
   17.85333443  138.65600586    0.58999997    2.59999990
   17.85639000  137.96400452    0.55000001    2.59999990
   17.85972214  129.91200256    0.56999999    2.59999990
   17.86305618  144.34899902    0.58999997    2.59999990
   17.86888885  144.34899902    0.64999998    2.59999990
   17.87305641  137.88299561    0.69000000    2.59999990
   17.87611198  137.14399719    0.64999998    2.61999989
   17.87944412  141.04100037    0.64999998    2.59999990
   17.88194466  143.16499329    0.67000002    2.59999990
   17.88305473  139.30700684    0.67000002    2.59999990
   17.88638878  136.25999451    0.75000000    2.59999990
   17.88944435  139.11900330    0.76999998    2.59999990
   17.89277840  130.49200439    0.76999998    2.59999990
   17.89611053  135.88400269    0.73000002    2.59999990
   17.89916611  117.71700287    0.73000002    2.59999990
   17.90250015  136.23199463    0.63000000    2.59999990
   17.90555573  129.35899353    0.67000002    2.59999990
   17.91166687  129.35899353    0.73000002    2.59999990
   17.91583252  133.86099243    0.73000002    2.59999990
   17.91944313  132.75999451    0.69000000    2.59999990
   17.92277718  133.81500244    0.69000000    2.59999990
   17.92611122  126.68499756    0.67000002    2.59999990
   17.92916679  130.22000122    0.69000000    2.61999989
   17.93249893   -1.00000000    0.67000002    2.59999990
   17.93555450  140.89199829    0.58999997    2.59999990
   17.93888855  148.28999329    0.58999997    2.59999990
   17.94222069  134.75500488    0.56999999    2.59999990
   17.94527626  142.16400146    0.56999999    2.59999990
   17.94861031  144.60000610    0.52999997    2.59999990
   17.94916534  136.43400574    0.52999997    2.59999990
   17.95444489  136.43400574    0.51999998    2.59999990
   17.95861244  129.86199951    0.52999997    2.59999990
   17.96194458  141.92700195    0.51999998    2.59999990
   17.96500015  136.15199280    0.51999998    2.59999990
   17.96833420  147.81700134    0.51999998    2.59999990
   17.97166634  143.22500610    0.55000001    2.61999989
   17.97472191  132.77400208    0.55000001    2.59999990
   17.97805595  135.37100220    0.52999997    2.59999990
   17.98111153  143.72300720    0.55000001    2.59999990
   17.98250008  146.15400696    0.51999998    2.59999990
   17.98500061  141.45899963    0.50000000    2.59999990
   17.98805618  129.24600220    0.50000000    2.61999989
   17.99138832  140.96499634    0.50000000    2.59999990
   17.99722290  140.96499634    0.55000001    2.59999990
   18.00138855  132.83099365    0.56999999    2.59999990
   18.00472260  132.26699829    0.55000001    2.59999990
   18.00805473  125.51000214    0.50000000    2.59999990
   18.01111031  124.62899780    0.51999998    2.59999990
   18.01444435  132.42399597    0.51999998    2.59999990
   18.01583290  129.37600708    0.51999998    2.59999990
   18.01805496  132.46099854    0.52999997    2.59999990
   18.02111053  127.55899811    0.55000001    2.61999989
   18.02444458  128.98399353    0.55000001    2.59999990
   18.02750015  128.43299866    0.56999999    2.59999990
   18.03083229  134.70599365    0.56999999    2.59999990
   18.03416634  138.74899292    0.56999999    2.59999990
   18.04027748  138.74899292    0.55000001    2.59999990
   18.04444313  133.71400452    0.56999999    2.59999990
   18.04749870  130.76800537    0.55000001    2.59999990
   18.04916573  131.46000671    0.52999997    2.59999990
   18.05138779  141.21699524    0.52999997    2.59999990
   18.05444336  128.19599915    0.52999997    2.59999990
   18.05777740  131.13000488    0.51999998    2.59999990
   18.06083298  130.13499451    0.50000000    2.59999990
   18.06416512  128.38099670    0.50000000    2.59999990
   18.06750107  135.62800598    0.55000001    2.59999990
   18.07055664  133.53500366    0.55000001    2.59999990
   18.07389069  134.22300720    0.56999999    2.59999990
   18.07722282  134.16900635    0.56999999    2.59999990
   18.08305550  134.16900635    0.55000001    2.59999990
   18.08722305  105.28500366    0.55000001    2.59999990
   18.09027863  127.30799866    0.52999997    2.59999990
   18.09361267  129.36599731    0.51999998    2.59999990
   18.09694481  132.38400269    0.52999997    2.59999990
   18.10000038  135.49400330    0.55000001    2.59999990
   18.10333443  124.67700195    0.58999997    2.59999990
   18.10666656  133.78700256    0.58999997    2.59999990
   18.10972214  116.89499664    0.55000001    2.59999990
   18.11305618  130.40299988    0.55000001    2.57999992
   18.11583328  124.50000000    0.55000001    2.59999990
   18.11666679  127.46199799    0.52999997    2.59999990
   18.11972237  127.26799774    0.55000001    2.59999990
   18.12583351  127.26799774    0.51999998    2.59999990
   18.13000107  117.40699768    0.51999998    2.59999990
   18.13333321  121.74299622    0.50000000    2.59999990
   18.13638878  120.31999969    0.50000000    2.59999990
   18.13972282  127.29299927    0.51999998    2.59999990
   18.14305496  126.09999847    0.50000000    2.59999990
   18.14638901  129.68499756    0.52999997    2.59999990
   18.14916611  123.05599976    0.55000001    2.59999990
   18.14999962  123.18199921    0.55000001    2.59999990
   18.15305519  119.00199890    0.55000001    2.59999990
   18.15638924  122.81800079    0.51999998    2.59999990
   18.15944481  122.76599884    0.51999998    2.59999990
   18.16277695  122.45500183    0.46000001    2.59999990
   18.16860962  122.45500183    0.41999999    2.61999989
   18.17277718  121.20400238    0.40000001    2.59999990
   18.17611122  123.16100311    0.41999999    2.59999990
   18.17944336  123.95800018    0.40000001    2.59999990
   18.18249893  119.03800201    0.40000001    2.59999990
   18.18305397  125.60700226    0.40000001    2.59999990
   18.18610954  122.91799927    0.41999999    2.59999990
   18.18944359  132.04200745    0.44000000    2.59999990
   18.19277763  121.35800171    0.46000001    2.59999990
   18.19583321  121.40100098    0.52999997    2.59999990
   18.19916534  126.67700195    0.55000001    2.59999990
   18.20222282  122.31500244    0.55000001    2.59999990
   18.20555687  121.75800323    0.55000001    2.59999990
   18.21166801  121.75800323    0.61000001    2.59999990
   18.21583366  121.39499664    0.61000001    2.59999990
   18.21611214  121.00299835    0.61000001    2.59999990
   18.21944427  126.02400208    0.56999999    2.59999990
   18.22277832  117.51300049    0.52999997    2.59999990
   18.22583389  125.43199921    0.50000000    2.59999990
   18.22916794  122.82900238    0.50000000    2.59999990
   18.23250008  125.47499847    0.47999999    2.59999990
   18.23555565  121.08799744    0.47999999    2.59999990
   18.23888969  120.90599823    0.50000000    2.59999990
   18.24194527  127.67400360    0.50000000    2.59999990
   18.24527740  123.17800140    0.55000001    2.59999990
   18.24861145  122.53800201    0.55000001    2.59999990
   18.24972153  134.16299438    0.56999999    2.59999990
   18.25444412  134.16299438    0.55000001    2.59999990
   18.25861168  113.66000366    0.55000001    2.59999990
   18.26166725  122.10299683    0.52999997    2.59999990
   18.26499939  119.16500092    0.47999999    2.59999990
   18.26833344  123.36599731    0.47999999    2.57999992
   18.27166557  117.61799622    0.51999998    2.59999990
   18.27472115  116.70999908    0.50000000    2.57999992
   18.27805519  131.21099854    0.52999997    2.57999992
   18.28111076  119.27999878    0.52999997    2.59999990
   18.28277779  125.90399933    0.52999997    2.59999990
   18.28472137  120.32099915    0.55000001    2.59999990
   18.28805542  122.33999634    0.55000001    2.59999990
   18.29111099  131.14500427    0.55000001    2.57999992
   18.29722214  131.14500427    0.55000001    2.59999990
   18.30138779  119.98999786    0.52999997    2.59999990
   18.30472183  120.32900238    0.50000000    2.57999992
   18.30777740  123.47599792    0.50000000    2.57999992
   18.31110954  119.58399963    0.50000000    2.57999992
   18.31444359  125.28600311    0.50000000    2.57999992
   18.31638718  123.33200073    0.50000000    2.57999992
   18.31805611  119.20200348    0.51999998    2.57999992
   18.32139015  129.49499512    0.52999997    2.57999992
   18.32444572  121.51200104    0.52999997    2.57999992
   18.32777786  119.82099915    0.52999997    2.59999990
   18.33111191  121.11000061    0.55000001    2.59999990
   18.33416748  131.94400024    0.55000001    2.57999992
   18.34000015  131.94400024    0.67000002    2.57999992
   18.34416771  122.75099945    0.69000000    2.57999992
   18.34749985  120.53800201    0.69000000    2.57999992
   18.34972191  122.81700134    0.67000002    2.57999992
   18.35111237  117.60299683    0.67000002    2.57999992
   18.35444450  119.97799683    0.63000000    2.57999992
   18.35750008  115.30000305    0.56999999    2.59999990
   18.36083412  122.19000244    0.56999999    2.57999992
   18.36416626  124.02600098    0.58999997    2.59999990
   18.36722183  124.79199982    0.56999999    2.57999992
   18.37055588  122.02899933    0.55000001    2.57999992
   18.37388992  120.76200104    0.52999997    2.57999992
   18.37694550  118.31199646    0.55000001    2.57999992
   18.38305473  118.31199646    0.50000000    2.57999992
   18.38722229  117.46700287    0.47999999    2.57999992
   18.39027786  122.11199951    0.47999999    2.57999992
   18.39361191  115.24700165    0.52999997    2.57999992
   18.39666748  121.64499664    0.55000001    2.57999992
   18.39999962  124.85900116    0.51999998    2.57999992
   18.40333366  121.32700348    0.52999997    2.57999992
   18.40638924  118.48999786    0.51999998    2.57999992
   18.40972137  120.99400330    0.52999997    2.57999992
   18.41305542  125.00199890    0.52999997    2.57999992
   18.41611099  117.38300323    0.51999998    2.57999992
   18.41666603  123.18199921    0.51999998    2.57999992
   18.42000008  117.38400269    0.50000000    2.57999992
   18.42583275  117.38400269    0.51999998    2.59999990
   18.43000031  112.49500275    0.51999998    2.57999992
   18.43305397  115.59300232    0.50000000    2.59999990
   18.43638802  118.77100372    0.50000000    2.59999990
   18.43972206  116.72200012    0.46000001    2.59999990
   18.44277763  124.16400146    0.46000001    2.57999992
   18.44610977  122.98799896    0.44000000    2.57999992
   18.44944382  123.87699890    0.44000000    2.57999992
   18.45000076  118.30500031    0.44000000    2.57999992
   18.45305634  120.40499878    0.44000000    2.57999992
   18.45611191  121.50499725    0.44000000    2.57999992
   18.45944595  127.04199982    0.41999999    2.57999992
   18.46277809  124.11299896    0.41999999    2.57999992
   18.46861076  124.11299896    0.40000001    2.59999990
   18.47277832  127.12500000    0.40000001    2.59999990
   18.47611237  121.49800110    0.40000001    2.57999992
   18.47916794  131.28100586    0.44000000    2.57999992
   18.48250008  120.47699738    0.50000000    2.57999992
   18.48333359  122.29699707    0.51999998    2.57999992
   18.48611069  125.93199921    0.51999998    2.57999992
   18.48916626  121.90899658    0.50000000    2.57999992
   18.49250031  132.81900024    0.50000000    2.57999992
   18.49583435  129.19299316    0.52999997    2.57999992
   18.49888992  126.84100342    0.52999997    2.57999992
   18.50222206  125.11599731    0.56999999    2.55999994
   18.50555611  116.54699707    0.56999999    2.57999992
   18.51138878  116.54699707    0.58999997    2.55999994
   18.51555634  116.95200348    0.58999997    2.57999992
   18.51666641  122.45800018    0.58999997    2.57999992
   18.51916695  120.33799744    0.58999997    2.55999994
   18.52222252  122.59999847    0.56999999    2.57999992
   18.52555466  118.53900146    0.56999999    2.57999992
   18.52888870  114.47899628    0.56999999    2.57999992
   18.53194427  121.15899658    0.56999999    2.55999994
   18.53527641  113.91400146    0.55000001    2.57999992
   18.53861046  112.02899933    0.52999997    2.57999992
   18.54166603  115.18800354    0.55000001    2.57999992
   18.54500008  117.11199951    0.55000001    2.57999992
   18.54805565  115.03199768    0.56999999    2.55999994
   18.56583214  113.41200256    0.52999997    2.57999992
   18.57000160  113.41200256    0.51999998    2.55999994
   18.57416725  108.98000336    0.55000001    2.55999994
   18.57722282  113.34300232    0.52999997    2.57999992
   18.58055687  113.58699799    0.52999997    2.55999994
   18.58388901  107.71499634    0.51999998    2.57999992
   18.58694458  109.41600037    0.50000000    2.57999992
   18.59027863  116.51899719    0.50000000    2.55999994
   18.59333420  113.43499756    0.51999998    2.57999992
   18.59666824  112.29900360    0.50000000    2.55999994
   18.59916687  114.79499817    0.50000000    2.55999994
   18.60027885  116.23100281    0.50000000    2.57999992
   18.60361099  108.10500336    0.50000000    2.57999992
   18.60666656  116.35399628    0.50000000    2.57999992
   18.61277771  116.35399628    0.46000001    2.55999994
   18.61694527  114.46299744    0.46000001    2.55999994
   18.62027740  121.62300110    0.46000001    2.55999994
   18.62333298  113.38200378    0.47999999    2.55999994
   18.62666702  114.32700348    0.51999998    2.55999994
   18.62972260  117.68099976    0.51999998    2.55999994
   18.63249969  118.27400208    0.51999998    2.55999994
   18.63333321  120.10700226    0.50000000    2.55999994
   18.63666725  114.08200073    0.50000000    2.55999994
   18.63972282  110.55999756    0.50000000    2.55999994
   18.64305496  116.21499634    0.51999998    2.55999994
   18.64638901  117.93199921    0.51999998    2.55999994
   18.64944458  109.91799927    0.47999999    2.55999994
   18.65555573  109.91799927    0.46000001    2.55999994
   18.65972137  119.58000183    0.46000001    2.55999994
   18.66305542  121.47399902    0.44000000    2.57999992
   18.66583252  115.76999664    0.44000000    2.55999994
   18.66666603  113.15100098    0.44000000    2.55999994
   18.67000008  113.34300232    0.46000001    2.55999994
   18.67305565  120.39600372    0.44000000    2.57999992
   18.67638779  110.81900024    0.41999999    2.55999994
   18.67972183  113.00700378    0.41999999    2.57999992
   18.68277740  109.25599670    0.40000001    2.55999994
   18.68610954  119.09400177    0.44000000    2.55999994
   18.68944359  124.47499847    0.44000000    2.55999994
   18.69249916  114.76699829    0.44000000    2.55999994
   18.69861031  114.76699829    0.47999999    2.55999994
   18.70250130  111.80999756    0.50000000    2.55999994
   18.70583344  119.06999969    0.50000000    2.55999994
   18.70916748  114.12500000    0.51999998    2.55999994
   18.71222305  121.03500366    0.51999998    2.55999994
   18.71555710  111.65299988    0.55000001    2.55999994
   18.71888924  115.35800171    0.56999999    2.55999994
   18.72194481  122.32800293    0.56999999    2.55999994
   18.72527885  118.03199768    0.56999999    2.55999994
   18.72833443  116.21600342    0.56999999    2.55999994
   18.73166656  122.23200226    0.56999999    2.55999994
   18.73361206  125.05200195    0.58999997    2.55999994
   18.73527718  128.16900635    0.58999997    2.55999994
   18.74138832  128.16900635    0.56999999    2.55999994
   18.74555588  132.37300110    0.58999997    2.55999994
   18.74861145  133.77799988    0.58999997    2.55999994
   18.75194359  147.21400452    0.58999997    2.55999994
   18.75499916  143.65400696    0.58999997    2.55999994
   18.75833321  142.51499939    0.61000001    2.55999994
   18.76166725  131.03900146    0.63000000    2.55999994
   18.76472282  141.44299316    0.63000000    2.55999994
   18.76694489  149.27799988    0.61000001    2.55999994
   18.76833344  138.23699951    0.61000001    2.55999994
   18.77166557  148.71000671    0.67000002    2.55999994
   18.77499962  145.28599548    0.69000000    2.55999994
   18.77805519  146.86099243    0.69000000    2.53999996
   18.78416634  146.86099243    0.81999999    2.55999994
   18.78833199  146.73100281    0.92000002    2.55999994
   18.79138756  140.09700012    0.92000002    2.55999994
   18.79472160  148.93699646    0.92000002    2.53999996
   18.79805565  132.69400024    0.89999998    2.53999996
   18.80027771  146.45500183    0.88000000    2.55999994
   18.80166626  145.31199646    0.94000000    2.53999996
   18.80499840  155.48800659    0.98000002    2.53999996
   18.80805397  148.40800476    1.01999998    2.55999994
   18.81138802  142.46200562    1.00000000    2.55999994
   18.81472206  147.66600037    0.98000002    2.53999996
   18.81777954  143.89100647    0.98000002    2.53999996
   18.82111168  133.46699524    1.00000000    2.53999996
   18.82694626  133.46699524    1.00000000    2.53999996
   18.83111191  129.99899292    0.98000002    2.53999996
   18.83361244  138.33799744    0.98000002    2.53999996
   18.83472252  128.55400085    0.98000002    2.55999994
   18.83805656  132.09500122    0.98000002    2.55999994
   18.84111214  126.55799866    0.98000002    2.55999994
   18.84444427  123.96800232    0.98000002    2.55999994
   18.84777832  132.16000366    0.98000002    2.55999994
   18.85083389  124.33599854    0.95999998    2.55999994
   18.85416794  127.34600067    0.94000000    2.53999996
   18.85722351  124.79799652    0.92000002    2.53999996
   18.86055565  126.92400360    0.89999998    2.53999996
   18.86388969  128.08500671    0.88000000    2.53999996
   18.86972237  128.08500671    0.83999997    2.55999994
   18.87388992  117.98400116    0.86000001    2.53999996
   18.87722206  112.86499786    0.86000001    2.55999994
   18.88055611  111.24299622    0.79000002    2.53999996
   18.88361168  114.93299866    0.76999998    2.55999994
   18.88694382  113.30799866    0.80000001    2.53999996
   18.89027786  112.51599884    0.81999999    2.53999996
   18.89333344  117.24299622    0.81999999    2.53999996
   18.89666748  113.51000214    0.75000000    2.53999996
   18.89999962  109.66799927    0.73000002    2.53999996
   18.90083313  111.83000183    0.75000000    2.53999996
   18.90333366  115.81099701    0.75000000    2.53999996
   18.90666580  108.13999939    0.75000000    2.53999996
   18.91277695  108.13999939    0.79000002    2.53999996
   18.91694450  113.44799805    0.75000000    2.55999994
   18.92000008  112.25599670    0.73000002    2.55999994
   18.92333221  119.70300293    0.70999998    2.53999996
   18.92638779  125.61799622    0.70999998    2.53999996
   18.92972183  121.51599884    0.70999998    2.53999996
   18.93305397  112.37599945    0.73000002    2.53999996
   18.93416595  110.71099854    0.76999998    2.53999996
   18.93638802  104.19599915    0.79000002    2.53999996
   18.93972206  103.61000061    0.76999998    2.53999996
   18.94305420  105.69300079    0.73000002    2.53999996
   18.94610977   98.58959961    0.70999998    2.53999996
   18.94944382  102.87500000    0.64999998    2.53999996
   18.95555687  102.87500000    0.58999997    2.53999996
   18.95972252  103.89600372    0.61000001    2.53999996
   18.96277809  109.34999847    0.61000001    2.53999996
   18.96611214  109.94100189    0.61000001    2.53999996
   18.96750069  107.08699799    0.61000001    2.53999996
   18.96972275   95.27709961    0.61000001    2.53999996
   18.97305679  101.57099915    0.61000001    2.53999996
   18.97638893  105.27600098    0.63000000    2.53999996
   18.97944450  102.40299988    0.64999998    2.53999996
   18.98277855   95.01360321    0.70999998    2.53999996
   18.98583412  102.29000092    0.75000000    2.53999996
   18.98916626  102.68599701    0.75000000    2.53999996
   18.99250031  103.88700104    0.75000000    2.53999996
   18.99833298  103.88700104    0.88000000    2.53999996
   19.00250053  100.94799805    0.95999998    2.53999996
   19.00583267  102.03099823    0.98000002    2.53999996
   19.00888824   97.78800201    1.00000000    2.53999996
   19.01222229  111.48699951    1.14999998    2.53999996
   19.01555634   98.35019684    1.21000004    2.51999998
   19.01861000   99.24620056    1.21000004    2.51999998
   19.02194405   99.40180206    1.07000005    2.53999996
   19.02499962   96.83190155    1.03999996    2.53999996
   19.02833366   96.77420044    1.01999998    2.51999998
   19.03166580   95.40070343    0.98000002    2.51999998
   19.03444481   94.61740112    0.95999998    2.51999998
   19.03527641  105.24099731    0.95999998    2.53999996
   19.04111099  105.24099731    0.92000002    2.51999998
   19.04527664   99.47750092    0.88000000    2.51999998
   19.04861069   97.77670288    0.81999999    2.53999996
   19.05194283  102.72599792    0.73000002    2.51999998
   19.05499840  103.05300140    0.70999998    2.51999998
   19.05833244  102.70300293    0.70999998    2.51999998
   19.06138802  116.36599731    0.70999998    2.51999998
   19.06472206  107.74199677    0.61000001    2.51999998
   19.06777954  113.72499847    0.61000001    2.51999998
   19.06833458  112.29000092    0.63000000    2.51999998
   19.07166672  104.30599976    0.67000002    2.51999998
   19.07500076  107.53500366    0.67000002    2.51999998
   19.07833481  107.86900330    0.70999998    2.51999998
   19.08416748  107.86900330    0.80000001    2.51999998
   19.08833313  115.40599823    0.95999998    2.51999998
   19.09138870  106.26999664    1.07000005    2.51999998
   19.09472275  109.64700317    1.11000001    2.51999998
   19.09777832  108.46099854    1.13000000    2.51999998
   19.10111237  115.12599945    1.23000002    2.51999998
   19.10138893  105.40299988    1.23000002    2.51999998
   19.10472298  113.71299744    1.33000004    2.51999998
   19.10777855  112.59799957    1.26999998    2.51999998
   19.11111069  108.04900360    1.14999998    2.51999998
   19.11444473  109.00499725    1.03999996    2.51999998
   19.11750031  105.96900177    1.01999998    2.51999998
   19.12083435  106.29100037    1.00000000    2.51999998
   19.12694550  106.29100037    1.01999998    2.51999998
   19.13111115  100.90599823    1.01999998    2.50000000
   19.13444519  103.99099731    1.01999998    2.50000000
   19.13472176  108.21499634    1.00000000    2.51999998
   19.13805580  107.21199799    0.92000002    2.51999998
   19.14111137  105.61000061    0.88000000    2.51999998
   19.14444351  116.94100189    0.95999998    2.51999998
   19.14777756  116.56800079    0.98000002    2.51999998
   19.15083313  112.48999786    0.95999998    2.51999998
   19.15416718  113.89900208    0.89999998    2.51999998
   19.15749931  110.85199738    0.86000001    2.51999998
   19.16055489  110.55300140    0.83999997    2.51999998
   19.16388893  105.27799988    0.89999998    2.51999998
   19.16972160  105.27799988    0.89999998    2.51999998
   19.17388916  104.71700287    0.94000000    2.51999998
   19.17722130   97.61109924    0.89999998    2.51999998
   19.18027687  106.80599976    0.94000000    2.50000000
   19.18361092  105.74700165    0.95999998    2.50000000
   19.18694305  112.35099792    0.92000002    2.51999998
   19.18999863  108.30699921    0.89999998    2.51999998
   19.19333267  104.44200134    0.88000000    2.51999998
   19.19638824  101.76000214    0.86000001    2.50000000
   19.19972038  108.30200195    0.86000001    2.50000000
   19.20111275  110.07099915    0.86000001    2.50000000
   19.20333481  102.73999786    0.86000001    2.50000000
   19.20666695  107.21700287    0.86000001    2.50000000
   19.21250153  107.21700287    0.95999998    2.50000000
   19.21666718   99.82550049    0.94000000    2.50000000
   19.22000122   98.64360046    0.92000002    2.50000000
   19.22333336  102.31300354    0.92000002    2.51999998
   19.22638893  101.27700043    0.94000000    2.50000000
   19.22972298   94.83049774    0.94000000    2.51999998
   19.23305511   98.74150085    0.95999998    2.50000000
   19.23444557   96.89890289    0.88000000    2.50000000
   19.23638916  100.80100250    0.86000001    2.50000000
   19.23972321   97.55229950    0.86000001    2.51999998
   19.24305534  109.22799683    1.50000000    2.51999998
   19.24611092  105.42199707    3.25000000    2.51999998
   19.24944496  104.02500153    4.90999985    2.51999998
   19.25555611  104.02500153    4.90999985    2.32999992
   19.25972176  112.04000092    4.90999985    2.30999994
   19.26277733   97.59999847    4.90999985    2.34999990
   19.26611137  108.82299805    4.90999985    2.44000006
   19.26777840  109.01999664    4.90999985    2.46000004
   19.26972198  103.29199982    4.90999985    2.40000010
   19.27305603  111.74700165    4.65999985    2.39000010
   19.27611160  111.94799805    4.05999994    2.32999992
   19.27944374  108.67400360    4.03999996    2.40000010
   19.28249931  110.45200348    3.55999994    2.46000004
   19.28583336  105.86499786    2.25000000    2.48000002
   19.28916550  106.74600220    1.85000002    2.48000002
   19.29222107  105.58699799    1.38000000    2.46000004
   19.29833221  105.58699799    1.14999998    2.46000004
   19.30249977  101.15599823    1.13000000    2.48000002
   19.30555534  101.79699707    0.98000002    2.48000002
   19.30888748  103.04900360    0.98000002    2.48000002
   19.31222153  105.72899628    0.73000002    2.50000000
   19.31527710  107.86499786    0.70999998    2.48000002
   19.31861115  102.55599976    0.70999998    2.48000002
   19.32194519  107.05999756    0.70999998    2.48000002
   19.32500076  103.29499817    0.70999998    2.48000002
   19.32833481  104.69799805    0.69000000    2.50000000
   19.33139038  100.44999695    0.70999998    2.48000002
   19.33444595  107.81800079    0.70999998    2.48000002
   19.33527756   98.46959686    0.70999998    2.48000002
   19.34111214   98.46959686    0.67000002    2.48000002
   19.34527779  106.94000244    0.63000000    2.48000002
   19.34861183  116.87100220    0.63000000    2.48000002
   19.35166740  112.80200195    0.56999999    2.50000000
   19.35499954  102.45400238    0.56999999    2.50000000
   19.35805511  113.01499939    0.56999999    2.48000002
   19.36138916  106.74400330    0.52999997    2.50000000
   19.36472321  110.78500366    0.52999997    2.48000002
   19.36777878  116.03199768    0.52999997    2.48000002
   19.36833382  114.14700317    0.52999997    2.48000002
   19.37166595  117.67700195    0.52999997    2.48000002
   19.37472153  118.41000366    0.56999999    2.48000002
   19.37805557  113.08100128    0.58999997    2.48000002
   19.38388824  113.08100128    0.58999997    2.48000002
   19.38805580  112.08300018    0.58999997    2.48000002
   19.39138794  107.07800293    0.56999999    2.48000002
   19.39472198  103.03600311    0.56999999    2.48000002
   19.39777756   98.39440155    0.55000001    2.48000002
   19.40111160  103.46299744    0.55000001    2.48000002
   19.40166664  106.08000183    0.52999997    2.48000002
   19.40472221  103.01699829    0.51999998    2.48000002
   19.40805435  100.81600189    0.50000000    2.48000002
   19.41138840  103.62599945    0.50000000    2.48000002
   19.41444397  108.37400055    0.51999998    2.48000002
   19.41777802  111.08499908    0.51999998    2.48000002
   19.42111015  102.64700317    0.50000000    2.48000002
   19.42694473  102.64700317    0.50000000    2.48000002
   19.43111038  107.22000122    0.52999997    2.48000002
   19.43444443  109.51899719    0.55000001    2.46000004
   19.43499947  110.47899628    0.56999999    2.48000002
   19.43777657  110.57099915    0.64999998    2.48000002
   19.44111061  101.32399750    0.69000000    2.46000004
   19.44444275  102.24900055    0.70999998    2.46000004
   19.44749832  107.45800018    0.69000000    2.46000004
   19.45083427  106.86599731    0.69000000    2.48000002
   19.45416832  109.30699921    0.70999998    2.46000004
   19.45722389  110.95800018    0.70999998    2.46000004
   19.46055603  103.60500336    0.73000002    2.46000004
   19.46361160  103.51399994    0.76999998    2.48000002
   19.46972275  103.51399994    0.79000002    2.46000004
   19.47389030  108.02600098    0.95999998    2.46000004
   19.47694588  111.68399811    1.05999994    2.46000004
   19.48027802  102.51000214    1.30999994    2.46000004
   19.48361206  106.65100098    1.46000004    2.46000004
   19.48666763  106.56500244    1.53999996    2.46000004
   19.48999977  100.71600342    1.53999996    2.46000004
   19.49333382  101.75399780    2.11999989    2.44000006
   19.49638939  104.37799835    2.36999989    2.44000006
   19.49972153  109.49299622    2.42000008    2.46000004
   19.50166702  102.18299866    2.55999994    2.42000008
   19.50305557  102.75499725    2.67000008    2.39000010
   19.50638962   99.50810242    2.93000007    2.39000010
   19.51250076   99.50810242    2.42000008    2.42000008
   19.51666641   97.84580231    2.11999989    2.44000006
   19.52000046  102.01200104    1.86000001    2.46000004
   19.52305603  107.05999756    1.85000002    2.46000004
   19.52638817  106.76000214    1.75000000    2.46000004
   19.52972221  108.43599701    1.61000001    2.44000006
   19.53277779  101.84999847    1.61000001    2.44000006
   19.53499985  102.23799896    1.55999994    2.44000006
   19.53638840  110.89399719    1.53999996    2.46000004
   19.53972244   98.67489624    1.55999994    2.44000006
   19.54305458  100.72899628    1.53999996    2.44000006
   19.54611015   96.37930298    1.50000000    2.44000006
   19.54944420   92.68689728    1.50000000    2.46000004
   19.55527687   92.68689728    1.48000002    2.44000006
   19.55944443  108.37999725    1.46000004    2.46000004
   19.56277657   99.99379730    1.34000003    2.44000006
   19.56611061  104.21600342    1.21000004    2.46000004
   19.58305550  100.41799927    1.34000003    2.46000004
   19.58611107   95.18450165    1.34000003    2.46000004
   19.58916664   94.65110016    1.36000001    2.44000006
   19.59250069  104.54900360    1.46000004    2.44000006
   19.59833336  104.54900360    1.50000000    2.44000006
   19.60250092   99.35749817    1.41999996    2.44000006
   19.60583305  105.27899933    1.36000001    2.44000006
   19.60916710  105.25900269    1.39999998    2.44000006
   19.61222267  104.27600098    1.44000006    2.44000006
   19.61555672  105.45999908    1.75000000    2.42000008
   19.61638832  116.93599701    1.75000000    2.42000008
   19.61888885  112.28299713    1.91999996    2.44000006
   19.62222290  110.04399872    1.94000006    2.44000006
   19.62555504  109.65599823    2.28999996    2.40000010
   19.62861061  108.59700012    2.39000010    2.40000010
   19.63194466  106.47000122    2.34999990    2.40000010
   19.63527679  101.69799805    2.17000008    2.40000010
   19.64138794  101.69799805    2.01999998    2.40000010
   19.64555550  105.33899689    1.85000002    2.42000008
   19.64861107   96.59690094    1.71000004    2.42000008
   19.64972115  101.66300201    1.64999998    2.42000008
   19.65222168  103.16400146    1.55999994    2.42000008
   19.65555573   96.10050201    1.41999996    2.40000010
   19.65888786  106.97899628    1.41999996    2.42000008
   19.66194344  100.84500122    1.36000001    2.42000008
   19.66527748  107.12999725    1.39999998    2.42000008
   19.66860962  109.44100189    1.39999998    2.42000008
   19.67166519  102.15799713    1.36000001    2.42000008
   19.67499924  107.38500214    1.36000001    2.42000008
   19.67833328  106.91799927    1.36000001    2.42000008
   19.68416595  106.91799927    1.36000001    2.42000008
   19.68833160  104.98999786    1.39999998    2.42000008
   19.69138718  103.41400146    1.53999996    2.42000008
   19.69472122   95.58249664    1.58000004    2.42000008
   19.69805527  106.33699799    1.53999996    2.42000008
   19.70111275  100.82900238    1.44000006    2.42000008
   19.70444489   93.82060242    1.25000000    2.42000008
   19.70777893  104.41400146    1.25000000    2.42000008
   19.71083450   98.82399750    1.34000003    2.42000008
   19.71416664  107.34200287    1.38000000    2.42000008
   19.71638870  103.02899933    1.39999998    2.42000008
   19.71750069   96.70429993    1.39999998    2.42000008
   19.72083473  101.43299866    1.41999996    2.42000008
   19.72694588  101.43299866    2.01999998    2.40000010
   19.73111153  105.39600372    2.36999989    2.40000010
   19.73444557   93.58170319    2.44000006    2.40000010
   19.73750114   96.14640045    2.48000002    2.40000010
   19.74083328   99.93750000    2.30999994    2.40000010
   19.74416733  100.88700104    2.01999998    2.40000010
   19.74722290  117.06999969    1.96000004    2.40000010
   19.74972153  120.50000000    1.91999996    2.40000010
   19.75083351  121.06099701    1.91999996    2.40000010
   19.75416756  116.19100189    1.94000006    2.40000010
   19.75749969  121.97699738    2.48000002    2.40000010
   19.76055527  120.87899780    2.69000006    2.40000010
   19.76388931  127.35500336    2.93000007    2.40000010
   19.76972198  127.35500336    3.45000005    2.40000010
   19.77388954  180.37899780    3.41000009    2.39000010
   19.77722168  152.08200073    3.25000000    2.40000010
   19.78027725   -1.00000000    3.05999994    2.39000010
   19.78388786   -1.00000000    2.82999992    2.39000010
   19.78722191   -1.00000000    2.48000002    2.40000010
   19.79027748   -1.00000000    2.34999990    2.39000010
   19.79361153   -1.00000000    2.15000010    2.39000010
   19.79666710   -1.00000000    2.09999990    2.39000010
   19.79999924   -1.00000000    2.07999992    2.39000010
   19.80333328   -1.00000000    1.98000002    2.40000010
   19.80638885   -1.00000000    2.09999990    2.40000010
   19.81666756   -1.00000000    2.55999994    2.39000010
   19.82000160   -1.00000000    2.48000002    2.39000010
   19.82305717   -1.00000000    2.42000008    2.39000010
   19.82638931   -1.00000000    2.36999989    2.39000010
   19.82972336   -1.00000000    2.39000010    2.39000010
   19.83277893   -1.00000000    2.44000006    2.39000010
   19.83611107   -1.00000000    2.61999989    2.39000010
   19.83916664   -1.00000000    2.59999990    2.39000010
   19.84250069   -1.00000000    2.51999998    2.39000010
   19.84583473   -1.00000000    2.48000002    2.39000010
   19.84889030   -1.00000000    2.48000002    2.39000010
   19.85944557   -1.00000000    2.25000000    2.39000010
   19.86277771   -1.00000000    2.25000000    2.39000010
   19.86611176   -1.00000000    2.13000011    2.39000010
   19.86916733   -1.00000000    2.09999990    2.39000010
   19.87249947   -1.00000000    2.03999996    2.39000010
   19.87583351   -1.00000000    2.07999992    2.39000010
   19.87888908   -1.00000000    2.01999998    2.39000010
   19.88222313   -1.00000000    2.00000000    2.36999989
   19.88555527   -1.00000000    2.07999992    2.39000010
   19.88888931   -1.00000000    2.17000008    2.36999989
   19.89194489   -1.00000000    2.23000002    2.36999989
   19.90250015   -1.00000000    2.13000011    2.39000010
   19.90555573   -1.00000000    2.11999989    2.36999989
   19.90888786   -1.00000000    2.01999998    2.36999989
   19.91222191   -1.00000000    2.05999994    2.36999989
   19.91527748   -1.00000000    1.86000001    2.36999989
   19.91888809   -1.00000000    1.71000004    2.36999989
   19.92222214   -1.00000000    1.66999996    2.36999989
   19.92527771   -1.00000000    1.63000000    2.36999989
   19.92860985   -1.00000000    1.66999996    2.36999989
   19.93194389   -1.00000000    1.69000006    2.36999989
   19.93499947   -1.00000000    1.69000006    2.36999989
   19.94527626   -1.00000000    1.89999998    2.36999989
   19.94833183   -1.00000000    1.86000001    2.36999989
   19.95194435   -1.00000000    1.75000000    2.36999989
   19.95527840   -1.00000000    1.75000000    2.36999989
   19.95833397   -1.00000000    1.64999998    2.36999989
   19.96166801   -1.00000000    1.85000002    2.36999989
   19.96500015   -1.00000000    1.83000004    2.36999989
   19.96805573   -1.00000000    1.60000002    2.36999989
   19.97138977   -1.00000000    1.53999996    2.36999989
   19.97444534   -1.00000000    1.53999996    2.36999989
   19.97777748   -1.00000000    1.51999998    2.36999989
   19.98805618   -1.00000000    1.46000004    2.36999989
   19.99138832   -1.00000000    1.46000004    2.36999989
   19.99472237   -1.00000000    1.50000000    2.34999990
   19.99777794   -1.00000000    1.50000000    2.34999990
   20.00111198   -1.00000000    1.48000002    2.34999990
   20.00416756   -1.00000000    1.41999996    2.34999990
   20.00749969   -1.00000000    1.19000006    2.36999989
   20.01083374   -1.00000000    1.19000006    2.34999990
   20.01388931   -1.00000000    1.07000005    2.34999990
   20.01749992   -1.00000000    1.26999998    2.34999990
   20.02083397   -1.00000000    1.44000006    2.34999990
   20.03111076   -1.00000000    1.58000004    2.34999990
   20.03416634   -1.00000000    1.58000004    2.34999990
   20.03750038   -1.00000000    1.58000004    2.34999990
   20.04055595   -1.00000000    1.71000004    2.34999990
   20.04388809   -1.00000000    1.85000002    2.34999990
   20.04722214   -1.00000000    1.85000002    2.34999990
   20.05055428   -1.00000000    1.86000001    2.32999992
   20.05388832   -1.00000000    1.86000001    2.32999992
   20.05694389   -1.00000000    1.88000000    2.32999992
   20.06027794   -1.00000000    1.73000002    2.34999990
   20.06361008   -1.00000000    1.83000004    2.34999990
   20.07389069   -1.00000000    2.69000006    2.32999992
   20.07694626   -1.00000000    2.89000010    2.32999992
   20.08027840   -1.00000000    3.21000004    2.32999992
   20.08388901   -1.00000000    3.21000004    2.32999992
   20.08722305   -1.00000000    3.16000009    2.32999992
   20.09027863   -1.00000000    2.91000009    2.32999992
   20.09361267   -1.00000000    2.84999990    2.32999992
   20.09694481   -1.00000000    3.09999990    2.30999994
   20.10000038   -1.00000000    3.39000010    2.30999994
   20.10333443   -1.00000000    3.64000010    2.30999994
   20.10639000   -1.00000000    3.86999989    2.30999994
   20.11666679   -1.00000000    3.53999996    2.30999994
   20.11972237   -1.00000000    3.41000009    2.30999994
   20.12305641   -1.00000000    2.89000010    2.30999994
   20.12638855   -1.00000000    2.39000010    2.30999994
   20.12944412   -1.00000000    2.07999992    2.32999992
   20.13277817   -1.00000000    1.69000006    2.32999992
   20.13611031   -1.00000000    1.36000001    2.32999992
   20.13916588   -1.00000000    1.16999996    2.32999992
   20.14249992   -1.00000000    1.11000001    2.32999992
   20.14555550   -1.00000000    0.89999998    2.32999992
   20.14888954   -1.00000000    0.92000002    2.32999992
   20.15944481   -1.00000000    1.11000001    2.32999992
   20.16277695   -1.00000000    1.33000004    2.30999994
   20.16583252   -1.00000000    1.50000000    2.30999994
   20.16916656   -1.00000000    1.26999998    2.30999994
   20.17249870   -1.00000000    1.28999996    2.30999994
   20.17555428   -1.00000000    1.33000004    2.30999994
   20.17888832   -1.00000000    1.38000000    2.30999994
   20.18222237   -1.00000000    1.33000004    2.30999994
   20.18555450   -1.00000000    1.34000003    2.30999994
   20.18888855   -1.00000000    1.33000004    2.30999994
   20.19194412   -1.00000000    1.33000004    2.30999994
   20.20222282   -1.00000000    1.16999996    2.30999994
   20.20555687   -1.00000000    1.16999996    2.30999994
   20.20888901   -1.00000000    1.13000000    2.30999994
   20.21194458   -1.00000000    1.28999996    2.28999996
   20.21527863   -1.00000000    1.28999996    2.30999994
   20.21861076   -1.00000000    1.33000004    2.30999994
   20.22194481   -1.00000000    1.33000004    2.30999994
