    HOUR (UT)   FLARE FACTOR    SKY TESTER    SUN TESTER
   12.29750061   -1.00000000   -1.00000000   -1.00000000
   12.31833363   90.43620300    1.07000005    1.91999996
   12.32388878   92.02169800    1.09000003    1.91999996
   12.32750034   89.02449799    1.11000001    1.91999996
   12.33083344   90.13120270    1.11000001    1.94000006
   12.33416653   90.93119812    1.13000000    1.94000006
   12.33722210   78.98909760    1.13000000    1.94000006
   12.34055519   80.68620300    1.14999998    1.94000006
   12.34388828   78.90730286    1.14999998    1.94000006
   12.34694386   83.95960236    1.19000006    1.94000006
   12.35027790   88.03559875    1.19000006    1.94000006
   12.35166740   86.90910339    1.19000006    1.94000006
   12.44555569   91.69480133    1.34000003    2.01999998
   12.44861126   91.39839935    1.34000003    2.01999998
   12.45194435   94.61990356    1.36000001    2.01999998
   12.45499992   93.96080017    1.36000001    2.03999996
   12.45833302   97.30850220    1.36000001    2.03999996
   12.46166611   87.89469910    1.36000001    2.01999998
   12.46583271   87.89469910    1.36000001    2.03999996
   12.46999931   94.81250000    1.36000001    2.03999996
   12.47305489   94.11129761    1.36000001    2.05999994
   12.47638798   96.86080170    1.36000001    2.03999996
   12.47888851   94.54519653    1.36000001    2.03999996
   12.47999954   89.56580353    1.36000001    2.03999996
   12.48333359   94.87039948    1.38000000    2.05999994
   12.48638916   91.05909729    1.38000000    2.05999994
   12.48972225   96.97589874    1.38000000    2.05999994
   12.49305534   94.32460022    1.38000000    2.05999994
   12.49611092   98.20390320    1.38000000    2.05999994
   12.49944496  101.69300079    1.38000000    2.05999994
   12.50277805   93.00450134    1.38000000    2.05999994
   12.50861073   93.00450134    1.38000000    2.05999994
   12.51277733   95.37339783    1.36000001    2.05999994
   12.51583290   91.80490112    1.36000001    2.07999992
   12.51916599  101.36499786    1.36000001    2.07999992
   12.52250004   92.37069702    1.36000001    2.07999992
   12.52555561   94.61139679    1.36000001    2.07999992
   12.52888870   96.61489868    1.38000000    2.07999992
   12.53222179  103.23400116    1.38000000    2.07999992
   12.53527832  111.68900299    1.38000000    2.07999992
   12.53861141  101.75399780    1.38000000    2.07999992
   12.54194450  101.49400330    1.36000001    2.09999990
   12.54500008   99.89209747    1.36000001    2.09999990
   12.54555607  105.40100098    1.36000001    2.09999990
   12.55138874  105.40100098    1.36000001    2.09999990
   12.55555534  105.98000336    1.36000001    2.09999990
   12.55888939  109.12300110    1.36000001    2.09999990
   12.56194496  103.97799683    1.34000003    2.09999990
   12.56527805  102.31700134    1.34000003    2.09999990
   12.56861115  104.63700104    1.33000004    2.09999990
   12.57166672   95.66660309    1.33000004    2.09999990
   12.57499981  108.49600220    1.33000004    2.11999989
   12.57805538  100.09500122    1.33000004    2.11999989
   12.57888889  105.41500092    1.33000004    2.11999989
   12.58194447  103.10600281    1.33000004    2.11999989
   12.58500004  111.32499695    1.33000004    2.11999989
   12.58833313   97.99030304    1.33000004    2.11999989
   12.59416676   97.99030304    1.33000004    2.11999989
   12.59861088  100.40200043    1.30999994    2.11999989
   12.60166740  105.79499817    1.28999996    2.11999989
   12.60500050   98.82180023    1.28999996    2.13000011
   12.60805607   98.53549957    1.26999998    2.13000011
   12.61138916  104.04399872    1.26999998    2.13000011
   12.61222267  108.94400024    1.26999998    2.13000011
   12.61500072   95.48470306    1.25000000    2.13000011
   12.61805534  101.30799866    1.25000000    2.13000011
   12.62138939  111.81999969    1.25000000    2.13000011
   12.62472248  104.87300110    1.25000000    2.13000011
   12.62777805   95.40950012    1.25000000    2.13000011
   12.63111115   97.57800293    1.25000000    2.15000010
   12.63722229   97.57800293    1.25000000    2.17000008
   12.64111137  106.40200043    1.23000002    2.15000010
   12.64444447  110.49900055    1.23000002    2.15000010
   12.64555550  105.82299805    1.23000002    2.15000010
   12.64805508  109.90299988    1.23000002    2.15000010
   12.65111065   95.33409882    1.23000002    2.17000008
   12.65444374  102.88999939    1.23000002    2.15000010
   12.65777779  107.87799835    1.23000002    2.15000010
   12.66083336   99.50599670    1.21000004    2.15000010
   12.66416645  109.77300262    1.19000006    2.15000010
   12.66750050  108.41400146    1.19000006    2.17000008
   12.67055607  106.39399719    1.16999996    2.17000008
   12.67388916  105.88999939    1.16999996    2.17000008
   12.68000031  105.88999939    1.14999998    2.17000008
   12.68416691   95.53410339    1.13000000    2.17000008
   12.68750000  100.83300018    1.13000000    2.17000008
   12.69055557   98.18329620    1.13000000    2.17000008
   12.69388866  106.93699646    1.13000000    2.17000008
   12.69694424  103.26000214    1.11000001    2.19000006
   12.70027733   98.64009857    1.11000001    2.19000006
   12.70361137  106.44499969    1.13000000    2.19000006
   12.70694447  108.72599792    1.11000001    2.19000006
   12.71027756  103.79299927    1.11000001    2.19000006
   12.71222210  103.11100006    1.11000001    2.19000006
   12.71388912  108.73000336    1.11000001    2.19000006
   12.71694374  118.34700012    1.09000003    2.19000006
   12.72277737  118.34700012    1.07000005    2.19000006
   12.72694397   96.01840210    1.07000005    2.19000006
   12.73027706   95.58290100    1.07000005    2.19000006
   12.73333359  103.81600189    1.05999994    2.21000004
   12.73666668  106.88200378    1.05999994    2.19000006
   12.74000072  101.14600372    1.05999994    2.21000004
   12.74305534  105.50900269    1.05999994    2.21000004
   12.74555588  104.39700317    1.05999994    2.21000004
   12.74666691  117.25700378    1.05999994    2.21000004
   12.74972248   99.68219757    1.05999994    2.21000004
   12.75305557  105.11299896    1.03999996    2.21000004
   12.75638866  111.44100189    1.03999996    2.21000004
   12.75944424  111.33999634    1.03999996    2.21000004
   12.76583290  111.33999634    1.03999996    2.21000004
   12.76972198  100.87699890    1.05999994    2.23000002
   12.77305508  106.77899933    1.03999996    2.23000002
   12.77638817  113.31600189    1.03999996    2.23000002
   12.77888870  105.25099945    1.03999996    2.23000002
   12.77999973  110.29599762    1.03999996    2.23000002
   12.78305531  106.73999786    1.03999996    2.23000002
   12.78638935  105.80999756    1.03999996    2.23000002
   12.78972244  100.12500000    1.03999996    2.23000002
   12.79277802  116.94699860    1.03999996    2.23000002
   12.79611111  110.88099670    1.03999996    2.23000002
   12.79944515  113.73699951    1.01999998    2.23000002
   12.80249977  105.03099823    1.01999998    2.23000002
   12.80861092  105.03099823    1.00000000    2.25000000
   12.81277752   93.34680176    1.00000000    2.23000002
   12.81583309  109.13400269    0.98000002    2.25000000
   12.81916618  102.25099945    0.95999998    2.23000002
   12.82250023   99.78260040    0.95999998    2.25000000
   12.82555580  109.87599945    0.94000000    2.25000000
   12.82888889  109.84899902    0.94000000    2.25000000
   12.83194447   96.07820129    0.94000000    2.25000000
   12.83527756  101.84200287    0.94000000    2.25000000
   12.83861065  107.16500092    0.94000000    2.25000000
   12.84166622  109.39700317    0.92000002    2.25000000
   12.84499931  104.58200073    0.92000002    2.25000000
   12.84555531  102.27100372    0.92000002    2.25000000
   12.85138893  102.27100372    0.92000002    2.26999998
   12.85555553  111.89299774    0.92000002    2.26999998
   12.85888958  100.78299713    0.89999998    2.26999998
   12.86194515  114.68099976    0.89999998    2.26999998
   12.86527824  110.05000305    0.89999998    2.26999998
   12.86861134  106.65599823    0.89999998    2.25000000
   12.87166691  108.43099976    0.88000000    2.25000000
   12.87500000  112.99500275    0.88000000    2.26999998
   12.87805557  115.73100281    0.88000000    2.26999998
   12.87888908  111.91799927    0.88000000    2.26999998
   12.88166714  117.86100006    0.86000001    2.26999998
   12.88472176  114.37999725    0.88000000    2.28999996
   12.88805580  131.14799500    0.88000000    2.28999996
   12.89416695  131.14799500    0.88000000    2.26999998
   12.89833355  112.17500305    0.86000001    2.26999998
   12.90166664  118.52799988    0.88000000    2.26999998
   12.90472221  138.73500061    0.88000000    2.26999998
   12.90805531  116.26200104    0.88000000    2.26999998
   12.91138840  114.90399933    0.88000000    2.26999998
   12.91222191  108.82299805    0.89999998    2.28999996
   12.91499996  128.58599854    0.92000002    2.28999996
   12.91833401  110.36599731    0.94000000    2.28999996
   12.92138958  121.97499847    0.94000000    2.28999996
   12.92472267  118.19599915    0.94000000    2.28999996
   12.92777824  116.19599915    0.95999998    2.28999996
   12.93111134  108.82099915    0.95999998    2.28999996
   12.93722248  108.82099915    0.94000000    2.28999996
   12.94111156  112.04199982    0.94000000    2.28999996
   12.94444466  114.67099762    0.94000000    2.28999996
   12.94555569  112.46099854    0.94000000    2.28999996
   12.94805527  107.98500061    0.94000000    2.28999996
   12.95138836  114.86900330    0.94000000    2.28999996
   12.95444393  108.29599762    0.94000000    2.30999994
   12.95777798  110.15399933    0.94000000    2.30999994
   12.96083355  114.88700104    0.94000000    2.28999996
   12.96416664   97.02100372    0.94000000    2.30999994
   12.96749973   94.07460022    0.94000000    2.30999994
   12.97055531  113.29299927    0.94000000    2.30999994
   12.97388840  108.02999878    0.94000000    2.30999994
   12.97999954  108.02999878    0.92000002    2.30999994
   12.98416710  107.39600372    0.92000002    2.30999994
   12.98722267  116.68699646    0.92000002    2.30999994
   12.99055576  120.34799957    0.92000002    2.30999994
   12.99361134  112.80899811    0.89999998    2.30999994
   12.99694443  110.56700134    0.89999998    2.30999994
   13.00027752  108.74400330    0.89999998    2.30999994
   13.00333309  112.59700012    0.89999998    2.30999994
   13.00666714  101.67800140    0.89999998    2.30999994
   13.01000023  108.49400330    0.88000000    2.30999994
   13.01222229  115.89399719    0.86000001    2.30999994
   13.01361084  110.06900024    0.86000001    2.32999992
   13.01694393  121.03399658    0.86000001    2.30999994
   13.02277756  121.03399658    0.83999997    2.32999992
   13.02694416  110.73999786    0.83999997    2.32999992
   13.02999973  112.14600372    0.81999999    2.32999992
   13.03333378  124.78900146    0.81999999    2.32999992
   13.03666687  109.55899811    0.80000001    2.32999992
   13.03972244  121.75000000    0.81999999    2.32999992
   13.04305553  114.98200226    0.80000001    2.32999992
   13.04555607  117.81400299    0.80000001    2.32999992
   13.04666710  125.25499725    0.81999999    2.32999992
   13.05000019  114.87899780    0.81999999    2.32999992
   13.05305576  131.71200562    0.80000001    2.32999992
   13.05638885  105.72000122    0.81999999    2.32999992
   13.05944443  111.85900116    0.80000001    2.34999990
   13.06555557  111.85900116    0.76999998    2.32999992
   13.06972218  121.93099976    0.76999998    2.34999990
   13.07305527  122.65000153    0.75000000    2.34999990
   13.07638836  123.98999786    0.75000000    2.34999990
   13.07888889  112.15299988    0.73000002    2.34999990
   13.07999992  120.44499969    0.70999998    2.34999990
   13.08333302  112.15599823    0.70999998    2.34999990
   13.08638859  115.93800354    0.70999998    2.36999989
   13.08972168  114.38099670    0.67000002    2.36999989
   13.09305477  113.57299805    0.67000002    2.34999990
   13.09611034  118.03600311    0.64999998    2.36999989
   13.09944439  117.59200287    0.64999998    2.34999990
   13.10249996  121.69200134    0.64999998    2.34999990
   13.10861111  121.69200134    0.64999998    2.34999990
   13.11250019  126.50399780    0.64999998    2.34999990
   13.11583328  114.67800140    0.63000000    2.36999989
   13.11916637  122.95500183    0.64999998    2.36999989
   13.12222195  121.40299988    0.63000000    2.34999990
   13.12555599  124.34300232    0.63000000    2.36999989
   13.12888908  117.64800262    0.63000000    2.36999989
   13.13194466  115.95600128    0.63000000    2.36999989
   13.13527775  119.13800049    0.61000001    2.36999989
   13.13861084  122.88099670    0.63000000    2.36999989
   13.14166641  114.56900024    0.63000000    2.36999989
   13.14499950  114.42600250    0.61000001    2.36999989
   13.14611053  114.62200165    0.61000001    2.36999989
   13.15138817  114.62200165    0.61000001    2.36999989
   13.15638828  110.55899811    0.61000001    2.36999989
   13.15972137  109.85600281    0.61000001    2.39000010
   13.16305542  116.64399719    0.61000001    2.39000010
   13.16638851  114.93199921    0.58999997    2.39000010
   13.16972256  120.32399750    0.58999997    2.39000010
   13.17277813  116.41699982    0.58999997    2.39000010
   13.17611122  128.10400391    0.61000001    2.39000010
   13.17888927  112.94400024    0.61000001    2.39000010
   13.17972279  116.98799896    0.61000001    2.39000010
   13.18305588  112.77400208    0.61000001    2.39000010
   13.18638897  116.26999664    0.58999997    2.39000010
   13.18972206  114.33499908    0.58999997    2.40000010
   13.19444466  114.33499908    0.58999997    2.39000010
   13.19861126  121.95999908    0.58999997    2.39000010
   13.20166683  115.32399750    0.58999997    2.39000010
   13.20499992  132.16499329    0.58999997    2.39000010
   13.20833302  125.67400360    0.61000001    2.39000010
   13.21166611  116.45600128    0.58999997    2.39000010
   13.21249962  120.79599762    0.58999997    2.39000010
   13.21527767  126.88200378    0.58999997    2.39000010
   13.21861076  130.23300171    0.58999997    2.39000010
   13.22194386  121.50900269    0.58999997    2.40000010
   13.22527695  131.32499695    0.58999997    2.39000010
   13.22833252  127.10099792    0.56999999    2.40000010
   13.23166656  123.21099854    0.56999999    2.40000010
   13.23694515  123.21099854    0.56999999    2.39000010
   13.24111176  116.10099792    0.56999999    2.40000010
   13.24444485  132.30700684    0.56999999    2.40000010
   13.24583340  123.77999878    0.56999999    2.39000010
   13.24805546  126.50299835    0.56999999    2.40000010
   13.25138855  124.42099762    0.56999999    2.40000010
   13.25444412  127.27200317    0.58999997    2.40000010
   13.25777817  121.28500366    0.58999997    2.40000010
   13.26083374  119.32700348    0.58999997    2.40000010
   13.26416683  136.71099854    0.58999997    2.40000010
   13.26749992  122.68800354    0.58999997    2.39000010
   13.27055550  126.80599976    0.58999997    2.40000010
   13.27388859  124.16999817    0.58999997    2.40000010
   13.27999973  124.16999817    0.56999999    2.40000010
   13.28416729  134.05599976    0.56999999    2.40000010
   13.28722286  144.38900757    0.55000001    2.40000010
   13.29055595  132.63299561    0.55000001    2.40000010
   13.29361153  126.69999695    0.55000001    2.40000010
   13.29694462  117.87200165    0.55000001    2.40000010
   13.30027771  129.30200195    0.55000001    2.40000010
   13.30333328  128.97799683    0.52999997    2.42000008
   13.30666733  111.28399658    0.52999997    2.42000008
   13.30972195  116.91200256    0.52999997    2.42000008
   13.31250000  117.16400146    0.52999997    2.42000008
   13.31333351  126.23300171    0.52999997    2.42000008
   13.31666660  132.99099731    0.52999997    2.42000008
   13.32277775  132.99099731    0.55000001    2.42000008
   13.32694435  115.49400330    0.52999997    2.42000008
   13.32999992  133.58700562    0.52999997    2.42000008
   13.33333302  119.50599670    0.52999997    2.42000008
   13.33666611  134.96000671    0.52999997    2.42000008
   13.33972168  136.98500061    0.55000001    2.42000008
   13.34305477  130.42700195    0.55000001    2.42000008
   13.34583282  128.58799744    0.52999997    2.42000008
   13.34666634  124.80999756    0.52999997    2.42000008
   13.35000038  126.51300049    0.52999997    2.42000008
   13.35333347  138.80299377    0.52999997    2.42000008
   13.35666752  137.14599609    0.52999997    2.42000008
   13.35972214  128.14900208    0.55000001    2.42000008
   13.36555576  128.14900208    0.55000001    2.44000006
   13.36972237  128.33099365    0.55000001    2.42000008
   13.37305546  132.35200500    0.55000001    2.42000008
   13.37611103  131.31500244    0.55000001    2.44000006
   13.37916660  126.00599670    0.56999999    2.44000006
   13.37972260  124.34999847    0.56999999    2.44000006
   13.38305569  135.50100708    0.56999999    2.44000006
   13.38638878  121.14700317    0.55000001    2.42000008
   13.38944435  116.35399628    0.55000001    2.44000006
   13.39277744  122.17099762    0.56999999    2.44000006
   13.39583302  133.89599609    0.56999999    2.44000006
   13.39916611  126.84500122    0.56999999    2.44000006
   13.40249920  132.39999390    0.56999999    2.44000006
   13.40833282  132.39999390    0.58999997    2.44000006
   13.41277695  131.79100037    0.58999997    2.44000006
   13.41583252  129.87399292    0.58999997    2.44000006
   13.41916656  113.69999695    0.56999999    2.44000006
   13.42277813  139.24699402    0.58999997    2.44000006
   13.42583370  126.26200104    0.58999997    2.46000004
   13.42916679  132.60600281    0.58999997    2.44000006
   13.43222237  123.02999878    0.58999997    2.44000006
   13.43555546  132.21800232    0.58999997    2.44000006
   13.43888855  131.69400024    0.58999997    2.44000006
   13.44194412  128.70399475    0.61000001    2.44000006
   13.44527817  129.17900085    0.58999997    2.44000006
   13.44583321  144.43499756    0.58999997    2.44000006
   13.46638870  144.43499756    0.58999997    2.44000006
   13.47055531  129.09199524    0.58999997    2.44000006
   13.47388840  129.51499939    0.58999997    2.46000004
   13.47694397  118.18299866    0.61000001    2.46000004
   13.47916603  126.88999939    0.58999997    2.46000004
   13.48055553  123.28199768    0.61000001    2.46000004
   13.48388958  135.71800232    0.61000001    2.46000004
   13.48722267  125.72799683    0.61000001    2.46000004
   13.49027824  116.48899841    0.58999997    2.46000004
   13.49361134  125.16799927    0.58999997    2.46000004
   13.49666691  122.00599670    0.58999997    2.46000004
   13.50000000  127.03099823    0.58999997    2.46000004
   13.50305557  128.83999634    0.58999997    2.46000004
   13.50916672  128.83999634    0.56999999    2.46000004
   13.51333332  118.70600128    0.55000001    2.46000004
   13.51666641  119.33599854    0.55000001    2.46000004
   13.51972198  116.50199890    0.55000001    2.46000004
   13.52305508  120.29100037    0.55000001    2.46000004
   13.52611065  131.64399719    0.55000001    2.46000004
   13.52944374  119.15100098    0.55000001    2.46000004
   13.53277779  123.65399933    0.55000001    2.46000004
   13.53583336  125.69599915    0.55000001    2.46000004
   13.53916740  129.53500366    0.55000001    2.46000004
   13.54222298  131.32600403    0.55000001    2.46000004
   13.54555607  123.88099670    0.52999997    2.46000004
   13.54611111  127.36199951    0.52999997    2.46000004
   13.55194473  127.36199951    0.52999997    2.46000004
   13.55611134  121.74800110    0.52999997    2.46000004
   13.55944443  128.09100342    0.52999997    2.46000004
   13.56250000  128.14300537    0.52999997    2.46000004
   13.56583309  132.55900574    0.51999998    2.46000004
   13.56916618  119.50599670    0.51999998    2.48000002
   13.57250023  123.84400177    0.51999998    2.48000002
   13.57583332  121.37599945    0.51999998    2.46000004
   13.57888889  139.02999878    0.50000000    2.46000004
   13.57944393  124.11699677    0.50000000    2.46000004
   13.58249950  116.51399994    0.50000000    2.46000004
   13.58583260  126.43199921    0.50000000    2.46000004
   13.58888817  125.19100189    0.51999998    2.48000002
   13.59499931  125.19100189    0.51999998    2.46000004
   13.59916592  130.92799377    0.50000000    2.48000002
   13.60222244  144.40100098    0.50000000    2.48000002
   13.60555553  131.15699768    0.50000000    2.48000002
   13.60888958  129.21099854    0.50000000    2.48000002
   13.61194515  124.86599731    0.50000000    2.48000002
   13.61305618  125.73000336    0.50000000    2.48000002
   13.61555576  129.76800537    0.47999999    2.48000002
   13.61888885  131.85699463    0.47999999    2.46000004
   13.62222195  131.12199402    0.47999999    2.48000002
   13.62555599  134.39999390    0.47999999    2.48000002
   13.62861156  137.65199280    0.47999999    2.48000002
   13.63194466  144.74800110    0.47999999    2.48000002
   13.63777733  144.74800110    0.47999999    2.48000002
   13.64194393  132.22000122    0.47999999    2.48000002
   13.64527798  138.02600098    0.47999999    2.48000002
   13.64611053  129.74000549    0.47999999    2.48000002
   13.64888859  142.67700195    0.47999999    2.48000002
   13.65222168  123.38700104    0.50000000    2.48000002
   13.65527725  130.60200500    0.50000000    2.48000002
   13.65861034  138.36900330    0.50000000    2.48000002
   13.66194439  134.97099304    0.50000000    2.48000002
   13.66527748  126.66000366    0.50000000    2.48000002
   13.66861153  131.06900024    0.50000000    2.48000002
   13.67194462  126.62200165    0.50000000    2.50000000
   13.67500019  125.72299957    0.50000000    2.50000000
   13.68055630  125.72299957    0.50000000    2.48000002
   13.68472195  125.88800049    0.50000000    2.50000000
   13.68805599  126.33000183    0.50000000    2.48000002
   13.69111156  129.69099426    0.50000000    2.50000000
   13.69444466  127.71800232    0.50000000    2.50000000
   13.69777775  127.03600311    0.50000000    2.50000000
   13.70111084  127.69799805    0.50000000    2.50000000
   13.70444393  142.31900024    0.50000000    2.50000000
   13.70749950  131.92100525    0.50000000    2.50000000
   13.71083355  126.65100098    0.50000000    2.50000000
   13.71277714  123.97100067    0.50000000    2.50000000
   13.71444416  123.96700287    0.50000000    2.50000000
   13.71777725  129.96000671    0.50000000    2.50000000
   13.72333336  129.96000671    0.50000000    2.50000000
   13.72777748  126.52700043    0.46000001    2.50000000
   13.73083305  127.03800201    0.47999999    2.50000000
   13.73416710  128.39199829    0.47999999    2.50000000
   13.73750019  129.64100647    0.46000001    2.50000000
   13.74083328  128.24699402    0.46000001    2.50000000
   13.74388885  127.00700378    0.46000001    2.50000000
   13.74611092  128.23100281    0.46000001    2.50000000
   13.74750042  124.70899963    0.46000001    2.50000000
   13.75083351  124.60700226    0.46000001    2.51999998
   13.75388908  127.51399994    0.46000001    2.50000000
   13.75722218  129.94900513    0.46000001    2.50000000
   13.76027775  130.75199890    0.46000001    2.50000000
   13.76638889  130.75199890    0.46000001    2.51999998
   13.77055550  123.52100372    0.46000001    2.51999998
   13.77361107  123.91100311    0.46000001    2.50000000
   13.77694416  131.74400330    0.44000000    2.51999998
   13.77944374  133.75300598    0.44000000    2.50000000
   13.78055573  142.38099670    0.44000000    2.50000000
   13.78388977  139.10299683    0.44000000    2.50000000
   13.78694534  135.13800049    0.44000000    2.51999998
   13.79027843  134.31300354    0.44000000    2.51999998
   13.79333401  144.07400513    0.44000000    2.50000000
   13.79666710  130.13699341    0.44000000    2.50000000
   13.80000019  135.27900696    0.44000000    2.51999998
   13.91138840   -1.00000000   -1.00000000   -1.00000000
   14.00833321   -1.00000000   -1.00000000   -1.00000000
   14.13055611   -1.00000000   -1.00000000   -1.00000000
   14.19916630   73.05519867    0.40000001    2.55999994
   14.20249939  138.40299988    0.40000001    2.55999994
   14.20555496  128.20500183    0.38000000    2.55999994
   14.20888901  124.06500244    0.38000000    2.55999994
   14.21222210  130.85200500    0.38000000    2.55999994
   14.21527767  123.03800201    0.38000000    2.55999994
   14.21944427  123.03800201    0.38000000    2.55999994
   14.22361088  119.30200195    0.38000000    2.55999994
   14.22694397  126.00499725    0.38000000    2.57999992
   14.22999954  128.54800415    0.40000001    2.55999994
   14.23249912  137.10899353    0.38000000    2.57999992
   14.23361111  128.71499634    0.38000000    2.55999994
   14.23694515  119.09600067    0.38000000    2.57999992
   14.24027824  126.03600311    0.40000001    2.57999992
   14.24333382  128.62300110    0.38000000    2.57999992
   14.24666691  134.60800171    0.38000000    2.57999992
   14.25000000  126.50199890    0.38000000    2.57999992
   14.25305557  126.82700348    0.40000001    2.55999994
   14.25638866  123.72299957    0.38000000    2.57999992
   14.26222229  123.72299957    0.38000000    2.57999992
   14.26638889  123.09500122    0.41999999    2.57999992
   14.26972198  131.53300476    0.40000001    2.57999992
   14.27305508  137.57699585    0.41999999    2.57999992
   14.27611065  132.93200684    0.41999999    2.57999992
   14.27944374  121.16000366    0.40000001    2.57999992
   14.28249931  130.40699768    0.40000001    2.57999992
   14.28583336  127.28600311    0.40000001    2.57999992
   14.28916740  143.18200684    0.40000001    2.57999992
   14.29222298  129.88900757    0.40000001    2.57999992
   14.29555607  130.98100281    0.38000000    2.57999992
   14.29888916  121.74400330    0.40000001    2.57999992
   14.29916668  128.55999756    0.40000001    2.57999992
   14.30527782  128.55999756    0.38000000    2.57999992
   14.30944443  126.65399933    0.38000000    2.57999992
   14.31250000  139.34500122    0.38000000    2.57999992
   14.31583309  122.75000000    0.38000000    2.57999992
   14.31916618  130.06900024    0.38000000    2.57999992
   14.32222176  145.21899414    0.38000000    2.57999992
   14.32555580  145.80900574    0.38000000    2.57999992
   14.32861137  128.99200439    0.38000000    2.59999990
   14.33194447  133.09500122    0.38000000    2.57999992
   14.33277798  140.06799316    0.38000000    2.57999992
   14.33555508  136.62399292    0.36000001    2.57999992
   14.33888817  126.33799744    0.36000001    2.57999992
   14.34194374  121.91799927    0.36000001    2.57999992
   14.34805489  121.91799927    0.36000001    2.59999990
   14.35222244  124.05999756    0.36000001    2.57999992
   14.35527802  116.89299774    0.36000001    2.57999992
   14.35861111  118.59799957    0.36000001    2.57999992
   14.36194515  115.66200256    0.34000000    2.57999992
   14.36500072  128.93600464    0.34000000    2.57999992
   14.36611176  129.13000488    0.34000000    2.57999992
   14.36861134  123.02400208    0.34000000    2.57999992
   14.37194443  115.51300049    0.34000000    2.57999992
   14.37500000  115.35299683    0.34000000    2.59999990
   14.37833309  120.25900269    0.34000000    2.59999990
   14.38166714  111.78800201    0.34000000    2.59999990
   14.38472176  113.76999664    0.34000000    2.57999992
   14.39083290  113.76999664    0.34000000    2.57999992
   14.39499950  118.35800171    0.34000000    2.59999990
   14.39833355  115.10800171    0.34000000    2.59999990
   14.39944458  112.18699646    0.34000000    2.57999992
   14.40194416  114.91600037    0.34000000    2.57999992
   14.40527725  119.31500244    0.34000000    2.57999992
   14.40833282  118.64600372    0.34000000    2.59999990
   14.41166592  122.83499908    0.34000000    2.57999992
   14.41499996  113.45300293    0.34000000    2.59999990
   14.41805553  112.19699860    0.34000000    2.59999990
   14.42138958  114.92299652    0.34000000    2.57999992
   14.42444515  110.87300110    0.34000000    2.59999990
   14.42777824  115.95099640    0.34000000    2.59999990
   14.43361092  115.95099640    0.34000000    2.59999990
   14.43777752  128.68899536    0.34000000    2.59999990
   14.44111156  128.99899292    0.34000000    2.59999990
   14.44444466  110.52700043    0.34000000    2.59999990
   14.44750023  110.06800079    0.34000000    2.59999990
   14.45083332  117.39600372    0.34000000    2.59999990
   14.45416641  109.47200012    0.31999999    2.59999990
   14.45722198  116.90499878    0.31999999    2.59999990
   14.46055508  109.34999847    0.31999999    2.59999990
   14.46388912  109.74900055    0.31999999    2.59999990
   14.46611118  107.99600220    0.31999999    2.59999990
   14.46722221  112.57299805    0.31999999    2.59999990
   14.47055531  112.44400024    0.34000000    2.59999990
   14.47666645  112.44400024    0.31999999    2.59999990
   14.48083305  115.78199768    0.31999999    2.59999990
   14.48388958  115.86499786    0.31999999    2.59999990
   14.48722267  106.30200195    0.34000000    2.59999990
   14.49027824  103.41699982    0.31999999    2.61999989
   14.49361134  105.39499664    0.31999999    2.59999990
   14.49694443  108.55000305    0.31999999    2.61999989
   14.49944496  100.97000122    0.31999999    2.61999989
   14.50055599  108.38500214    0.34000000    2.59999990
   14.50388908  114.87799835    0.36000001    2.59999990
   14.50722218  111.04000092    0.38000000    2.59999990
   14.51027775  116.85299683    0.38000000    2.61999989
   14.51361084  114.37899780    0.36000001    2.59999990
   14.51944447  114.37899780    0.38000000    2.59999990
   14.52361107  124.23799896    0.38000000    2.59999990
   14.52666664  114.68299866    0.38000000    2.59999990
   14.52999973  120.36900330    0.40000001    2.59999990
   14.53277779  118.40699768    0.40000001    2.59999990
   14.53361130  110.82900238    0.40000001    2.59999990
   14.53694534  125.40299988    0.38000000    2.59999990
   14.54027843  123.20200348    0.38000000    2.59999990
   14.54333401  122.96800232    0.40000001    2.59999990
   14.54666710  115.92199707    0.41999999    2.61999989
   14.54972267  114.40399933    0.40000001    2.59999990
   14.55305576  114.39099884    0.40000001    2.59999990
   14.55638885  113.28099823    0.41999999    2.61999989
   14.56222248  113.28099823    0.44000000    2.59999990
   14.56638908  113.48400116    0.41999999    2.59999990
   14.56972218  117.51799774    0.41999999    2.59999990
   14.57277775  110.71600342    0.44000000    2.59999990
   14.57611084  112.54599762    0.44000000    2.61999989
   14.57944393  110.90200043    0.44000000    2.59999990
   14.58249950  120.00900269    0.44000000    2.61999989
   14.58583260  117.51699829    0.44000000    2.61999989
   14.58888817  123.73100281    0.46000001    2.61999989
   14.59222221  121.55699921    0.46000001    2.59999990
   14.59555531  119.61799622    0.46000001    2.61999989
   14.59861088  119.40799713    0.47999999    2.61999989
   14.59944439  119.80599976    0.50000000    2.59999990
   14.60500050  119.80599976    0.50000000    2.61999989
   14.60916710  120.17900085    0.50000000    2.59999990
   14.61250019  123.73200226    0.47999999    2.61999989
   14.61583328  114.82800293    0.47999999    2.59999990
   14.61888885  121.35900116    0.47999999    2.59999990
   14.62222195  118.32900238    0.46000001    2.61999989
   14.62527752  112.82299805    0.46000001    2.59999990
   14.62861156  123.91400146    0.44000000    2.61999989
   14.63194466  117.20600128    0.44000000    2.59999990
   14.63277817  124.38400269    0.44000000    2.59999990
   14.63527775  119.20999908    0.41999999    2.61999989
   14.63861084  115.98400116    0.41999999    2.61999989
   14.64166641  123.48200226    0.41999999    2.61999989
   14.64805508  123.48200226    0.44000000    2.59999990
   14.65222168  122.44899750    0.41999999    2.61999989
   14.65527725  118.37100220    0.44000000    2.61999989
   14.65861034  110.98699951    0.41999999    2.61999989
   14.66166592  119.88099670    0.44000000    2.61999989
   14.66499996  110.04900360    0.44000000    2.59999990
   14.66611099  115.73400116    0.41999999    2.61999989
   14.66861153  108.81600189    0.41999999    2.61999989
   14.67194462  115.88500214    0.40000001    2.61999989
   14.67500019  114.77100372    0.40000001    2.61999989
   14.67833328  107.67099762    0.44000000    2.61999989
   14.68166733  103.29599762    0.44000000    2.61999989
   14.68472195  108.18099976    0.41999999    2.61999989
   14.69083309  108.18099976    0.41999999    2.61999989
   14.69499969  123.33499908    0.44000000    2.64000010
   14.69805527  104.23500061    0.41999999    2.61999989
   14.69944477  113.13400269    0.38000000    2.61999989
   14.70166683  110.62699890    0.38000000    2.61999989
   14.70499992  112.89099884    0.36000001    2.61999989
   14.70833302  111.32700348    0.36000001    2.61999989
   14.71138859  116.41799927    0.36000001    2.61999989
   14.71472168  113.11599731    0.34000000    2.61999989
   14.71777725  110.35299683    0.34000000    2.61999989
   14.72111034  110.84700012    0.34000000    2.61999989
   14.72444439  107.57199860    0.34000000    2.61999989
   14.72749996  109.31400299    0.31999999    2.61999989
   14.73361111  109.31400299    0.31999999    2.61999989
   14.73777771  118.85099792    0.31999999    2.61999989
   14.74111176  105.57900238    0.31999999    2.61999989
   14.74416733  108.66600037    0.30000001    2.61999989
   14.74750042  117.78199768    0.30000001    2.64000010
   14.75055599  118.26699829    0.30000001    2.61999989
   14.75388908  111.20099640    0.30000001    2.61999989
   14.75722218  109.70600128    0.30000001    2.64000010
   14.76027775  123.23000336    0.30000001    2.64000010
   14.76361084  112.53299713    0.30000001    2.61999989
   14.76611137  109.55000305    0.30000001    2.61999989
   14.76722240  108.93199921    0.30000001    2.61999989
   14.77055550  103.37599945    0.30000001    2.61999989
   14.77638817  103.37599945    0.30000001    2.64000010
   14.78055573  106.71499634    0.30000001    2.64000010
   14.78388977  125.46199799    0.30000001    2.64000010
   14.78722286  110.73100281    0.30000001    2.64000010
   14.79027843  122.83399963    0.31999999    2.64000010
   14.79361153  115.49600220    0.30000001    2.64000010
   14.79694462  107.57900238    0.30000001    2.64000010
   14.79944515  115.37999725    0.30000001    2.64000010
   14.80027771  118.37799835    0.30000001    2.64000010
   14.80361176  122.84899902    0.31999999    2.64000010
   14.80694485  125.37500000    0.31999999    2.64000010
   14.81000042  116.87200165    0.31999999    2.64000010
   14.81333351  117.91200256    0.31999999    2.64000010
   14.81944466  117.91200256    0.31999999    2.64000010
   14.82361126  130.00900269    0.31999999    2.64000010
   14.82694435  130.80200195    0.31999999    2.64000010
   14.82999992  120.82700348    0.31999999    2.61999989
   14.83277798  133.32600403    0.31999999    2.64000010
   14.83361053  115.44200134    0.31999999    2.64000010
   14.83694458  130.22300720    0.31999999    2.64000010
   14.84027767  130.01100159    0.31999999    2.64000010
   14.84333324  132.35699463    0.31999999    2.61999989
   14.84666634  130.76499939    0.31999999    2.64000010
   14.84972191  130.01499939    0.31999999    2.64000010
   14.85305595  127.90599823    0.31999999    2.64000010
   14.85638905  115.74400330    0.31999999    2.64000010
   14.86222267  115.74400330    0.31999999    2.64000010
   14.86638927  124.45300293    0.31999999    2.64000010
   14.86944485  118.45600128    0.31999999    2.64000010
   14.87277794  129.31300354    0.31999999    2.64000010
   14.87611103  122.40100098    0.31999999    2.64000010
   14.87916660  112.40000153    0.31999999    2.64000010
   14.88249969  119.04399872    0.31999999    2.64000010
   14.88583279  109.29900360    0.31999999    2.64000010
   14.88888836  119.16899872    0.31999999    2.64000010
   14.89222240  122.05100250    0.31999999    2.64000010
   14.89527798  109.55500031    0.31999999    2.64000010
   14.89861107  120.45800018    0.31999999    2.64000010
   14.89944458  119.95099640    0.31999999    2.64000010
   14.90499973  119.95099640    0.31999999    2.64000010
   14.90916634  121.98699951    0.31999999    2.61999989
   14.91249943  117.66100311    0.31999999    2.61999989
   14.91555500  119.11699677    0.31999999    2.64000010
   14.91888905  122.17400360    0.31999999    2.64000010
   14.92194462  126.75599670    0.31999999    2.64000010
   14.92527771  113.70400238    0.31999999    2.64000010
   14.92861176  115.81999969    0.31999999    2.64000010
   14.93166733  135.31300354    0.31999999    2.64000010
   14.93277836  135.47900391    0.31999999    2.64000010
   14.93527794  119.08999634    0.31999999    2.64000010
   14.93861103  102.91600037    0.31999999    2.64000010
   14.94194412  124.32199860    0.31999999    2.66000009
   14.94777775  124.32199860    0.31999999    2.64000010
   14.95194435  135.84899902    0.31999999    2.64000010
   14.95527744  129.51400757    0.34000000    2.64000010
   14.95833302  115.11599731    0.31999999    2.66000009
   14.96166611  120.89299774    0.34000000    2.64000010
   14.96500015  120.65699768    0.31999999    2.64000010
   14.96611118  113.85700226    0.31999999    2.64000010
   14.96833324  118.67700195    0.31999999    2.66000009
   14.97166634  126.51200104    0.31999999    2.64000010
   14.97499943  111.08499908    0.31999999    2.64000010
   14.97805500  114.65799713    0.31999999    2.64000010
   14.98138809  118.32199860    0.31999999    2.64000010
   14.98472214  111.19100189    0.31999999    2.64000010
   14.99083328  111.19100189    0.31999999    2.64000010
   14.99472237  116.77999878    0.31999999    2.64000010
   14.99805546  114.99900055    0.31999999    2.66000009
   14.99944496  110.65399933    0.31999999    2.66000009
   15.00166702  113.38899994    0.31999999    2.66000009
   15.00500011  122.45400238    0.31999999    2.66000009
   15.00833321  106.29799652    0.31999999    2.67000008
   15.01138878  109.04000092    0.31999999    2.66000009
   15.01472187  113.72499847    0.31999999    2.66000009
   15.01805496  117.39700317    0.31999999    2.66000009
   15.02111053  116.91000366    0.31999999    2.64000010
   15.02444458  107.13899994    0.31999999    2.64000010
   15.02750015  106.16000366    0.31999999    2.64000010
   15.03361130  106.16000366    0.31999999    2.66000009
   15.03777790  108.02100372    0.31999999    2.64000010
   15.04083347   99.36219788    0.31999999    2.66000009
   15.04416752  108.96499634    0.31999999    2.61999989
   15.04750061  104.62799835    0.31999999    2.64000010
   15.05055618  120.38099670    0.31999999    2.66000009
   15.05388927  110.07099915    0.31999999    2.66000009
   15.05722237  110.40299988    0.31999999    2.66000009
   15.06027794  118.44899750    0.31999999    2.66000009
   15.06361103  117.34899902    0.31999999    2.66000009
   15.06611156  106.63600159    0.31999999    2.64000010
   15.06722260  119.45999908    0.31999999    2.66000009
   15.07055569  126.13300323    0.31999999    2.66000009
   15.07638836  126.13300323    0.31999999    2.66000009
   15.08055592  122.80000305    0.31999999    2.66000009
   15.08388901  118.45800018    0.31999999    2.66000009
   15.08694458  113.02700043    0.31999999    2.64000010
   15.09027767  109.13500214    0.31999999    2.66000009
   15.09333324  112.72599792    0.34000000    2.66000009
   15.09666634  106.58100128    0.31999999    2.64000010
   15.09944439  109.11299896    0.31999999    2.64000010
   15.10027790  114.48999786    0.31999999    2.64000010
   15.10361195  107.94300079    0.31999999    2.64000010
   15.10694504  112.72299957    0.31999999    2.66000009
   15.11000061  102.32800293    0.31999999    2.66000009
   15.11333370  111.32199860    0.31999999    2.64000010
   15.11916637  111.32199860    0.31999999    2.66000009
   15.12333393  106.54599762    0.31999999    2.66000009
   15.12666702  109.14299774    0.31999999    2.64000010
   15.12972260  106.44400024    0.31999999    2.66000009
   15.13277817  101.90699768    0.31999999    2.67000008
   15.13333321  106.64199829    0.31999999    2.67000008
   15.13666630  111.75499725    0.31999999    2.66000009
   15.14000034  123.18800354    0.31999999    2.64000010
   15.14305496  110.58799744    0.31999999    2.66000009
   15.14638901  127.40599823    0.31999999    2.66000009
   15.14972210  121.69699860    0.31999999    2.64000010
   15.15277767  118.85800171    0.31999999    2.66000009
   15.15611076  118.51300049    0.31999999    2.66000009
   15.16222191  118.51300049    0.31999999    2.66000009
   15.16611099  126.17900085    0.31999999    2.66000009
   15.16944504  120.60299683    0.31999999    2.66000009
   15.17277813  110.60600281    0.31999999    2.66000009
   15.17583370  118.88600159    0.31999999    2.66000009
   15.17916679  128.67399597    0.31999999    2.66000009
   15.18249989  108.20200348    0.31999999    2.66000009
   15.18555546  112.16699982    0.31999999    2.66000009
   15.18888855  113.98200226    0.31999999    2.66000009
   15.19194412  115.59100342    0.31999999    2.66000009
   15.19527817  112.60199738    0.31999999    2.66000009
   15.19861126  114.36299896    0.31999999    2.66000009
   15.19944477  132.24000549    0.31999999    2.66000009
   15.21999931  132.24000549    0.31999999    2.66000009
   15.22416592  118.07599640    0.30000001    2.66000009
   15.22749996  123.13700104    0.30000001    2.64000010
   15.23055553  124.20800018    0.30000001    2.66000009
   15.23277760  121.30000305    0.30000001    2.67000008
   15.23444462  111.06400299    0.30000001    2.67000008
   15.23750019  101.81999969    0.30000001    2.67000008
   15.24083328  120.61100006    0.30000001    2.66000009
   15.24416733  117.43000031    0.30000001    2.67000008
   15.24722290  116.44400024    0.30000001    2.66000009
   15.25055599  117.29199982    0.30000001    2.66000009
   15.25361156  111.88700104    0.30000001    2.66000009
   15.25694466  117.15200043    0.30000001    2.66000009
   15.26277733  117.15200043    0.30000001    2.66000009
   15.26694393  105.75700378    0.30000001    2.67000008
   15.27027798  112.41100311    0.30000001    2.66000009
   15.27333355  117.51100159    0.31999999    2.66000009
   15.27666664  112.68099976    0.31999999    2.67000008
   15.27999973  109.44999695    0.30000001    2.66000009
   15.28305531  104.05300140    0.30000001    2.66000009
   15.28638935  107.81199646    0.31999999    2.66000009
   15.28972244  113.23799896    0.30000001    2.66000009
   15.29277802  110.79699707    0.31999999    2.66000009
   15.29611111  103.64700317    0.31999999    2.66000009
   15.29916668  112.08000183    0.31999999    2.67000008
   15.29972267  110.16100311    0.31999999    2.67000008
   15.30583382  110.16100311    0.31999999    2.66000009
   15.30972195  120.16000366    0.31999999    2.66000009
   15.31305599  110.98699951    0.31999999    2.67000008
   15.31638908  111.30000305    0.31999999    2.66000009
   15.31944466  105.67900085    0.31999999    2.66000009
   15.32277775  109.86699677    0.31999999    2.66000009
   15.32583332  116.44300079    0.31999999    2.66000009
   15.32916641  119.69400024    0.34000000    2.66000009
   15.33249950  111.20200348    0.36000001    2.66000009
   15.33305550  109.98500061    0.36000001    2.67000008
   15.33611107  108.62599945    0.34000000    2.67000008
   15.33944416  103.38200378    0.34000000    2.66000009
   15.34249973  104.64600372    0.34000000    2.66000009
   15.34861088  104.64600372    0.34000000    2.66000009
   15.35277843  113.45800018    0.34000000    2.66000009
   15.35583401  105.65299988    0.34000000    2.66000009
   15.35916710  125.77300262    0.36000001    2.67000008
   15.36222267  109.69000244    0.34000000    2.67000008
   15.36555576  110.00900269    0.34000000    2.67000008
   15.36638927  101.52700043    0.34000000    2.66000009
   15.36916637  104.58300018    0.34000000    2.66000009
   15.37250042  104.32800293    0.36000001    2.66000009
   15.37555599  107.77600098    0.34000000    2.67000008
   15.37888908  105.10399628    0.34000000    2.66000009
   15.38222218  110.49500275    0.36000001    2.66000009
   15.38527775  114.63999939    0.34000000    2.67000008
   15.39138889  114.63999939    0.34000000    2.66000009
   15.39555550  107.76599884    0.36000001    2.67000008
   15.39861107  105.01499939    0.34000000    2.67000008
   15.39972210  101.76100159    0.34000000    2.67000008
   15.40222168  111.40599823    0.34000000    2.67000008
   15.40555477  113.13099670    0.34000000    2.67000008
   15.40861034  105.51000214    0.34000000    2.67000008
   15.41194439  102.44899750    0.38000000    2.66000009
   15.41527748  106.93699646    0.38000000    2.67000008
   15.41833401  102.29799652    0.38000000    2.67000008
   15.42166710  108.88300323    0.38000000    2.67000008
   15.42472267  110.65100098    0.38000000    2.67000008
   15.42805576  107.98100281    0.38000000    2.66000009
   15.43416691  107.98100281    0.38000000    2.67000008
   15.43833351   91.92250061    0.38000000    2.66000009
   15.44166660  109.81300354    0.36000001    2.67000008
   15.44472218  105.02899933    0.36000001    2.67000008
   15.44805527  110.27700043    0.34000000    2.66000009
   15.45138836  105.60600281    0.34000000    2.67000008
   15.45444393  107.39499664    0.34000000    2.67000008
   15.45777798  101.51399994    0.36000001    2.67000008
   15.46083355   94.97699738    0.34000000    2.66000009
   15.46416664   97.41320038    0.34000000    2.67000008
   15.46638870  100.11699677    0.34000000    2.67000008
   15.46777725   95.16359711    0.34000000    2.69000006
   15.47111034  105.10800171    0.34000000    2.67000008
   15.47722149  105.10800171    0.34000000    2.66000009
   15.48111057   99.15390015    0.34000000    2.66000009
   15.48444462   93.14910126    0.36000001    2.67000008
   15.48777771   80.95899963    0.36000001    2.67000008
   15.49083328   83.33999634    0.36000001    2.66000009
   15.49416733   87.78959656    0.36000001    2.67000008
   15.49722290   84.52999878    0.36000001    2.66000009
   15.50000000   85.39569855    0.38000000    2.67000008
   15.50083351   81.97000122    0.38000000    2.67000008
   15.50416660   83.43820190    0.38000000    2.67000008
   15.50722218   85.83689880    0.38000000    2.67000008
   15.51055527   85.05950165    0.38000000    2.66000009
   15.51388931   85.62719727    0.38000000    2.67000008
   15.51999950   85.62719727    0.40000001    2.66000009
   15.52416611   81.06659698    0.40000001    2.67000008
   15.52722168   80.46099854    0.40000001    2.67000008
   15.53055573   80.93750000    0.40000001    2.67000008
   15.53333378   89.80570221    0.40000001    2.67000008
   15.53416729   79.79509735    0.40000001    2.67000008
   15.53750038   92.84929657    0.40000001    2.67000008
   15.54055595   99.76249695    0.40000001    2.67000008
   15.54388905   98.46700287    0.36000001    2.67000008
   15.54722309   99.03289795    0.36000001    2.66000009
   15.55027771   99.21810150    0.34000000    2.67000008
   15.55361176  100.12400055    0.36000001    2.66000009
   15.55694485   98.94830322    0.34000000    2.66000009
   15.56277752   98.94830322    0.34000000    2.67000008
   15.56694412   98.15280151    0.36000001    2.66000009
   15.56999969   95.98709869    0.36000001    2.67000008
   15.57333374   99.46420288    0.36000001    2.67000008
   15.57666683  107.00599670    0.38000000    2.67000008
   15.57972240   97.88690186    0.38000000    2.67000008
   15.58305550   99.04489899    0.38000000    2.67000008
   15.58638859  101.21399689    0.38000000    2.67000008
   15.58944416   98.21630096    0.38000000    2.67000008
   15.59277725   96.84169769    0.36000001    2.66000009
   15.59583282   95.04630280    0.38000000    2.67000008
   15.59916592  104.54900360    0.38000000    2.67000008
   15.60000038  103.54799652    0.38000000    2.67000008
   15.60555553  103.54799652    0.34000000    2.67000008
   15.60972214   96.29900360    0.34000000    2.67000008
   15.61305618   97.13780212    0.31999999    2.67000008
   15.61611176   97.67549896    0.31999999    2.67000008
   15.61944485  100.11199951    0.31999999    2.67000008
   15.62277794   89.31379700    0.31999999    2.67000008
   15.62583351   92.60179901    0.31999999    2.67000008
   15.62916660   95.94719696    0.31999999    2.67000008
   15.63222218   99.10540009    0.34000000    2.67000008
   15.63333321   94.72810364    0.34000000    2.67000008
   15.63583279   99.15920258    0.34000000    2.67000008
   15.63916683   95.93270111    0.34000000    2.67000008
   15.64249992   97.70120239    0.34000000    2.67000008
   15.64861107   97.70120239    0.34000000    2.69000006
   15.65249920   99.34839630    0.36000001    2.67000008
   15.65583324  103.87300110    0.34000000    2.67000008
   15.65916634  107.71800232    0.34000000    2.67000008
   15.66222191   98.34690094    0.34000000    2.67000008
   15.66555500   93.04060364    0.34000000    2.67000008
   15.66666698  103.88899994    0.34000000    2.67000008
   15.66916656  109.14199829    0.34000000    2.67000008
   15.67250061  104.71399689    0.34000000    2.67000008
   15.67555618  104.85500336    0.34000000    2.67000008
   15.67888927  111.69799805    0.34000000    2.66000009
   15.68222237   98.72959900    0.34000000    2.67000008
   15.68527794  114.28099823    0.34000000    2.67000008
   15.69138908  114.28099823    0.34000000    2.66000009
   15.69555569  112.25800323    0.34000000    2.67000008
   15.69861126  102.55599976    0.31999999    2.67000008
   15.69999981  113.99500275    0.31999999    2.67000008
   15.70222187  107.03800201    0.31999999    2.67000008
   15.70555496  102.31199646    0.34000000    2.67000008
   15.70861053  101.26999664    0.34000000    2.67000008
   15.71194458   99.76979828    0.34000000    2.67000008
   15.71527767   99.57800293    0.34000000    2.67000008
   15.71833324  104.40499878    0.38000000    2.67000008
   15.72166634  101.64199829    0.38000000    2.67000008
   15.72499943  101.76799774    0.36000001    2.67000008
   15.72805500  110.51100159    0.38000000    2.67000008
   15.73416710  110.51100159    0.36000001    2.67000008
   15.73833370   98.23459625    0.36000001    2.67000008
   15.74166679   98.54190063    0.36000001    2.67000008
   15.74472237  114.84799957    0.36000001    2.67000008
   15.74805546  110.60199738    0.36000001    2.67000008
   15.75111103  102.81700134    0.36000001    2.67000008
   15.75444412  101.96299744    0.36000001    2.67000008
   15.75777817  100.73200226    0.36000001    2.67000008
   15.76083374  116.08000183    0.36000001    2.67000008
   15.76416683  106.50599670    0.36000001    2.67000008
   15.76666641  106.65200043    0.36000001    2.67000008
   15.76777744  109.57499695    0.36000001    2.67000008
   15.77111053  103.98600006    0.36000001    2.66000009
   15.77694416  103.98600006    0.38000000    2.67000008
   15.78111076  105.04499817    0.38000000    2.67000008
   15.78444481   94.17800140    0.36000001    2.67000008
   15.78750038  102.29299927    0.36000001    2.67000008
   15.79083347   97.01249695    0.36000001    2.67000008
   15.79416752   96.63960266    0.36000001    2.67000008
   15.79722309   99.69229889    0.36000001    2.67000008
   15.80000019   94.01149750    0.36000001    2.67000008
   15.80083370  110.85099792    0.36000001    2.67000008
   15.80416679  103.57800293    0.36000001    2.67000008
   15.80722237  111.48300171    0.36000001    2.67000008
   15.81055546  100.95099640    0.36000001    2.67000008
   15.81388950  108.51399994    0.36000001    2.69000006
   15.81972218  108.51399994    0.36000001    2.67000008
   15.82388878  105.59200287    0.36000001    2.67000008
   15.82722187  105.08399963    0.36000001    2.69000006
   15.83055592   99.99929810    0.36000001    2.67000008
   15.83333302  113.04199982    0.36000001    2.67000008
   15.83388901  110.13500214    0.36000001    2.67000008
   15.83722210   99.90229797    0.36000001    2.67000008
   15.84055519  119.48600006    0.34000000    2.67000008
   15.84361076  111.57800293    0.36000001    2.67000008
   15.84694386   99.14820099    0.34000000    2.67000008
   15.85000038  102.28299713    0.34000000    2.67000008
   15.85333347  111.11499786    0.34000000    2.69000006
   15.85666752  107.93699646    0.34000000    2.67000008
   15.86277771  107.93699646    0.34000000    2.67000008
   15.86694431   96.04479980    0.34000000    2.69000006
   15.86999989  100.70200348    0.34000000    2.67000008
   15.87333393  109.53500366    0.34000000    2.67000008
   15.87638855  107.50399780    0.34000000    2.67000008
   15.87972260  103.70700073    0.36000001    2.67000008
   15.88305569   99.28959656    0.36000001    2.67000008
   15.88611126  101.25099945    0.36000001    2.67000008
   15.88944435  106.94200134    0.36000001    2.67000008
   15.89277744   95.84459686    0.36000001    2.67000008
   15.89583302   99.46369934    0.36000001    2.67000008
   15.89916611  109.25000000    0.36000001    2.67000008
   15.89999962  106.14499664    0.36000001    2.67000008
   15.90555477  106.14499664    0.38000000    2.67000008
   15.90972137  111.55899811    0.36000001    2.67000008
   15.91277695  101.69499969    0.36000001    2.69000006
   15.91611099  103.51000214    0.38000000    2.69000006
   15.91944504  113.64099884    0.38000000    2.69000006
   15.92250061  102.48100281    0.40000001    2.69000006
   15.92583370  103.91500092    0.38000000    2.67000008
   15.92916679  105.62300110    0.36000001    2.67000008
   15.93222237   86.98580170    0.36000001    2.67000008
   15.93333340  109.42299652    0.36000001    2.67000008
   15.93583298  102.87400055    0.36000001    2.69000006
   15.93916702  102.01499939    0.38000000    2.67000008
   15.94250011   96.81089783    0.40000001    2.67000008
   15.94833374   96.81089783    0.40000001    2.69000006
   15.95249939   97.53489685    0.40000001    2.69000006
   15.95583344   98.17469788    0.38000000    2.69000006
   15.95888901  101.77500153    0.40000001    2.67000008
   15.96222210   99.44129944    0.38000000    2.69000006
   15.96555519   91.48429871    0.40000001    2.67000008
   15.96666622   82.70749664    0.38000000    2.67000008
   15.96888828  104.14900208    0.38000000    2.69000006
   15.97222137   95.18879700    0.38000000    2.67000008
   15.97555542  103.50199890    0.36000001    2.67000008
   15.97861099   91.43979645    0.36000001    2.69000006
   15.98194408  101.44300079    0.36000001    2.69000006
   15.98500061   92.37000275    0.36000001    2.69000006
   15.99111176   92.37000275    0.34000000    2.67000008
   15.99527836  115.71199799    0.36000001    2.67000008
   15.99861145  109.94300079    0.34000000    2.69000006
   16.00000000  100.09100342    0.34000000    2.69000006
   16.00222206  107.73100281    0.36000001    2.69000006
   16.00555611  102.64299774    0.36000001    2.69000006
   16.00888824   95.43730164    0.36000001    2.69000006
   16.01194382  108.40000153    0.34000000    2.69000006
   16.01527786   97.10659790    0.34000000    2.69000006
   16.01833344   99.43340302    0.36000001    2.69000006
   16.02166557   92.21620178    0.34000000    2.67000008
   16.02499962   94.52870178    0.34000000    2.69000006
   16.02805519  108.70800018    0.34000000    2.69000006
   16.03416634  108.70800018    0.34000000    2.69000006
   16.03833199  105.13099670    0.34000000    2.69000006
   16.04138756  103.87400055    0.36000001    2.69000006
   16.04472160   95.83999634    0.34000000    2.69000006
   16.04777718  103.73899841    0.34000000    2.69000006
   16.05111122   94.11250305    0.36000001    2.69000006
   16.05444336   92.34369659    0.36000001    2.69000006
   16.05749893  101.63800049    0.36000001    2.69000006
   16.06083298   98.77269745    0.36000001    2.69000006
   16.06416512  107.21399689    0.36000001    2.69000006
   16.06666756   98.89379883    0.36000001    2.67000008
   16.06750107   87.21929932    0.36000001    2.67000008
   16.07083511   99.31759644    0.36000001    2.67000008
   16.07694626   99.31759644    0.36000001    2.67000008
   16.08111191  100.42500305    0.36000001    2.67000008
   16.08416748   92.31680298    0.36000001    2.69000006
   16.08750153  101.72499847    0.36000001    2.69000006
   16.09083366  105.08699799    0.36000001    2.69000006
   16.09388924  100.52200317    0.34000000    2.69000006
   16.09722328  107.54299927    0.36000001    2.67000008
   16.10000038   95.99960327    0.36000001    2.67000008
   16.10083389  100.07199860    0.36000001    2.69000006
   16.10416794  104.07299805    0.36000001    2.69000006
   16.10750008  100.95899963    0.36000001    2.69000006
   16.11055565  111.23600006    0.36000001    2.67000008
   16.11388969  102.32499695    0.36000001    2.69000006
   16.11972237  102.32499695    0.36000001    2.67000008
   16.12388992  107.58999634    0.36000001    2.69000006
   16.12722206   92.75109863    0.36000001    2.69000006
   16.13027763   98.43229675    0.36000001    2.67000008
   16.13333321  100.15000153    0.36000001    2.69000006
   16.13388824  112.14600372    0.36000001    2.69000006
   16.13722229   96.65529633    0.36000001    2.67000008
   16.14055634  103.16500092    0.36000001    2.69000006
   16.14361191  100.57299805    0.36000001    2.69000006
   16.14694405  105.29000092    0.36000001    2.69000006
   16.15027809   98.65239716    0.36000001    2.67000008
   16.15333366   99.00969696    0.36000001    2.69000006
   16.15666580   96.35939789    0.36000001    2.71000004
   16.16250038   96.35939789    0.36000001    2.67000008
   16.16666603  107.23999786    0.36000001    2.69000006
   16.17000008   99.42440033    0.36000001    2.69000006
   16.17305565  100.10600281    0.36000001    2.69000006
   16.17638779  114.66100311    0.36000001    2.69000006
   16.17972183   99.01709747    0.36000001    2.69000006
   16.18305397  106.99500275    0.36000001    2.69000006
   16.18638802   96.67279816    0.36000001    2.69000006
   16.18944359  102.41100311    0.36000001    2.69000006
   16.19277763  102.78500366    0.36000001    2.69000006
   16.19583321  102.09600067    0.36000001    2.69000006
   16.19916534   98.57309723    0.36000001    2.69000006
   16.20000076   99.26409912    0.36000001    2.69000006
   16.20555687   99.26409912    0.36000001    2.67000008
   16.20972252   99.74379730    0.36000001    2.69000006
   16.21277809   96.91909790    0.36000001    2.69000006
   16.21611214   97.83840179    0.38000000    2.69000006
   16.23361206   96.77310181    0.36000001    2.67000008
   16.23611069   90.00689697    0.36000001    2.69000006
   16.23916626  100.54799652    0.36000001    2.67000008
   16.24250031   98.38849640    0.36000001    2.67000008
   16.24861145   98.38849640    0.36000001    2.67000008
   16.25250053   93.47270203    0.36000001    2.69000006
   16.25583267  100.94499969    0.36000001    2.69000006
   16.25916672  100.87300110    0.36000001    2.67000008
   16.26222229   98.44360352    0.36000001    2.69000006
   16.26555634   98.06300354    0.34000000    2.69000006
   16.26694489   98.62280273    0.36000001    2.69000006
   16.26888847  100.75499725    0.34000000    2.67000008
   16.27222252  107.43900299    0.34000000    2.69000006
   16.27555466  101.65599823    0.36000001    2.69000006
   16.27861023  102.52600098    0.36000001    2.69000006
   16.28194427  105.21499634    0.36000001    2.69000006
   16.28527641  100.69100189    0.36000001    2.69000006
   16.29138756  100.69100189    0.36000001    2.69000006
   16.29555511  104.12999725    0.38000000    2.69000006
   16.29861069  108.88899994    0.38000000    2.69000006
   16.30027771  105.57099915    0.38000000    2.69000006
   16.30222130   99.25489807    0.36000001    2.67000008
   16.30555534  102.57900238    0.36000001    2.67000008
   16.30888748  104.29000092    0.36000001    2.69000006
   16.31194305  104.58999634    0.36000001    2.69000006
   16.31527710  101.70899963    0.36000001    2.69000006
   16.31861115   96.58509827    0.36000001    2.69000006
   16.32166672  101.63500214    0.36000001    2.69000006
   16.32500076  110.46199799    0.36000001    2.69000006
   16.32833481  106.05699921    0.36000001    2.71000004
   16.33416748  106.05699921    0.36000001    2.69000006
   16.33833313   97.57610321    0.36000001    2.67000008
   16.34138870   99.24610138    0.34000000    2.69000006
   16.34472275  103.44799805    0.34000000    2.69000006
   16.34805679  103.24900055    0.34000000    2.69000006
   16.35111237  110.50099945    0.34000000    2.69000006
   16.35444450  101.71199799    0.34000000    2.69000006
   16.35777855  107.66000366    0.34000000    2.69000006
   16.36083412   94.94909668    0.34000000    2.67000008
   16.36416626  105.95099640    0.36000001    2.67000008
   16.36694527   98.80719757    0.34000000    2.69000006
   16.36750031  105.18000031    0.34000000    2.69000006
   16.37083435   98.23899841    0.34000000    2.67000008
   16.37694550   98.23899841    0.36000001    2.69000006
   16.38111115  102.18699646    0.34000000    2.69000006
   16.38444519   97.91069794    0.36000001    2.67000008
   16.38750076   98.16359711    0.34000000    2.69000006
   16.39083290   96.14779663    0.34000000    2.69000006
   16.39416695  100.08699799    0.34000000    2.69000006
   16.39722252   94.71150208    0.31999999    2.69000006
   16.40027809  100.24199677    0.34000000    2.69000006
   16.40111160  104.62100220    0.34000000    2.69000006
   16.40416718   99.51989746    0.31999999    2.69000006
   16.40749931  101.91899872    0.34000000    2.69000006
   16.41083336   94.79949951    0.34000000    2.69000006
   16.41388893  100.71199799    0.34000000    2.69000006
   16.41972160  100.71199799    0.38000000    2.69000006
   16.42388916  103.66699982    0.38000000    2.69000006
   16.42722130   97.96489716    0.36000001    2.69000006
   16.43055534   97.72750092    0.38000000    2.69000006
   16.43361092  100.63400269    0.38000000    2.71000004
   16.43416595   90.21880341    0.38000000    2.71000004
   16.43722153   95.12699890    0.38000000    2.69000006
   16.44055557  102.68299866    0.38000000    2.69000006
   16.44361115   96.23139954    0.40000001    2.69000006
   16.44694328  100.33300018    0.40000001    2.69000006
   16.45027924   99.32460022    0.40000001    2.69000006
   16.45333481  100.70400238    0.40000001    2.69000006
   16.45666695  101.97100067    0.38000000    2.69000006
   16.46277809  101.97100067    0.40000001    2.69000006
   16.46694565  104.79199982    0.40000001    2.69000006
   16.46722221  103.40699768    0.40000001    2.69000006
   16.47055626  103.23899841    0.40000001    2.69000006
   16.47389030  100.72799683    0.41999999    2.69000006
   16.47694588  109.58899689    0.41999999    2.69000006
   16.48027802  104.74400330    0.41999999    2.69000006
   16.48361206  104.02100372    0.40000001    2.67000008
   16.48666763   95.26149750    0.41999999    2.69000006
   16.48999977   89.20809937    0.40000001    2.69000006
   16.49333382   99.13430023    0.40000001    2.69000006
   16.49638939  101.80500031    0.40000001    2.69000006
   16.49972153   99.22630310    0.40000001    2.69000006
   16.50027847  104.97899628    0.41999999    2.69000006
   16.50555611  104.97899628    0.36000001    2.69000006
   16.50972176  101.56600189    0.36000001    2.69000006
   16.51277733   98.20390320    0.36000001    2.69000006
   16.51611137   97.80719757    0.34000000    2.69000006
   16.51944351   97.46469879    0.34000000    2.69000006
   16.52249908  106.13300323    0.34000000    2.69000006
   16.52583313  101.28700256    0.34000000    2.71000004
   16.52916718  106.88300323    0.34000000    2.71000004
   16.53222275  103.73799896    0.34000000    2.69000006
   16.53361130  104.16699982    0.34000000    2.69000006
   16.53610992   90.70870209    0.34000000    2.69000006
   16.53916550  100.21800232    0.31999999    2.69000006
   16.54249954  101.90499878    0.31999999    2.69000006
   16.54833221  101.90499878    0.34000000    2.69000006
   16.55249977  107.21600342    0.34000000    2.69000006
   16.55583191  106.18900299    0.31999999    2.69000006
   16.55888748   98.73789978    0.31999999    2.69000006
   16.56222153  101.23799896    0.31999999    2.71000004
   16.56555557  156.48199463    0.31999999    2.69000006
   16.56694603  105.91999817    0.31999999    2.69000006
   16.56916809  101.30799866    0.31999999    2.69000006
   16.57222366   99.87049866    0.31999999    2.69000006
   16.57555580   96.53399658    0.31999999    2.69000006
   16.57888985   98.11399841    0.31999999    2.69000006
   16.58194542   97.66660309    0.31999999    2.69000006
   16.58527756  102.14600372    0.31999999    2.69000006
   16.59111214  102.14600372    0.34000000    2.69000006
   16.59527779  103.08999634    0.31999999    2.69000006
   16.59861183   97.58760071    0.31999999    2.69000006
   16.60027885   97.53029633    0.31999999    2.69000006
   16.60222244  101.20899963    0.31999999    2.69000006
   16.60527802  102.09200287    0.31999999    2.69000006
   16.60861206   93.86810303    0.31999999    2.69000006
   16.61194420   95.45159912    0.31999999    2.69000006
   16.61527824   94.13870239    0.31999999    2.69000006
   16.61833382   95.08049774    0.31999999    2.69000006
   16.62166595   93.44400024    0.31999999    2.69000006
   16.62472153   95.59929657    0.31999999    2.69000006
   16.62805557   96.39550018    0.30000001    2.69000006
   16.63416672   96.39550018    0.30000001    2.69000006
   16.63833237   93.04640198    0.31999999    2.69000006
   16.64138794  100.29499817    0.31999999    2.69000006
   16.64472198   98.43589783    0.30000001    2.69000006
   16.64777756   90.29650116    0.30000001    2.69000006
   16.65111160   97.22409821    0.30000001    2.69000006
   16.65444374   99.67189789    0.30000001    2.71000004
   16.65749931  100.46299744    0.30000001    2.69000006
   16.66083336   97.67980194    0.30000001    2.69000006
   16.66416550  100.59999847    0.30000001    2.69000006
   16.66694450  110.41999817    0.30000001    2.69000006
   16.66777802  103.67099762    0.30000001    2.69000006
   16.67083359  104.62000275    0.30000001    2.69000006
   16.67694473  104.62000275    0.31999999    2.69000006
   16.68111038  105.08899689    0.31999999    2.69000006
   16.68416595   94.04499817    0.31999999    2.69000006
   16.68750000   96.56099701    0.34000000    2.69000006
   16.69083214  102.02100372    0.34000000    2.69000006
   16.69388771  104.70200348    0.36000001    2.67000008
   16.69722176   99.19689941    0.34000000    2.69000006
   16.70027924   93.71610260    0.34000000    2.69000006
   16.70083427   98.25450134    0.34000000    2.69000006
   16.70388985  102.23799896    0.34000000    2.69000006
   16.70722389  104.34700012    0.31999999    2.69000006
   16.71027946  103.93199921    0.34000000    2.69000006
   16.71361160   98.93090057    0.31999999    2.69000006
   16.71972275   98.93090057    0.34000000    2.69000006
   16.72389030  100.59300232    0.34000000    2.69000006
   16.72722244  101.29000092    0.34000000    2.69000006
   16.73027802   83.09159851    0.34000000    2.71000004
   16.73361206   95.46929932    0.36000001    2.71000004
   16.73416710   92.80149841    0.36000001    2.71000004
   16.73722267   95.14440155    0.36000001    2.71000004
   16.74055672   96.54740143    0.34000000    2.67000008
   16.74361229  101.17099762    0.34000000    2.69000006
   16.74694443  103.49800110    0.36000001    2.69000006
   16.75027847  100.68900299    0.36000001    2.69000006
   16.75333405   97.38939667    0.36000001    2.69000006
   16.75666618   99.72740173    0.36000001    2.69000006
   16.76250076   99.72740173    0.36000001    2.67000008
   16.76666641   89.31610107    0.38000000    2.69000006
   16.76722145   99.82060242    0.38000000    2.69000006
   16.77055550  104.26100159    0.38000000    2.69000006
   16.77388954  103.08100128    0.38000000    2.69000006
   16.77694511   96.62349701    0.38000000    2.69000006
   16.78027725   93.45729828    0.40000001    2.69000006
   16.78333282  103.11299896    0.40000001    2.69000006
   16.78666687  100.01799774    0.40000001    2.69000006
   16.78999901   97.20610046    0.40000001    2.69000006
   16.79305458   97.07189941    0.40000001    2.69000006
   16.79638863  100.83999634    0.40000001    2.69000006
   16.79972076   99.46009827    0.40000001    2.69000006
   16.80055428  101.26999664    0.40000001    2.67000008
   16.80555534  101.26999664    0.38000000    2.69000006
   16.80972099  100.60199738    0.38000000    2.69000006
   16.81277657  100.08200073    0.36000001    2.69000006
   16.81611061  100.87400055    0.36000001    2.69000006
   16.81916809   94.41149902    0.36000001    2.69000006
   16.82250023  109.54000092    0.36000001    2.69000006
   16.82583427   95.39800262    0.36000001    2.69000006
   16.82916832   91.19470215    0.36000001    2.69000006
   16.83222389   99.43039703    0.36000001    2.69000006
   16.83388901  100.48200226    0.34000000    2.71000004
   16.83583450   96.87650299    0.34000000    2.71000004
   16.83916664   97.50589752    0.34000000    2.71000004
   16.84222221  101.71600342    0.34000000    2.69000006
   16.84833336  101.71600342    0.34000000    2.69000006
   16.85250092   89.82009888    0.34000000    2.69000006
   16.85555649   94.27960205    0.34000000    2.69000006
   16.85888863   99.30619812    0.34000000    2.67000008
   16.86222267   93.32080078    0.34000000    2.67000008
   16.86527824   90.41739655    0.34000000    2.69000006
   16.86722183   93.18630219    0.34000000    2.69000006
   16.86888885   99.73100281    0.34000000    2.69000006
   16.87222290  101.91799927    0.36000001    2.69000006
   16.87527847   99.05660248    0.36000001    2.69000006
   16.87861061  102.64700317    0.38000000    2.69000006
   16.88166618   97.94190216    0.36000001    2.69000006
   16.88500023  100.91100311    0.34000000    2.69000006
   16.89111137  100.91100311    0.31999999    2.69000006
   16.89527702   97.87590027    0.31999999    2.69000006
   16.89861107   96.76429749    0.31999999    2.69000006
   16.90055466  103.67600250    0.31999999    2.69000006
   16.90222168   98.83850098    0.31999999    2.69000006
   16.90555573   94.92389679    0.31999999    2.69000006
   16.90861130  100.47499847    0.31999999    2.69000006
   16.91194344  108.60299683    0.31999999    2.69000006
   16.91499901  102.11100006    0.31999999    2.69000006
   16.91833305   93.79620361    0.31999999    2.69000006
   16.92166519  102.13300323    0.31999999    2.67000008
   16.92472076  104.59500122    0.31999999    2.67000008
   16.92805481   94.81340027    0.31999999    2.69000006
   16.93388748   94.81340027    0.31999999    2.69000006
   16.93805504   98.91790009    0.30000001    2.69000006
   16.94138718   96.13020325    0.31999999    2.69000006
   16.94472122  101.63200378    0.31999999    2.69000006
   16.94777679  102.49700165    0.30000001    2.69000006
   16.95111275  100.28199768    0.30000001    2.69000006
   16.95416832  100.46900177    0.30000001    2.69000006
   16.95750046   97.61419678    0.30000001    2.69000006
   16.96083450   96.83779907    0.30000001    2.69000006
   16.96389008   99.51730347    0.30000001    2.71000004
   16.96722221   95.22879791    0.31999999    2.71000004
   16.96777916   98.41590118    0.31999999    2.69000006
   16.97111130  101.12699890    0.31999999    2.71000004
   16.97694588  101.12699890    0.31999999    2.69000006
   16.98111153   90.22419739    0.31999999    2.69000006
   16.98416710  100.97000122    0.31999999    2.69000006
   16.98750114   96.99849701    0.30000001    2.69000006
   16.99055672   90.91439819    0.30000001    2.69000006
   16.99388885   93.22239685    0.30000001    2.69000006
   16.99722290   91.67739868    0.31999999    2.69000006
   17.00027847   94.33119965    0.31999999    2.71000004
   17.00111198  108.18499756    0.31999999    2.71000004
   17.00416756   94.68070221    0.31999999    2.69000006
   17.00722313  100.77999878    0.31999999    2.69000006
   17.01055527   97.54470062    0.31999999    2.69000006
   17.01361084   99.49690247    0.31999999    2.69000006
   17.01972198   99.49690247    0.34000000    2.67000008
   17.02388954   97.33209991    0.36000001    2.67000008
   17.02694511   95.43340302    0.36000001    2.69000006
   17.03027725   97.37850189    0.36000001    2.69000006
   17.03361130   95.36209869    0.36000001    2.69000006
   17.03444481   93.00700378    0.36000001    2.69000006
   17.03722191   89.44960022    0.36000001    2.69000006
   17.04027748   94.40450287    0.36000001    2.69000006
   17.04361153   98.96520233    0.38000000    2.69000006
   17.04666710   93.97440338    0.38000000    2.69000006
   17.04999924   97.81169891    0.36000001    2.69000006
   17.05333328   98.05090332    0.36000001    2.67000008
   17.05638885   90.62300110    0.36000001    2.69000006
   17.06250000   90.62300110    0.36000001    2.69000006
   17.06666756   90.43579865    0.36000001    2.69000006
   17.06777954   94.60510254    0.34000000    2.69000006
   17.07055664   92.66829681    0.34000000    2.69000006
   17.07361221   98.89900208    0.34000000    2.69000006
   17.07694626  105.67800140    0.34000000    2.69000006
   17.08000183   98.86589813    0.34000000    2.69000006
   17.08333397   92.31240082    0.34000000    2.69000006
   17.08666801   88.99120331    0.34000000    2.69000006
   17.09000015  101.58300018    0.34000000    2.69000006
   17.09333420  102.35700226    0.34000000    2.69000006
   17.09638977   99.06130219    0.34000000    2.69000006
   17.09972191  101.05899811    0.34000000    2.69000006
   17.10111237  102.01200104    0.34000000    2.69000006
   17.10527802  102.01200104    0.36000001    2.69000006
   17.10972214   97.12969971    0.36000001    2.69000006
   17.11277771  101.73100281    0.36000001    2.69000006
   17.11611176   98.50219727    0.34000000    2.67000008
   17.11944389  103.09200287    0.34000000    2.69000006
   17.12249947  105.79299927    0.34000000    2.67000008
   17.12583351   99.59190369    0.34000000    2.69000006
   17.12888908   90.02580261    0.34000000    2.69000006
   17.13222313   95.07649994    0.34000000    2.69000006
   17.13444519  104.39499664    0.34000000    2.69000006
   17.13611031   94.46869659    0.31999999    2.69000006
   17.13916588  103.56500244    0.31999999    2.69000006
   17.14249992  103.88099670    0.31999999    2.69000006
   17.14833260  103.88099670    0.31999999    2.69000006
   17.15250015   94.59629822    0.31999999    2.69000006
   17.15555573  100.68699646    0.31999999    2.69000006
   17.15888786  105.14800262    0.31999999    2.69000006
   17.16222191   99.45659637    0.31999999    2.69000006
   17.16527748  100.77500153    0.30000001    2.69000006
   17.16777802  105.45099640    0.31999999    2.69000006
   17.16916656  104.00000000    0.30000001    2.67000008
   17.17222214   94.14839935    0.30000001    2.69000006
   17.17555428   94.53369904    0.31999999    2.69000006
   17.17888832   96.12699890    0.30000001    2.69000006
   17.18194389  101.61699677    0.31999999    2.67000008
   17.18527603  102.46700287    0.30000001    2.67000008
   17.19111061  102.46700287    0.31999999    2.69000006
   17.19527626   92.16500092    0.31999999    2.69000006
   17.19833183   92.95510101    0.34000000    2.69000006
   17.20111275   95.67669678    0.31999999    2.67000008
   17.20222282   92.48829651    0.34000000    2.67000008
   17.20527840   97.83750153    0.34000000    2.69000006
   17.20861244  104.82599640    0.34000000    2.69000006
   17.21166801  106.55599976    0.36000001    2.69000006
   17.21500015   99.41010284    0.36000001    2.69000006
   17.21833420   98.87860107    0.36000001    2.69000006
   17.22138977  105.31199646    0.36000001    2.69000006
   17.22472191  103.62799835    0.36000001    2.67000008
   17.22805595  102.98999786    0.36000001    2.69000006
   17.23388863  102.98999786    0.36000001    2.69000006
   17.25222206   93.22859955    0.34000000    2.69000006
   17.25555611  104.09500122    0.34000000    2.69000006
   17.25888824   98.06649780    0.34000000    2.69000006
   17.26194382   92.58029938    0.34000000    2.69000006
   17.26527786   90.93329620    0.34000000    2.69000006
   17.26833344   96.98919678    0.34000000    2.69000006
   17.27166557  102.63500214    0.34000000    2.69000006
   17.27694511  102.63500214    0.36000001    2.69000006
   17.28111076   87.30020142    0.34000000    2.69000006
   17.28444481   87.88680267    0.34000000    2.69000006
   17.28527641   96.27970123    0.34000000    2.69000006
   17.28805542   97.51470184    0.31999999    2.69000006
   17.29138756  100.93199921    0.31999999    2.69000006
   17.29444313   94.63559723    0.31999999    2.67000008
   17.29777718   99.22270203    0.31999999    2.69000006
   17.30111122   94.57369995    0.31999999    2.69000006
   17.30416679  102.46700287    0.30000001    2.69000006
   17.30749893   98.34970093    0.30000001    2.69000006
   17.31055450   97.43689728    0.30000001    2.69000006
   17.31388855   98.15760040    0.31999999    2.69000006
   17.32000160   98.15760040    0.31999999    2.69000006
   17.32389069   99.81250000    0.30000001    2.69000006
   17.32722282  102.61100006    0.31999999    2.67000008
   17.33055687   94.60559845    0.31999999    2.69000006
   17.33361244  105.07299805    0.31999999    2.69000006
   17.33694458  100.35500336    0.31999999    2.69000006
   17.34027863  101.94599915    0.31999999    2.69000006
   17.34333420   98.23770142    0.31999999    2.67000008
   17.34666824   97.84040070    0.31999999    2.67000008
   17.34972191   96.81199646    0.31999999    2.67000008
   17.35194397   95.14270020    0.31999999    2.67000008
   17.35361099  105.28500366    0.34000000    2.69000006
   17.35694504  102.68499756    0.31999999    2.67000008
   17.36277771  102.68499756    0.34000000    2.67000008
   17.36694527   97.38860321    0.34000000    2.67000008
   17.37027740   97.48090363    0.34000000    2.69000006
   17.37333298   93.91169739    0.34000000    2.67000008
   17.37666702   96.53040314    0.34000000    2.69000006
   17.38000107  102.24500275    0.34000000    2.69000006
   17.38305473   97.67549896    0.34000000    2.69000006
   17.38527679   97.24810028    0.31999999    2.67000008
   17.38666725   96.59049988    0.31999999    2.69000006
   17.38999939   97.00620270    0.31999999    2.69000006
   17.39305496  100.29900360    0.31999999    2.69000006
   17.39638901   95.88300323    0.31999999    2.69000006
   17.39972115   93.50229645    0.31999999    2.69000006
   17.40555573   93.50229645    0.31999999    2.67000008
   17.40972137  101.56300354    0.31999999    2.69000006
   17.41305542   97.08950043    0.31999999    2.67000008
   17.41611099   95.74880219    0.31999999    2.67000008
   17.41860962  100.85099792    0.31999999    2.67000008
   17.41972160   95.22499847    0.30000001    2.69000006
   17.42305565   93.48269653    0.31999999    2.69000006
   17.42611122   93.68299866    0.30000001    2.69000006
   17.42944336  100.31500244    0.30000001    2.67000008
   17.43277740   89.89189911    0.28000000    2.69000006
   17.43583298   98.24500275    0.28000000    2.69000006
   17.43916512  103.49600220    0.28000000    2.67000008
   17.44249916   97.70680237    0.28000000    2.67000008
   17.44833183   97.70680237    0.28000000    2.67000008
   17.45250130   96.84079742    0.30000001    2.67000008
   17.45583344   88.02259827    0.28000000    2.67000008
   17.45888901   94.95899963    0.31999999    2.69000006
   17.46222305   95.85169983    0.31999999    2.67000008
   17.46555710   94.46379852    0.31999999    2.67000008
   17.46861076   99.30259705    0.34000000    2.67000008
   17.47194481  105.42800140    0.34000000    2.67000008
   17.47527885   90.63719940    0.34000000    2.67000008
   17.47833443  103.98000336    0.34000000    2.67000008
   17.48166656  100.66899872    0.31999999    2.69000006
   17.48472214  111.00700378    0.34000000    2.67000008
   17.48527718  107.13600159    0.31999999    2.67000008
   17.49111176  107.13600159    0.31999999    2.69000006
   17.49527740  111.78800201    0.31999999    2.67000008
   17.49861145  102.03500366    0.31999999    2.69000006
   17.50194359   91.37239838    0.31999999    2.67000008
   17.50527763  106.34500122    0.30000001    2.67000008
   17.50833321  102.28099823    0.30000001    2.69000006
   17.51166725  103.18299866    0.30000001    2.67000008
   17.51499939  114.50199890    0.30000001    2.67000008
   17.51805496  110.58999634    0.30000001    2.67000008
   17.51861000   99.90270233    0.30000001    2.69000006
   17.52166557  107.84100342    0.30000001    2.67000008
   17.52499962  102.84700012    0.31999999    2.67000008
   17.52805519   96.32119751    0.30000001    2.67000008
   17.53416634   96.32119751    0.30000001    2.67000008
   17.53833199   93.19789886    0.30000001    2.67000008
   17.54138756   82.23419952    0.30000001    2.69000006
   17.54472160  105.81400299    0.31999999    2.67000008
   17.54805565   85.13970184    0.31999999    2.67000008
   17.55111122   93.99230194    0.31999999    2.69000006
   17.55194283   94.31140137    0.31999999    2.67000008
   17.55472183  103.23100281    0.31999999    2.67000008
   17.55805397   88.16799927    0.31999999    2.69000006
   17.56110954   91.19149780    0.31999999    2.67000008
   17.56444359   97.14450073    0.31999999    2.69000006
   17.56777954   98.97389984    0.31999999    2.67000008
   17.57083511  102.23500061    0.31999999    2.69000006
   17.57694626  102.23500061    0.31999999    2.67000008
   17.58111191   89.18540192    0.31999999    2.71000004
   17.58444595   85.36219788    0.31999999    2.67000008
   17.58527756   91.28949738    0.31999999    2.67000008
   17.58777809  101.62599945    0.34000000    2.67000008
   17.59111214  140.34800720    0.31999999    2.67000008
   17.59416771   93.70210266    0.34000000    2.67000008
   17.59749985   96.04350281    0.34000000    2.67000008
   17.60083389   96.86190033    0.34000000    2.67000008
   17.60388947   92.25939941    0.34000000    2.69000006
   17.60722351   92.31490326    0.34000000    2.67000008
   17.61055565  103.18399811    0.34000000    2.69000006
   17.61361122   94.51509857    0.34000000    2.67000008
   17.61972237   94.51509857    0.34000000    2.69000006
   17.62388992   94.06320190    0.34000000    2.69000006
   17.62722206  103.80400085    0.34000000    2.69000006
   17.63055611   90.53050232    0.34000000    2.69000006
   17.63388824   90.56020355    0.31999999    2.67000008
   17.63694382   84.50920105    0.31999999    2.69000006
   17.64027786   -1.00000000    0.31999999    2.69000006
   17.64333344   89.61810303    0.31999999    2.69000006
   17.64666748   94.12899780    0.31999999    2.69000006
   17.64999962   99.08080292    0.31999999    2.67000008
   17.65194321   91.70230103    0.31999999    2.69000006
   17.65361023   87.49299622    0.31999999    2.67000008
   17.65694427   93.46389771    0.31999999    2.67000008
   17.66277695   93.46389771    0.34000000    2.67000008
   17.66694450   94.24739838    0.34000000    2.67000008
   17.67000008   89.63999939    0.34000000    2.67000008
   17.67333221   95.37650299    0.34000000    2.69000006
   17.67638779   89.45179749    0.34000000    2.69000006
   17.67972183   90.04319763    0.34000000    2.67000008
   17.68305397   99.67240143    0.34000000    2.69000006
   17.68527603  100.76699829    0.36000001    2.67000008
   17.68666649  100.52600098    0.34000000    2.67000008
   17.68999863   -1.00000000    0.34000000    2.67000008
   17.69305420   99.05940247    0.36000001    2.67000008
   17.69638824   97.49179840    0.34000000    2.67000008
   17.69972038   98.36669922    0.36000001    2.67000008
   17.70555687   98.36669922    0.36000001    2.67000008
   17.70972252   84.64409637    0.34000000    2.67000008
   17.71277809   83.10459900    0.36000001    2.67000008
   17.71611214   97.98259735    0.34000000    2.69000006
   17.71888924   99.56999969    0.34000000    2.69000006
   17.71972275   88.59420013    0.34000000    2.67000008
   17.72305679   86.76989746    0.34000000    2.67000008
   17.72611237   93.72160339    0.31999999    2.67000008
   17.72944450   89.37359619    0.31999999    2.67000008
   17.73277855   84.70359802    0.31999999    2.67000008
   17.73583412   91.04979706    0.31999999    2.67000008
   17.73916626   -1.00000000    0.31999999    2.67000008
   17.74250031   -1.00000000    0.31999999    2.67000008
   17.74833298   -1.00000000    0.34000000    2.67000008
   17.75250053   95.91519928    0.34000000    2.67000008
   17.75583267   89.35250092    0.31999999    2.67000008
   17.75888824   91.91960144    0.31999999    2.67000008
   17.76222229   92.07270050    0.31999999    2.67000008
   17.76527786   93.12069702    0.31999999    2.67000008
   17.76861000   87.05529785    0.31999999    2.67000008
   17.77194405   92.33190155    0.31999999    2.67000008
   17.77499962   95.79979706    0.34000000    2.67000008
   17.77833366   93.41670227    0.31999999    2.69000006
   17.78166580   90.33000183    0.34000000    2.67000008
   17.78472137   91.69470215    0.34000000    2.67000008
   17.78555489   91.10250092    0.34000000    2.67000008
   17.79111099   91.10250092    0.34000000    2.67000008
   17.79527664   88.91369629    0.34000000    2.67000008
   17.79861069   86.16950226    0.31999999    2.66000009
   17.80166626   94.79010010    0.31999999    2.67000008
   17.80499840   92.25479889    0.31999999    2.66000009
   17.80833244   80.12409973    0.31999999    2.66000009
   17.81138802   94.16049957    0.34000000    2.66000009
   17.81472206   88.35340118    0.36000001    2.67000008
   17.81777954   87.60790253    0.34000000    2.67000008
   17.81888962   86.46240234    0.34000000    2.67000008
   17.82139015   97.01010132    0.36000001    2.67000008
   17.82472229   94.13400269    0.36000001    2.67000008
   17.82805634   82.14769745    0.36000001    2.67000008
   17.83416748   82.14769745    0.36000001    2.67000008
   17.83805656   84.08450317    0.36000001    2.67000008
   17.84138870   86.46980286    0.38000000    2.67000008
   17.84472275   88.14689636    0.36000001    2.66000009
   17.84777832   87.91840363    0.36000001    2.66000009
   17.85111237   95.15450287    0.38000000    2.66000009
   17.85222244   88.20040131    0.38000000    2.67000008
   17.85472298   95.35399628    0.36000001    2.67000008
   17.85805511   81.55549622    0.36000001    2.67000008
   17.86111069   85.85929871    0.38000000    2.67000008
   17.86444473   92.77050018    0.38000000    2.69000006
   17.86777878   98.64499664    0.36000001    2.66000009
   17.87083435   95.63539886    0.36000001    2.67000008
   17.87694550   95.63539886    0.36000001    2.66000009
   17.88111115   91.01010132    0.36000001    2.67000008
   17.88416672   93.60759735    0.36000001    2.66000009
   17.88555527   89.08159637    0.36000001    2.67000008
   17.88777733   91.29470062    0.36000001    2.67000008
   17.89111137   80.60320282    0.36000001    2.67000008
   17.89416695   88.91919708    0.36000001    2.67000008
   17.89749908   94.11479950    0.36000001    2.67000008
   17.90083313   93.42960358    0.36000001    2.66000009
   17.90388870   98.64779663    0.34000000    2.66000009
   17.90722275   89.56880188    0.36000001    2.67000008
   17.91055489   90.05500031    0.34000000    2.67000008
   17.91361046   88.55799866    0.34000000    2.67000008
   17.91972160   88.55799866    0.36000001    2.67000008
   17.92388916   94.05470276    0.34000000    2.67000008
   17.92694473   95.54460144    0.36000001    2.67000008
   17.93027687   91.91320038    0.34000000    2.67000008
   17.93361092   90.68699646    0.36000001    2.67000008
   17.93666649   91.69020081    0.36000001    2.66000009
   17.93999863   92.54630280    0.34000000    2.66000009
   17.94333267   94.87760162    0.36000001    2.67000008
   17.94638824   99.69930267    0.34000000    2.66000009
   17.94972038   97.67299652    0.34000000    2.67000008
   17.95222282   91.08589935    0.34000000    2.66000009
   17.95333481   87.66690063    0.34000000    2.67000008
   17.95666695   91.10099792    0.31999999    2.66000009
   17.96250153   91.10099792    0.34000000    2.67000008
   17.96666718   94.59919739    0.31999999    2.67000008
   17.97000122   91.63659668    0.31999999    2.67000008
   17.97305679   93.23020172    0.31999999    2.67000008
   17.97638893   99.23899841    0.31999999    2.67000008
   17.97972298   97.51770020    0.31999999    2.67000008
   17.98277855   98.59639740    0.34000000    2.67000008
   17.98555565   85.63189697    0.31999999    2.67000008
   17.98638916   96.15560150    0.34000000    2.67000008
   17.98972321  101.48699951    0.31999999    2.67000008
   17.99305534   88.94110107    0.34000000    2.67000008
   17.99611092   93.09570313    0.34000000    2.66000009
   17.99944496   88.87509918    0.34000000    2.66000009
   18.00527763   88.87509918    0.34000000    2.67000008
   18.00944519   92.46389771    0.36000001    2.66000009
   18.01277733   95.41040039    0.36000001    2.67000008
   18.01611137   95.47139740    0.36000001    2.66000009
   18.01888847   94.27359772    0.38000000    2.66000009
   18.01944351   95.24520111    0.38000000    2.66000009
   18.02277756   84.11920166    0.34000000    2.67000008
   18.02611160  110.43800354    0.34000000    2.67000008
   18.02916718   93.36589813    0.34000000    2.67000008
   18.03249931   78.82839966    0.34000000    2.66000009
   18.03555489   88.58709717    0.34000000    2.66000009
   18.03888893   99.31719971    0.34000000    2.67000008
   18.04222107   98.08719635    0.34000000    2.66000009
   18.04833221   98.08719635    0.34000000    2.66000009
   18.05249977   93.33589935    0.34000000    2.67000008
   18.05555534  112.93800354    0.34000000    2.67000008
   18.05888748   92.57309723    0.34000000    2.67000008
   18.06194305  103.49600220    0.34000000    2.67000008
   18.06527710  105.13999939    0.34000000    2.67000008
   18.06861115  101.48300171    0.34000000    2.67000008
   18.07166672   92.89369965    0.34000000    2.66000009
   18.07500076  100.39700317    0.34000000    2.66000009
   18.07833481   99.15650177    0.34000000    2.66000009
   18.08139038   96.99009705    0.31999999    2.66000009
   18.08472252   90.72769928    0.34000000    2.66000009
   18.08555603   95.13069916    0.34000000    2.66000009
   18.09111214   95.13069916    0.34000000    2.66000009
   18.09527779   93.11049652    0.34000000    2.67000008
   18.09861183   98.50879669    0.34000000    2.66000009
   18.10166740   95.24510193    0.34000000    2.67000008
   18.10499954   97.86799622    0.34000000    2.66000009
   18.10833359   93.65100098    0.36000001    2.67000008
   18.11138916  100.15699768    0.36000001    2.66000009
   18.11472321   86.82469940    0.36000001    2.66000009
   18.11805534   91.80470276    0.36000001    2.66000009
   18.11888885   94.63449860    0.36000001    2.66000009
   18.12138939  109.61100006    0.34000000    2.67000008
   18.12472153   90.96559906    0.34000000    2.67000008
   18.12805557   97.56970215    0.34000000    2.66000009
   18.13388824   97.56970215    0.34000000    2.67000008
   18.13805580   99.19539642    0.34000000    2.66000009
   18.14138794   85.22070313    0.34000000    2.66000009
   18.14444351   92.20400238    0.38000000    2.66000009
   18.14777756   97.18550110    0.40000001    2.66000009
   18.15111160   91.24490356    0.40000001    2.66000009
   18.15222168  101.60099792    0.40000001    2.66000009
   18.15444374   96.30829620    0.41999999    2.66000009
   18.15777779   93.67340088    0.41999999    2.66000009
   18.16110992   93.56099701    0.46000001    2.66000009
   18.16416550   87.61550140    0.47999999    2.66000009
   18.16749954   90.61229706    0.46000001    2.66000009
   18.17055511   95.31790161    0.46000001    2.67000008
   18.17666626   95.31790161    0.41999999    2.66000009
   18.18083191   89.61650085    0.41999999    2.66000009
   18.18416595   94.15200043    0.41999999    2.66000009
   18.18555450   89.29019928    0.41999999    2.66000009
   18.18777657  106.96399689    0.40000001    2.66000009
   18.19111061   90.43000031    0.40000001    2.66000009
   18.19444275   84.44840240    0.40000001    2.64000010
   18.19749832   97.75769806    0.40000001    2.66000009
   18.20083427   96.47139740    0.40000001    2.66000009
   18.20416832   91.54119873    0.40000001    2.66000009
   18.20722389   93.80970001    0.38000000    2.64000010
   18.21055603   92.98190308    0.38000000    2.66000009
   18.21361160   89.44640350    0.38000000    2.66000009
   18.21972275   89.44640350    0.36000001    2.66000009
   18.22389030   95.36519623    0.36000001    2.64000010
   18.22694588   90.93139648    0.38000000    2.67000008
   18.23027802   95.49299622    0.38000000    2.66000009
   18.23361206   81.99929810    0.40000001    2.66000009
   18.23666763   92.16120148    0.38000000    2.66000009
   18.23999977   87.77929688    0.38000000    2.66000009
   18.24305534   96.23639679    0.38000000    2.66000009
   18.24638939   89.96540070    0.40000001    2.66000009
   18.24972153  103.88999939    0.40000001    2.64000010
   18.25222206   90.45980072    0.40000001    2.64000010
   18.27277756   90.45980072    0.36000001    2.66000009
   18.27694511   97.00810242    0.36000001    2.64000010
   18.28027725   88.91329956    0.34000000    2.66000009
   18.28333282   90.79850006    0.34000000    2.66000009
   18.28555489   92.73799896    0.34000000    2.66000009
   18.28722191   95.42739868    0.34000000    2.66000009
   18.29027748   90.35230255    0.34000000    2.66000009
   18.29361153   92.56140137    0.31999999    2.64000010
   18.29666710  107.92600250    0.31999999    2.66000009
   18.29999924   95.51920319    0.31999999    2.66000009
   18.30333328  102.00399780    0.31999999    2.66000009
   18.30638885   99.76950073    0.31999999    2.64000010
   18.30972099   87.79640198    0.31999999    2.64000010
   18.31555557   87.79640198    0.31999999    2.66000009
   18.31972313   94.16799927    0.31999999    2.64000010
   18.32277870   90.85179901    0.31999999    2.66000009
   18.32611275   85.54789734    0.31999999    2.66000009
   18.32944489   86.09459686    0.31999999    2.66000009
   18.33250046   88.96959686    0.31999999    2.64000010
   18.33583450   87.61759949    0.31999999    2.64000010
   18.33916664   79.38670349    0.31999999    2.64000010
   18.34222221   85.64630127    0.31999999    2.66000009
   18.34555626   90.43060303    0.34000000    2.66000009
   18.34861183  101.25599670    0.34000000    2.66000009
   18.35194397  102.62899780    0.31999999    2.66000009
   18.35250092   91.83370209    0.31999999    2.64000010
   18.35833359   91.83370209    0.34000000    2.64000010
   18.36250114   94.00669861    0.34000000    2.64000010
   18.36583328   91.91359711    0.34000000    2.66000009
   18.36888885   94.00820160    0.34000000    2.64000010
   18.37222290   91.78240204    0.36000001    2.66000009
   18.37555504   96.16840363    0.36000001    2.64000010
   18.37861061   93.49430084    0.34000000    2.64000010
   18.38194466   85.74849701    0.36000001    2.64000010
   18.38500023   98.18000031    0.36000001    2.64000010
   18.38583374   89.37670135    0.36000001    2.64000010
   18.38888931   90.63120270    0.36000001    2.64000010
   18.39194489   93.75759888    0.38000000    2.64000010
   18.39527702   97.25260162    0.38000000    2.64000010
   18.40111160   97.25260162    0.36000001    2.64000010
   18.40527725   97.62779999    0.36000001    2.64000010
   18.40861130  103.33799744    0.38000000    2.64000010
   18.41194344   91.59719849    0.36000001    2.66000009
   18.41499901   78.53500366    0.36000001    2.66000009
   18.41833305   89.72730255    0.36000001    2.64000010
   18.41916656   83.78829956    0.34000000    2.64000010
   18.42194366   89.64900208    0.34000000    2.64000010
   18.42499924   77.30799866    0.34000000    2.66000009
   18.42833328   92.30670166    0.31999999    2.64000010
   18.43166542   95.62120056    0.31999999    2.64000010
   18.43472099   83.46189880    0.31999999    2.64000010
   18.43805504   90.53250122    0.31999999    2.66000009
   18.44416618   90.53250122    0.31999999    2.64000010
   18.44805527  100.47000122    0.34000000    2.64000010
   18.45138931   94.30509949    0.31999999    2.64000010
   18.45250130   96.52870178    0.31999999    2.64000010
   18.45499992  100.81300354    0.34000000    2.64000010
   18.45805550  101.47599792    0.34000000    2.64000010
   18.46138954   93.33450317    0.34000000    2.64000010
   18.46472359   99.18869781    0.34000000    2.64000010
   18.46777916   91.92250061    0.34000000    2.64000010
   18.47111130   84.03269958    0.34000000    2.64000010
   18.47444534   94.04869843    0.34000000    2.64000010
   18.47750092   93.80590057    0.34000000    2.64000010
   18.48083305   98.45189667    0.34000000    2.64000010
   18.48694420   98.45189667    0.34000000    2.64000010
   18.49111176   88.78250122    0.34000000    2.64000010
   18.49416733   88.39830017    0.34000000    2.64000010
   18.49749947   91.38790131    0.34000000    2.64000010
   18.50083351   93.97190094    0.34000000    2.64000010
   18.50388908   98.08589935    0.36000001    2.66000009
   18.50722313   95.73139954    0.34000000    2.64000010
   18.51027870   89.74949646    0.36000001    2.64000010
   18.51361084   95.32469940    0.34000000    2.64000010
   18.51694489   92.65920258    0.36000001    2.61999989
   18.51916695   90.80529785    0.36000001    2.61999989
   18.52055550   83.10009766    0.36000001    2.61999989
   18.52388954   89.75820160    0.36000001    2.61999989
   18.52972221   89.75820160    0.38000000    2.64000010
   18.53388786   93.85260010    0.36000001    2.64000010
   18.53722191   94.12110138    0.34000000    2.64000010
   18.54027748  104.01799774    0.34000000    2.64000010
   18.54361153   94.40540314    0.34000000    2.61999989
   18.54666710   97.50939941    0.34000000    2.64000010
   18.54999924   98.77230072    0.34000000    2.64000010
   18.55249977  102.06099701    0.34000000    2.61999989
   18.55360985   94.85489655    0.34000000    2.61999989
   18.55666542  100.56999969    0.34000000    2.64000010
   18.55999947   89.90779877    0.34000000    2.64000010
   18.56333351   97.01570129    0.34000000    2.61999989
   18.56638718   89.55460358    0.34000000    2.61999989
   18.57250023   89.55460358    0.31999999    2.64000010
   18.57666779   91.71690369    0.31999999    2.64000010
   18.58000183   87.62280273    0.34000000    2.64000010
   18.58333397   96.69719696    0.34000000    2.61999989
   18.58583450   79.33219910    0.34000000    2.61999989
   18.58694458  101.49099731    0.36000001    2.61999989
   18.59000015   91.57820129    0.34000000    2.61999989
   18.59333420   95.52909851    0.34000000    2.61999989
   18.59666824   96.52259827    0.34000000    2.61999989
   18.59972191   99.28780365    0.36000001    2.61999989
   18.60305595   95.18209839    0.36000001    2.64000010
   18.60611153   95.01450348    0.36000001    2.64000010
   18.60944557   94.01460266    0.36000001    2.64000010
   18.61555672   94.01460266    0.38000000    2.61999989
   18.61972237   91.90119934    0.38000000    2.61999989
   18.62277794   90.96839905    0.36000001    2.64000010
   18.62611198   95.39080048    0.36000001    2.61999989
   18.62916756   89.81310272    0.34000000    2.61999989
   18.63249969   79.49269867    0.36000001    2.61999989
   18.63583374   88.91690063    0.34000000    2.64000010
   18.63888931   90.74060059    0.36000001    2.61999989
   18.64222145   90.31150055    0.34000000    2.64000010
   18.64555550   98.41110229    0.34000000    2.64000010
   18.64861107   91.89649963    0.34000000    2.61999989
   18.65194321   90.53939819    0.34000000    2.61999989
   18.65250015   97.76110077    0.34000000    2.64000010
   18.65833282   97.76110077    0.34000000    2.61999989
   18.66250038   99.51329803    0.34000000    2.61999989
   18.66555595   94.95169830    0.34000000    2.61999989
   18.66888809   91.04979706    0.34000000    2.61999989
   18.67222214   89.11260223    0.36000001    2.61999989
   18.67527771   92.97170258    0.36000001    2.61999989
   18.67860985   92.35939789    0.36000001    2.64000010
   18.68166542   95.19940186    0.36000001    2.61999989
   18.68499947   94.42630005    0.36000001    2.61999989
   18.68583298   91.76889801    0.36000001    2.61999989
   18.68861008   93.21420288    0.34000000    2.61999989
   18.69194412  100.08399963    0.34000000    2.61999989
   18.69499969   89.62799835    0.34000000    2.61999989
   18.70111275   89.62799835    0.34000000    2.61999989
   18.70527840   95.07019806    0.34000000    2.61999989
   18.70861244   95.99759674    0.36000001    2.61999989
   18.71166801   89.99659729    0.36000001    2.64000010
   18.71500015   95.55799866    0.36000001    2.61999989
   18.71833420   89.84220123    0.36000001    2.59999990
   18.71916771   82.70659637    0.36000001    2.59999990
   18.72194481   89.17220306    0.36000001    2.61999989
   18.72500038   93.89559937    0.36000001    2.61999989
   18.72833443   87.30690002    0.36000001    2.61999989
   18.73166656   98.78430176    0.36000001    2.61999989
   18.73472214   98.89939880    0.34000000    2.61999989
   18.73805618   93.83899689    0.34000000    2.61999989
   18.74388885   93.83899689    0.36000001    2.64000010
   18.74805641   91.76290131    0.38000000    2.61999989
   18.75138855   94.72370148    0.36000001    2.61999989
   18.75250053   97.42209625    0.36000001    2.61999989
   18.75499916   95.86540222    0.36000001    2.61999989
   18.75833321   88.92130280    0.36000001    2.61999989
   18.76138878   95.46630096    0.36000001    2.59999990
   18.76472282   81.90470123    0.36000001    2.61999989
   18.76777840   94.04650116    0.36000001    2.61999989
   18.77111053   97.41580200    0.34000000    2.61999989
   18.77444458   92.95549774    0.34000000    2.61999989
   18.77750015  100.12599945    0.34000000    2.64000010
   18.78083229   88.55030060    0.34000000    2.61999989
   18.78694344   88.55030060    0.31999999    2.61999989
   18.79111099  101.20099640    0.31999999    2.59999990
   18.79416656   94.97889709    0.31999999    2.59999990
   18.79749870   96.04789734    0.31999999    2.61999989
   18.80055428   92.06120300    0.31999999    2.61999989
   18.80388832  103.21900177    0.34000000    2.59999990
   18.80722237   93.48220062    0.34000000    2.59999990
   18.81027794   85.83239746    0.34000000    2.61999989
   18.81361008  100.03199768    0.34000000    2.61999989
   18.81694603   88.31269836    0.34000000    2.59999990
   18.81916809   93.43379974    0.36000001    2.61999989
   18.82055664   95.58860016    0.38000000    2.59999990
   18.82389069   89.20890045    0.36000001    2.61999989
   18.82972336   89.20890045    0.36000001    2.61999989
   18.83388901   90.37229919    0.36000001    2.61999989
   18.83722305   94.14070129    0.38000000    2.61999989
   18.84055710   88.60260010    0.38000000    2.59999990
   18.84361267   87.13439941    0.38000000    2.59999990
   18.84694481   92.74949646    0.38000000    2.59999990
   18.85027885   93.50879669    0.38000000    2.59999990
   18.85250092   92.27120209    0.38000000    2.59999990
   18.85388947   93.33280182    0.38000000    2.61999989
   18.85722351   96.61219788    0.40000001    2.59999990
   18.86027908   88.50180054    0.38000000    2.61999989
   18.86361122   91.26490021    0.38000000    2.59999990
   18.86694527   94.18299866    0.40000001    2.59999990
   18.87249947   94.18299866    0.40000001    2.59999990
   18.87666702   95.17669678    0.38000000    2.59999990
   18.88000107   92.18979645    0.38000000    2.61999989
   18.88305473   94.50309753    0.40000001    2.59999990
   18.88583374   98.71399689    0.40000001    2.59999990
   18.88694382   83.70330048    0.40000001    2.59999990
   18.89027786   91.32649994    0.40000001    2.59999990
   18.89333344   86.77919769    0.40000001    2.59999990
   18.89666748   85.86060333    0.40000001    2.59999990
   18.89999962   87.68409729    0.40000001    2.59999990
   18.90305519   83.39230347    0.40000001    2.59999990
   18.90638924   92.30139923    0.40000001    2.59999990
   18.90972137   95.33139801    0.40000001    2.59999990
   18.91527748   95.33139801    0.40000001    2.61999989
   18.91972160   84.60540009    0.40000001    2.59999990
   18.92305565   98.87190247    0.40000001    2.59999990
   18.92638779   94.52770233    0.38000000    2.59999990
   18.92944336   96.60990143    0.38000000    2.59999990
   18.93277740  101.98200226    0.38000000    2.59999990
   18.93610954   95.45279694    0.38000000    2.59999990
   18.93916512   97.70050049    0.38000000    2.59999990
   18.94249916   91.63140106    0.38000000    2.59999990
   18.94555473   92.37699890    0.36000001    2.59999990
   18.94888878   91.72219849    0.36000001    2.59999990
   18.95222282   79.23210144    0.38000000    2.59999990
   18.95277786   87.26689911    0.36000001    2.59999990
   18.95833397   87.26689911    0.38000000    2.59999990
   18.96222305   92.27580261    0.38000000    2.57999992
   18.96555710   95.18630219    0.38000000    2.59999990
   18.96888924   94.62239838    0.36000001    2.57999992
   18.97194481   91.42079926    0.38000000    2.59999990
   18.97527885   84.99410248    0.38000000    2.57999992
   18.97861099   98.84899902    0.40000001    2.59999990
   18.98194504  104.51100159    0.38000000    2.59999990
   18.98500061   85.38899994    0.38000000    2.57999992
   18.98611069   93.35769653    0.38000000    2.59999990
   18.98861122   90.97209930    0.38000000    2.59999990
   18.99194527   95.38050079    0.38000000    2.59999990
   18.99527740   99.76029968    0.38000000    2.57999992
   19.00111198   99.76029968    0.38000000    2.57999992
   19.00527763   93.03179932    0.38000000    2.57999992
   19.00833321   96.45989990    0.38000000    2.57999992
   19.01166725   93.50070190    0.38000000    2.57999992
   19.01499939   90.15809631    0.38000000    2.57999992
   19.01805496   89.57849884    0.38000000    2.59999990
   19.01944351   90.39530182    0.40000001    2.59999990
   19.02166557   94.10320282    0.38000000    2.57999992
   19.02499962   93.07530212    0.40000001    2.57999992
   19.02833366   92.56649780    0.38000000    2.57999992
   19.03138924   95.73149872    0.38000000    2.57999992
   19.03472137   84.86270142    0.40000001    2.57999992
   19.03777695   91.70870209    0.38000000    2.57999992
   19.04388809   91.70870209    0.38000000    2.59999990
   19.04805565   98.76619720    0.40000001    2.57999992
   19.05138779   88.04010010    0.38000000    2.57999992
   19.05277634   88.93240356    0.38000000    2.57999992
   19.05472183  105.37300110    0.38000000    2.57999992
   19.05805397   89.27999878    0.38000000    2.57999992
   19.06138802   84.66529846    0.38000000    2.57999992
   19.06444359   94.03260040    0.38000000    2.57999992
   19.06777954   78.71330261    0.38000000    2.57999992
   19.07083511   91.39700317    0.38000000    2.57999992
   19.07416725   90.13469696    0.38000000    2.59999990
   19.07750130   97.77010345    0.38000000    2.57999992
   19.08055687   89.18440247    0.38000000    2.57999992
   19.08666801   89.18440247    0.38000000    2.57999992
   19.09083366   93.40450287    0.40000001    2.57999992
   19.09416771   88.15540314    0.40000001    2.57999992
   19.09722328   78.42680359    0.40000001    2.57999992
   19.10055542   87.22460175    0.40000001    2.57999992
   19.10388947   95.78340149    0.40000001    2.55999994
   19.10694504   91.27179718    0.41999999    2.57999992
   19.11027908   90.69850159    0.41999999    2.57999992
   19.11361122   92.50730133    0.41999999    2.57999992
   19.11666679   93.38819885    0.41999999    2.57999992
   19.11944389   89.92489624    0.41999999    2.57999992
   19.12027740   89.76570129    0.41999999    2.57999992
   19.12361145   91.92890167    0.41999999    2.57999992
   19.12972260   91.92890167    0.44000000    2.57999992
   19.13361168   94.97840118    0.44000000    2.57999992
   19.13694382   97.01360321    0.44000000    2.59999990
   19.14027786   93.88770294    0.44000000    2.57999992
   19.14333344   88.97530365    0.44000000    2.57999992
   19.14666748   94.48110199    0.44000000    2.57999992
   19.14999962   97.09159851    0.44000000    2.57999992
   19.15277672   84.13890076    0.41999999    2.57999992
   19.15333366   91.25109863    0.41999999    2.57999992
   19.15666580   92.01200104    0.40000001    2.55999994
   19.15999985   94.58540344    0.40000001    2.55999994
   19.16305542   92.48850250    0.40000001    2.55999994
   19.16638756   95.72599792    0.40000001    2.55999994
   19.17249870   95.72599792    0.40000001    2.57999992
   19.17666626   89.54750061    0.38000000    2.57999992
   19.17972183   94.01860046    0.38000000    2.57999992
   19.18305397  103.43800354    0.38000000    2.57999992
   19.18610954   94.15760040    0.36000001    2.57999992
   19.18666649   88.72560120    0.36000001    2.57999992
   19.18999863   87.23570251    0.38000000    2.57999992
   19.19333267   91.41500092    0.36000001    2.57999992
   19.19638824   97.26950073    0.36000001    2.55999994
   19.19972038   90.03150177    0.36000001    2.55999994
   19.20305634   96.44619751    0.36000001    2.55999994
   19.20611191   99.97209930    0.36000001    2.55999994
   19.20944595   88.42929840    0.36000001    2.57999992
   19.21527863   88.42929840    0.38000000    2.57999992
   19.21944427   89.32199860    0.38000000    2.55999994
   19.22277832   91.09220123    0.38000000    2.55999994
   19.22583389   94.06220245    0.36000001    2.55999994
   19.22916794   95.80789948    0.36000001    2.55999994
   19.23222351   93.26930237    0.38000000    2.55999994
   19.23555565   94.30760193    0.38000000    2.55999994
   19.23888969  100.51799774    0.38000000    2.57999992
   19.24194527  100.69799805    0.38000000    2.55999994
   19.24527740   97.40380096    0.40000001    2.55999994
   19.24861145   99.35510254    0.40000001    2.55999994
   19.25166702   99.38739777    0.40000001    2.55999994
   19.25277710   97.17279816    0.40000001    2.55999994
   19.25805473   97.17279816    0.40000001    2.55999994
   19.26222229   93.54709625    0.40000001    2.55999994
   19.26555634   97.43489838    0.40000001    2.55999994
   19.26861000   99.31770325    0.40000001    2.55999994
   19.28638840   94.82070160    0.40000001    2.55999994
   19.28861046   90.64589691    0.40000001    2.55999994
   19.29194450   94.07450104    0.40000001    2.55999994
   19.29500008   99.28469849    0.40000001    2.55999994
   19.30111122   99.28469849    0.41999999    2.55999994
   19.30527687   94.47129822    0.41999999    2.53999996
