    HOUR (UT)   FLARE FACTOR    SKY TESTER    SUN TESTER
   11.34277725   -1.00000000   -1.00000000   -1.00000000
   11.39833355   85.16089630    0.83999997    2.64000010
   11.40166664   83.82109833    0.83999997    2.64000010
   11.40499973   88.50229645    0.81999999    2.64000010
   11.40805531   84.31420135    0.83999997    2.64000010
   11.41138840   87.63089752    0.81999999    2.66000009
   11.41472149   84.81629944    0.81999999    2.64000010
   11.41888905   84.81629944    0.81999999    2.64000010
   11.42305565   85.84449768    0.80000001    2.64000010
   11.42611122   86.84719849    0.80000001    2.66000009
   11.42944431   85.09159851    0.79000002    2.66000009
   11.43166733   87.69560242    0.79000002    2.64000010
   11.43305588   84.97810364    0.80000001    2.64000010
   11.43638897   89.37729645    0.79000002    2.64000010
   11.43944454   84.13259888    0.79000002    2.66000009
   11.44277763   80.72989655    0.80000001    2.66000009
   11.44611073   87.51899719    0.80000001    2.64000010
   11.44944477   89.76490021    0.80000001    2.66000009
   11.45277786   85.97280121    0.80000001    2.66000009
   11.45583344   83.36450195    0.80000001    2.66000009
   11.46166611   83.36450195    0.81999999    2.66000009
   11.46583271   82.88909912    0.80000001    2.66000009
   11.46888828   85.70629883    0.80000001    2.66000009
   11.47222137   87.06649780    0.80000001    2.66000009
   11.47555542   84.06559753    0.80000001    2.66000009
   11.47861099   89.41770172    0.80000001    2.66000009
   11.48194408   84.11820221    0.79000002    2.66000009
   11.48527813   84.43460083    0.79000002    2.66000009
   11.48833370   83.87960052    0.79000002    2.66000009
   11.49166679   85.76860046    0.79000002    2.67000008
   11.49472237   85.34200287    0.80000001    2.67000008
   11.49805546   84.98390198    0.80000001    2.67000008
   11.49861145   86.44580078    0.80000001    2.67000008
   11.50444412   86.44580078    0.80000001    2.66000009
   11.50861073   89.06639862    0.80000001    2.67000008
   11.51194477   86.47389984    0.80000001    2.67000008
   11.51500034   84.87940216    0.80000001    2.66000009
   11.51833344   86.34159851    0.80000001    2.66000009
   11.52166653   92.07859802    0.80000001    2.67000008
   11.52472210   88.00900269    0.80000001    2.66000009
   11.52805519   84.27940369    0.79000002    2.67000008
   11.53111076   82.48760223    0.79000002    2.67000008
   11.53194427   82.05680084    0.79000002    2.67000008
   11.53500080   85.69180298    0.79000002    2.67000008
   11.53805637   82.49310303    0.76999998    2.67000008
   11.54138947   82.60520172    0.76999998    2.67000008
   11.54722309   82.60520172    0.76999998    2.67000008
   11.55138874   84.77780151    0.79000002    2.67000008
   11.55472279   82.44740295    0.79000002    2.67000008
   11.55777836   81.31839752    0.80000001    2.67000008
   11.56111145   82.40679932    0.79000002    2.67000008
   11.56444454   84.19940186    0.79000002    2.69000006
   11.56527805   86.67639923    0.79000002    2.69000006
   11.56805515   85.94920349    0.79000002    2.67000008
   11.57111073   82.53119659    0.79000002    2.67000008
   11.57444477   87.73229980    0.79000002    2.67000008
   11.57777786   84.32589722    0.80000001    2.67000008
   11.58083344   84.72090149    0.80000001    2.67000008
   11.58416653   85.67690277    0.80000001    2.67000008
   11.59027767   85.67690277    0.80000001    2.69000006
   11.59416676   87.39350128    0.80000001    2.69000006
   11.59749985   84.93430328    0.80000001    2.69000006
   11.59861088   89.41100311    0.80000001    2.69000006
   11.60111141   82.94450378    0.80000001    2.69000006
   11.60416698   85.57559967    0.80000001    2.69000006
   11.60750008   84.60520172    0.80000001    2.69000006
   11.61083412   85.27369690    0.80000001    2.69000006
   11.61388969   86.32050323    0.81999999    2.69000006
   11.61722279   85.48000336    0.79000002    2.69000006
   11.62027836   84.83300018    0.80000001    2.69000006
   11.62361145   84.36640167    0.79000002    2.69000006
   11.62694454   88.73979950    0.81999999    2.69000006
   11.63305569   88.73979950    0.81999999    2.69000006
   11.63722229   80.28720093    0.81999999    2.69000006
   11.64027786   82.49469757    0.80000001    2.69000006
   11.64361095   87.05950165    0.79000002    2.69000006
   11.64694405   82.57659912    0.79000002    2.69000006
   11.65027714   85.55560303    0.80000001    2.67000008
   11.65333271   87.41010284    0.80000001    2.69000006
   11.65666676   84.34420013    0.80000001    2.69000006
   11.65999985   85.86869812    0.80000001    2.69000006
   11.66305542   83.32589722    0.80000001    2.69000006
   11.66527748   83.25240326    0.81999999    2.69000006
   11.66694450   85.33930206    0.81999999    2.71000004
   11.67000008   85.61969757    0.80000001    2.69000006
   11.67583370   85.61969757    0.81999999    2.71000004
   11.68000031   84.50839996    0.81999999    2.69000006
   11.68333340   86.72339630    0.81999999    2.71000004
   11.68638897   84.23079681    0.81999999    2.69000006
   11.68972206   90.50209808    0.80000001    2.71000004
   11.69277763   82.39150238    0.80000001    2.71000004
   11.69611073   89.11609650    0.79000002    2.71000004
   11.69861126   86.68229675    0.79000002    2.69000006
   11.69972229   86.25509644    0.79000002    2.71000004
   11.70277786   83.38140106    0.76999998    2.71000004
   11.70611095   80.45469666    0.79000002    2.69000006
   11.70944405   85.73139954    0.79000002    2.71000004
   11.71249962   90.18450165    0.79000002    2.71000004
   11.71861076   90.18450165    0.80000001    2.71000004
   11.72277737   84.52660370    0.79000002    2.71000004
   11.72611046   85.20539856    0.80000001    2.71000004
   11.72916603   84.73719788    0.80000001    2.71000004
   11.73194408   83.38929749    0.80000001    2.71000004
   11.73305511   86.90429688    0.80000001    2.71000004
   11.73611164   90.85019684    0.81999999    2.71000004
   11.73944473   89.10929871    0.81999999    2.71000004
   11.74277782   84.58489990    0.80000001    2.71000004
   11.74583340   84.10099792    0.80000001    2.73000002
   11.74916649   82.16999817    0.76999998    2.73000002
   11.75222206   83.26689911    0.75000000    2.71000004
   11.75555515   79.82869720    0.75000000    2.71000004
   11.76166630   79.82869720    0.76999998    2.71000004
   11.76555538   83.47989655    0.79000002    2.71000004
   11.76888847   86.62719727    0.80000001    2.71000004
   11.77222157   87.29509735    0.80000001    2.71000004
   11.77527714   84.38140106    0.80000001    2.73000002
   11.77861118   79.91459656    0.79000002    2.71000004
   11.78194427   91.11589813    0.80000001    2.73000002
   11.78500080   83.60130310    0.80000001    2.71000004
   11.78833389   82.76779938    0.80000001    2.73000002
   11.79138947   81.74140167    0.80000001    2.71000004
   11.79472256   84.59149933    0.80000001    2.73000002
   11.79805565   88.18789673    0.81999999    2.73000002
   11.79861164   84.21019745    0.81999999    2.71000004
   11.80444431   84.21019745    0.80000001    2.73000002
   11.80861092   82.36900330    0.79000002    2.71000004
   11.81194496   81.96820068    0.79000002    2.73000002
   11.81500053   81.25250244    0.79000002    2.73000002
   11.81833363   80.67060089    0.79000002    2.73000002
   11.82138920   80.44640350    0.79000002    2.73000002
   11.82472229   86.28559875    0.80000001    2.73000002
   11.82805538   83.32489777    0.80000001    2.73000002
   11.83111095   85.63909912    0.81999999    2.73000002
   11.83194447   82.08699799    0.81999999    2.73000002
   11.83500004   88.79250336    0.81999999    2.73000002
   11.83805561   88.91439819    0.81999999    2.73000002
   11.84138870   84.89009857    0.83999997    2.73000002
   11.84722233   84.89009857    0.80000001    2.73000002
   11.85138893   77.05919647    0.79000002    2.73000002
   11.85472298   82.28829956    0.76999998    2.73000002
   11.85777855   81.39230347    0.75000000    2.75000000
   11.86111164   76.85820007    0.73000002    2.75000000
   11.86416721   78.54049683    0.73000002    2.75000000
   11.86527824   80.56330109    0.75000000    2.73000002
   11.86805534   83.07630157    0.76999998    2.73000002
   11.87111092   81.04949951    0.76999998    2.75000000
   11.87444496   80.68000031    0.80000001    2.75000000
   11.87777805   83.32260132    0.80000001    2.73000002
   11.88083363   90.37180328    0.80000001    2.75000000
   11.88416672   83.80780029    0.81999999    2.75000000
   11.89000034   83.80780029    0.80000001    2.73000002
   11.89416695   81.09059906    0.80000001    2.73000002
   11.89750004   84.70159912    0.79000002    2.73000002
   11.89861107   85.02349854    0.79000002    2.75000000
   11.90111065   82.25810242    0.79000002    2.75000000
   11.90416622   81.74240112    0.79000002    2.75000000
   11.90749931   83.95690155    0.80000001    2.75000000
   11.91083336   80.06559753    0.81999999    2.76999998
   11.91388893   85.59559631    0.81999999    2.75000000
   11.91722298   83.43019867    0.83999997    2.75000000
   11.92055607   86.33799744    0.81999999    2.75000000
   11.92361164   85.12380219    0.81999999    2.75000000
   11.92694473   84.65589905    0.81999999    2.75000000
   11.93305588   84.65589905    0.80000001    2.75000000
   11.93694496   82.38249969    0.80000001    2.75000000
   11.94027805   87.38420105    0.80000001    2.75000000
   11.94361115   83.37550354    0.80000001    2.75000000
   11.94666672   77.83190155    0.80000001    2.75000000
   11.94999981   85.16429901    0.80000001    2.75000000
   11.95333290   85.89450073    0.81999999    2.75000000
   11.95638847   84.39749908    0.79000002    2.76999998
   11.95972157   89.12519836    0.75000000    2.76999998
   11.96277714   85.44580078    0.73000002    2.75000000
   11.96527767   80.46900177    0.73000002    2.75000000
   11.96666622   82.88729858    0.70999998    2.75000000
   11.96972179   80.68060303    0.70999998    2.75000000
   11.97583294   80.68060303    0.70999998    2.76999998
   11.97999954   83.46579742    0.69000000    2.76999998
   11.98305511   86.82019806    0.69000000    2.75000000
   11.98638916   84.46099854    0.67000002    2.76999998
   11.98972225   80.75689697    0.67000002    2.76999998
   11.99277782   79.77960205    0.69000000    2.76999998
   11.99611092   81.79560089    0.70999998    2.76999998
   11.99861145   82.98909760    0.70999998    2.76999998
   11.99972248   82.12159729    0.69000000    2.76999998
   12.00277805   82.52680206    0.69000000    2.75000000
   12.00611115   83.27410126    0.67000002    2.75000000
   12.00944424   76.90640259    0.67000002    2.76999998
   12.01249981   83.46399689    0.69000000    2.76999998
   12.01861095   83.46399689    0.70999998    2.76999998
   12.02277756   82.80319977    0.69000000    2.75000000
   12.02583313   82.52639771    0.69000000    2.78999996
   12.02916622   83.11049652    0.67000002    2.78999996
   12.03194427   86.19529724    0.63000000    2.78999996
   12.03277779   81.73950195    0.63000000    2.76999998
   12.03583336   85.63829803    0.63000000    2.76999998
   12.03916740   84.94080353    0.63000000    2.76999998
   12.04250050   80.87560272    0.61000001    2.76999998
   12.04555607   81.86280060    0.61000001    2.76999998
   12.04888916   83.36319733    0.56999999    2.76999998
   12.05194473   79.89640045    0.56999999    2.76999998
   12.05527782   80.94020081    0.56999999    2.76999998
   12.06138897   80.94020081    0.58999997    2.78999996
   12.06555557   82.75070190    0.58999997    2.76999998
   12.06888866   92.07299805    0.61000001    2.78999996
   12.07194424   87.62640381    0.61000001    2.76999998
   12.07527733   84.19490051    0.63000000    2.76999998
   12.07861137   85.17009735    0.63000000    2.78999996
   12.08166695   86.81109619    0.63000000    2.76999998
   12.08500004   84.94860077    0.64999998    2.76999998
   12.08833313   89.11350250    0.64999998    2.78999996
   12.09138870   87.38150024    0.67000002    2.78999996
   12.09472179   89.45050049    0.69000000    2.78999996
   12.09777737   82.27050018    0.69000000    2.78999996
   12.09861088   84.22499847    0.70999998    2.76999998
   12.10444450   84.22499847    0.69000000    2.76999998
   12.10833359   89.48239899    0.69000000    2.76999998
   12.11166668   81.69869995    0.67000002    2.78999996
   12.11500072   88.71929932    0.67000002    2.76999998
   12.11805534   88.07920074    0.64999998    2.78999996
   12.12138939   86.10250092    0.64999998    2.78999996
   12.12472248   79.00620270    0.67000002    2.76999998
   12.12777805   81.66349792    0.69000000    2.78999996
   12.13111115   82.09850311    0.69000000    2.78999996
   12.13194466   83.89620209    0.70999998    2.80999994
   12.13472176   83.04470062    0.73000002    2.78999996
   12.13777733   80.74430084    0.75000000    2.78999996
   12.14111137   87.24330139    0.76999998    2.78999996
   12.14722252   87.24330139    0.80000001    2.78999996
   12.15138817   82.67900085    0.80000001    2.78999996
   12.15444374   83.54129791    0.83999997    2.78999996
   12.15777779   81.34259796    0.86000001    2.78999996
   12.16083336   84.61990356    0.81999999    2.76999998
   12.16416645   82.07620239    0.81999999    2.76999998
   12.16527748   83.46980286    0.81999999    2.78999996
   12.16777802   87.65209961    0.81999999    2.78999996
   12.17083359   82.73609924    0.83999997    2.78999996
   12.17416668   84.21630096    0.81999999    2.78999996
   12.17750072   80.69770050    0.81999999    2.78999996
   12.18055630   84.17250061    0.80000001    2.76999998
   12.18388939   83.35759735    0.79000002    2.78999996
   12.19000053   83.35759735    0.76999998    2.78999996
   12.19416714   83.79859924    0.79000002    2.78999996
   12.19722271   83.50640106    0.79000002    2.78999996
   12.19861126   85.60060120    0.79000002    2.78999996
   12.20111084   82.20179749    0.79000002    2.78999996
   12.20416641   81.73159790    0.76999998    2.80999994
   12.20749950   79.43569946    0.76999998    2.80999994
   12.21083355   75.76390076    0.76999998    2.82999992
   12.21388912   78.69139862    0.70999998    2.80999994
   12.21722221   81.62640381    0.67000002    2.78999996
   12.22055531   85.78230286    0.64999998    2.78999996
   12.22361088   86.92949677    0.67000002    2.78999996
   12.22694397   82.02059937    0.69000000    2.78999996
   12.23277760   82.02059937    0.64999998    2.78999996
   12.23694515   83.82230377    0.63000000    2.78999996
   12.24027824   85.99639893    0.67000002    2.80999994
   12.24333382   84.42769623    0.70999998    2.80999994
   12.24666691   81.10130310    0.73000002    2.80999994
   12.25000000   79.12689972    0.75000000    2.80999994
   12.25333309   81.45770264    0.76999998    2.80999994
   12.25638866   83.60019684    0.79000002    2.78999996
   12.25972176   85.46170044    0.79000002    2.80999994
   12.26277733   81.30400085    0.79000002    2.80999994
   12.26527786   81.34020233    0.80000001    2.80999994
   12.26666641   81.19360352    0.80000001    2.80999994
   12.26999950   81.92040253    0.80000001    2.80999994
   12.27583313   81.92040253    0.83999997    2.80999994
   12.27972221   82.92240143    0.83999997    2.80999994
   12.28305531   82.02890015    0.80000001    2.80999994
   12.28638935   81.07520294    0.80000001    2.80999994
   12.28944492   82.08399963    0.80000001    2.80999994
   12.29277802   81.57460022    0.80000001    2.80999994
   12.29583359   83.18440247    0.75000000    2.78999996
   12.29861164   81.90000153    0.76999998    2.80999994
   12.29972267   79.98159790    0.76999998    2.80999994
   12.30305576   81.98989868    0.79000002    2.80999994
   12.30611134   79.88379669    0.80000001    2.80999994
   12.30944443   79.48370361    0.79000002    2.82999992
   12.31250000   79.25270081    0.76999998    2.80999994
   12.31861115   79.25270081    0.75000000    2.80999994
   12.32277775   78.08730316    0.73000002    2.80999994
   12.32583332   79.59899902    0.70999998    2.80999994
   12.32916641   77.51809692    0.70999998    2.80999994
   12.33194447   84.45469666    0.69000000    2.78999996
   12.33277798   78.84439850    0.70999998    2.80999994
   12.33611107   80.18370056    0.70999998    2.80999994
   12.33916664   80.33899689    0.70999998    2.80999994
   12.34249973   80.41120148    0.70999998    2.80999994
   12.34555531   79.90249634    0.73000002    2.80999994
   12.34888840   76.66940308    0.73000002    2.82999992
   12.35222244   80.72779846    0.75000000    2.80999994
   12.35527802   84.58809662    0.73000002    2.82999992
   12.36138916   84.58809662    0.70999998    2.80999994
   12.36555576   80.08129883    0.70999998    2.80999994
   12.36861134   78.19539642    0.70999998    2.80999994
   12.37194443   80.56020355    0.70999998    2.80999994
   12.37527752   77.40889740    0.70999998    2.82999992
   12.37833309   80.39420319    0.73000002    2.82999992
   12.38166714   81.07199860    0.73000002    2.82999992
   12.38500023   79.90540314    0.73000002    2.82999992
   12.38805580   78.57089996    0.73000002    2.80999994
   12.39138889   83.14189911    0.70999998    2.82999992
   12.39444447   78.94860077    0.70999998    2.80999994
   12.39777756   81.10369873    0.70999998    2.82999992
   12.39861107   86.05509949    0.70999998    2.82999992
   12.41944504   86.05509949    0.73000002    2.82999992
   12.42361164   80.63140106    0.73000002    2.82999992
   12.42666721   82.19360352    0.70999998    2.82999992
   12.43000031   79.20989990    0.70999998    2.82999992
   12.43194485   81.12920380    0.73000002    2.82999992
   12.43361092   83.48310089    0.70999998    2.82999992
   12.43694496   80.50319672    0.70999998    2.82999992
   12.44000053   78.90969849    0.69000000    2.80999994
   12.44333363   80.63079834    0.69000000    2.82999992
   12.44666672   82.05429840    0.69000000    2.82999992
   12.44972229   84.04019928    0.67000002    2.82999992
   12.45305538   80.95790100    0.67000002    2.82999992
   12.45638847   79.01319885    0.67000002    2.82999992
   12.46222210   79.01319885    0.67000002    2.82999992
   12.46638870   79.63939667    0.70999998    2.82999992
   12.46944427   78.18329620    0.70999998    2.82999992
   12.47277737   81.50140381    0.70999998    2.82999992
   12.47611046   82.89579773    0.73000002    2.82999992
   12.47916603   80.98249817    0.73000002    2.82999992
   12.48249912   79.86879730    0.70999998    2.84999990
   12.48555565   74.82820129    0.70999998    2.82999992
   12.48888874   81.53749847    0.67000002    2.82999992
   12.49222279   85.50740051    0.67000002    2.84999990
   12.49527836   84.07219696    0.69000000    2.82999992
   12.49861145   79.96360016    0.69000000    2.82999992
   12.49916649   83.56580353    0.69000000    2.82999992
   12.50500011   83.56580353    0.69000000    2.80999994
   12.50916672   77.51519775    0.70999998    2.82999992
   12.51249981   83.80120087    0.70999998    2.82999992
   12.51555538   77.07610321    0.73000002    2.82999992
   12.51888847   73.30249786    0.75000000    2.82999992
   12.52194405   80.56590271    0.79000002    2.82999992
   12.52527714   77.40180206    0.79000002    2.84999990
   12.52861118   84.34329987    0.86000001    2.82999992
   12.53166676   82.81150055    0.92000002    2.82999992
   12.53249931   86.17859650    0.98000002    2.82999992
   12.53555584   81.77809906    0.98000002    2.82999992
   12.53861141   81.53600311    1.00000000    2.82999992
   12.54194450   78.55190277    1.00000000    2.82999992
   12.54777813   78.55190277    0.95999998    2.82999992
   12.55194473   82.56060028    0.94000000    2.82999992
   12.55527782   83.95559692    0.94000000    2.84999990
   12.55833340   79.72840118    0.98000002    2.82999992
   12.56166649   79.84149933    1.05999994    2.82999992
   12.56500053   78.83630371    1.05999994    2.82999992
   12.56583309   82.78099823    1.05999994    2.82999992
   12.56861115   80.88939667    1.07000005    2.82999992
   12.57166672   84.23660278    1.07000005    2.84999990
   12.57499981   76.57720184    1.11000001    2.82999992
   12.57805538   80.70899963    1.11000001    2.84999990
   12.58138847   80.64949799    1.11000001    2.82999992
   12.58472157   77.71230316    1.13000000    2.84999990
   12.59083271   77.71230316    1.11000001    2.84999990
   12.59472179   82.00620270    1.13000000    2.84999990
   12.59805489   81.40650177    1.09000003    2.84999990
   12.59916592   83.70159912    1.09000003    2.84999990
   12.60194492   80.49639893    1.09000003    2.84999990
   12.60500050   80.90100098    1.11000001    2.84999990
   12.60833359   89.20790100    1.13000000    2.84999990
   12.61138916   82.63169861    1.13000000    2.84999990
   12.61472225   89.29509735    1.13000000    2.84999990
   12.61805534   85.93499756    1.30999994    2.84999990
   12.62111092   85.39679718    1.28999996    2.84999990
   12.62444496   85.79949951    1.28999996    2.84999990
   12.62777805   77.90689850    1.30999994    2.84999990
   12.63361073   77.90689850    1.33000004    2.84999990
   12.63777733   84.29589844    1.34000003    2.84999990
   12.64083290   82.46029663    1.30999994    2.84999990
   12.64416695   81.11789703    1.26999998    2.82999992
   12.64750004   80.95520020    1.23000002    2.84999990
   12.65055561   79.93329620    1.21000004    2.84999990
   12.65388870   79.97959900    1.25000000    2.84999990
   12.65694427   80.96099854    1.28999996    2.84999990
   12.66027737   85.91739655    1.34000003    2.86999989
   12.66361046   80.43930054    1.41999996    2.84999990
   12.66583252   85.08229828    1.44000006    2.84999990
   12.66722298   82.47640228    1.48000002    2.84999990
   12.67027855   80.32160187    1.46000004    2.82999992
   12.67638874   80.32160187    1.25000000    2.84999990
   12.68055630   84.41410065    1.23000002    2.84999990
   12.68388939   78.83609772    1.25000000    2.84999990
   12.68722248   81.05879974    1.23000002    2.84999990
   12.69027805   80.85939789    1.21000004    2.84999990
   12.69361115   81.04019928    1.19000006    2.84999990
   12.69694424   81.09349823    1.13000000    2.84999990
   12.69916630   77.23320007    1.09000003    2.84999990
   12.70055580   79.19450378    1.09000003    2.84999990
   12.70361137   82.73229980    1.09000003    2.86999989
   12.70694447   84.30650330    1.07000005    2.84999990
   12.71000004   79.79530334    1.01999998    2.84999990
   12.71333313   80.07790375    1.01999998    2.84999990
   12.71916580   80.07790375    1.25000000    2.86999989
   12.72333336   81.87799835    1.30999994    2.86999989
   12.72666645   84.41169739    1.38000000    2.84999990
   12.72972202   79.17449951    1.38000000    2.84999990
   12.73249912   80.48380280    1.38000000    2.84999990
   12.73361111   78.84729767    1.38000000    2.84999990
   12.73666668   80.58010101    1.41999996    2.84999990
   12.74000072   75.77429962    1.41999996    2.84999990
   12.74305534   81.52239990    1.38000000    2.84999990
   12.74638939   80.60230255    1.30999994    2.84999990
   12.74972248   79.94010162    1.30999994    2.84999990
   12.75305557   79.60109711    1.30999994    2.84999990
   12.75611115   83.16780090    1.28999996    2.84999990
   12.76222229   83.16780090    1.28999996    2.84999990
   12.76611137   80.47100067    1.30999994    2.84999990
   12.76944447   78.05760193    1.28999996    2.84999990
   12.77277756   79.23349762    1.25000000    2.86999989
   12.77583313   77.59909821    1.13000000    2.86999989
   12.77916622   78.17359924    1.01999998    2.86999989
   12.78222179   81.22840118    1.01999998    2.86999989
   12.78555584   80.58489990    0.95999998    2.84999990
   12.78888893   81.37310028    0.88000000    2.86999989
   12.79194450   81.85289764    0.86000001    2.86999989
   12.79527855   80.44000244    0.81999999    2.86999989
   12.79861164   80.33489990    0.81999999    2.86999989
   12.79916668   79.57409668    0.81999999    2.86999989
   12.80500031   79.57409668    0.80000001    2.86999989
   12.80916691   80.30529785    0.81999999    2.86999989
   12.81222248   80.18499756    0.81999999    2.86999989
   12.81555557   81.61350250    0.80000001    2.86999989
   12.81861115   79.86810303    0.81999999    2.86999989
   12.82194424   84.74240112    0.80000001    2.86999989
   12.82527733   82.59320068    0.79000002    2.84999990
   12.82833290   83.48560333    0.80000001    2.86999989
   12.83166695   84.07959747    0.83999997    2.86999989
   12.83249950   80.73449707    0.86000001    2.86999989
   12.83527756   80.96340179    0.88000000    2.86999989
   12.83833313   80.26229858    0.92000002    2.86999989
   12.84166622   78.80899811    0.89999998    2.86999989
   12.84777737   78.80899811    0.92000002    2.86999989
   12.85194492   77.83390045    0.94000000    2.86999989
   12.85500050   78.91989899    1.00000000    2.86999989
   12.85833359   77.26390076    1.01999998    2.86999989
   12.86166668   76.70639801    1.00000000    2.86999989
   12.86472225   76.92400360    1.00000000    2.86999989
   12.86583328   84.19259644    1.03999996    2.89000010
   12.86861134   78.28099823    1.14999998    2.86999989
   12.87166691   84.46939850    1.26999998    2.86999989
   12.87500000   79.78330231    1.26999998    2.84999990
   12.87833309   77.35449982    1.26999998    2.86999989
   12.88138866   81.65119934    1.28999996    2.86999989
   12.88472176   84.15950012    1.26999998    2.86999989
   12.89055538   84.15950012    1.21000004    2.86999989
   12.89472198   78.60659790    1.16999996    2.86999989
   12.89805508   85.83580017    1.19000006    2.86999989
   12.89916611   80.13480377    1.19000006    2.86999989
   12.90166664   78.27290344    1.19000006    2.86999989
   12.90472221   80.57350159    1.19000006    2.86999989
   12.90805531   85.77999878    1.16999996    2.86999989
   12.91138840   83.76629639    1.13000000    2.86999989
   12.91444397   80.54820251    1.14999998    2.86999989
   12.91777802   80.27790070    1.14999998    2.86999989
   12.92111111   94.55400085    1.13000000    2.86999989
   12.92416668   90.34670258    1.13000000    2.86999989
   12.92750072   80.57540131    1.13000000    2.86999989
   12.93333340   80.57540131    1.07000005    2.86999989
   12.93750000   82.49099731    1.07000005    2.86999989
   12.94083309   79.91339874    1.07000005    2.86999989
   12.94416714   77.64839935    1.05999994    2.86999989
   12.94722271   79.10260010    1.05999994    2.86999989
   12.95055580   79.48030090    1.13000000    2.86999989
   12.95361137   81.88189697    1.28999996    2.86999989
   12.95694447   80.52790070    1.38000000    2.86999989
   12.96027756   77.77999878    1.48000002    2.86999989
   12.96333313   78.65679932    1.48000002    2.86999989
   12.96583271   78.18109894    1.48000002    2.86999989
   12.96722221   78.68299866    1.48000002    2.86999989
   12.97027779   77.27899933    1.44000006    2.86999989
   12.97638798   77.27899933    1.30999994    2.86999989
   12.98055553   78.86920166    1.33000004    2.86999989
   12.98361111   77.38430023    1.33000004    2.86999989
   12.98694515   75.87310028    1.33000004    2.89000010
   12.99000072   78.19190216    1.36000001    2.86999989
   12.99333382   77.05310059    1.36000001    2.86999989
   12.99666691   82.94139862    1.36000001    2.86999989
   12.99916649   78.82990265    1.36000001    2.86999989
   13.00027752   77.67880249    1.36000001    2.86999989
   13.00361156   77.54889679    1.38000000    2.86999989
   13.00666714   76.67079926    1.46000004    2.86999989
   13.01000023   80.35109711    1.61000001    2.86999989
   13.01305580   80.72730255    1.71000004    2.86999989
   13.01916599   80.72730255    1.66999996    2.86999989
   13.02333355   84.01329803    1.66999996    2.86999989
   13.02638817   80.00180054    1.71000004    2.89000010
   13.02972221   79.21430206    1.73000002    2.84999990
   13.03249931   87.76709747    1.63000000    2.89000010
   13.03333378   78.80599976    1.63000000    2.89000010
   13.03638935   79.29190063    1.63000000    2.89000010
   13.03972244   77.94419861    1.61000001    2.89000010
   13.04305553   76.22720337    1.61000001    2.89000010
   13.04611111   81.09510040    1.19000006    2.86999989
   13.04944515   84.64160156    1.21000004    2.89000010
   13.05249977   84.62529755    1.21000004    2.89000010
   13.05583382   80.07769775    1.23000002    2.86999989
   13.06194496   80.07769775    1.19000006    2.89000010
   13.06611156   82.33219910    1.21000004    2.89000010
   13.06944466   78.56400299    1.23000002    2.89000010
   13.07250023   77.54869843    1.23000002    2.89000010
   13.07583332   76.27870178    1.28999996    2.89000010
   13.07916641   77.90360260    1.28999996    2.86999989
   13.08222198   80.16359711    1.28999996    2.89000010
   13.08555508   78.97160339    1.28999996    2.89000010
   13.08888817   84.70770264    1.21000004    2.86999989
   13.09194374   85.35710144    1.21000004    2.86999989
   13.09527779   76.45860291    1.21000004    2.89000010
   13.09833336   84.17749786    1.21000004    2.89000010
   13.09916592   82.88860321    1.21000004    2.89000010
   13.10500050   82.88860321    1.13000000    2.89000010
   13.10888958   77.63189697    1.09000003    2.91000009
   13.11222267   77.28540039    1.11000001    2.89000010
   13.11555576   79.48229980    1.09000003    2.89000010
   13.11861134   79.49970245    1.09000003    2.89000010
   13.12194443   82.02940369    1.05999994    2.89000010
   13.12527752   80.72619629    1.05999994    2.89000010
   13.12833309   80.36350250    1.03999996    2.89000010
   13.13166714   84.76409912    1.00000000    2.89000010
   13.13249969   77.31929779    0.95999998    2.91000009
   13.13527775   81.54270172    0.98000002    2.89000010
   13.13833332   81.85230255    0.98000002    2.89000010
   13.14166641   83.69370270    0.95999998    2.89000010
   13.14777756   83.69370270    0.89999998    2.89000010
   13.15194416   79.04650116    0.88000000    2.89000010
   13.15499973   79.19470215    0.86000001    2.89000010
   13.15833282   83.16480255    0.88000000    2.89000010
   13.16138840   85.78050232    0.92000002    2.89000010
   13.16472149   78.73650360    0.92000002    2.89000010
   13.16583252   81.06819916    0.92000002    2.89000010
   13.16833401   81.60769653    0.94000000    2.89000010
   13.17138958   79.76100159    0.94000000    2.91000009
   13.17472267   77.21880341    0.92000002    2.91000009
   13.17805576   82.93759918    0.92000002    2.89000010
   13.18111134   75.60710144    0.89999998    2.91000009
   13.18444443   82.66670227    0.89999998    2.89000010
   13.19055557   82.66670227    0.92000002    2.89000010
   13.19472218   80.92449951    0.94000000    2.89000010
   13.19777775   80.53440094    0.95999998    2.91000009
   13.19916630   82.40339661    0.98000002    2.89000010
   13.20166683   85.36209869    1.00000000    2.91000009
   13.20472240   74.46150208    1.03999996    2.91000009
   13.20805550   78.24330139    1.01999998    2.89000010
   13.21138859   79.28929901    0.98000002    2.89000010
   13.21444416   82.65869904    0.98000002    2.89000010
   13.21777725   82.83460236    0.98000002    2.89000010
   13.22111034   83.40429688    0.94000000    2.89000010
   13.22416592   79.25219727    0.88000000    2.89000010
   13.22749996   83.54620361    0.88000000    2.89000010
   13.23333359   83.54620361    0.94000000    2.91000009
   13.23750019   82.78679657    0.94000000    2.91000009
   13.24083328   80.50599670    0.92000002    2.89000010
   13.24388885   84.60970306    0.92000002    2.89000010
   13.24722290   78.26809692    0.92000002    2.89000010
   13.25055599   81.69049835    0.92000002    2.91000009
   13.25361156   77.67810059    0.92000002    2.89000010
   13.25694466   76.69139862    0.89999998    2.89000010
   13.26027775   75.59500122    0.92000002    2.89000010
   13.26333332   79.26219940    0.92000002    2.91000009
   13.26583290   77.05269623    0.94000000    2.91000009
   13.26722240   77.74130249    0.94000000    2.91000009
   13.27055550   79.45610046    0.89999998    2.91000009
   13.27611065   79.45610046    0.83999997    2.91000009
   13.28027725   72.45220184    0.81999999    2.91000009
   13.28361130   78.55599976    0.76999998    2.89000010
   13.28694534   76.37709808    0.76999998    2.89000010
   13.29000092   81.10140228    0.73000002    2.91000009
   13.29333401   83.76650238    0.73000002    2.89000010
   13.29666710   76.93499756    0.70999998    2.91000009
   13.29916668   76.69259644    0.73000002    2.91000009
   13.30027771   78.35209656    0.73000002    2.91000009
   13.30361176   77.41780090    0.73000002    2.91000009
   13.30666733   76.06980133    0.73000002    2.91000009
   13.31000042   78.27999878    0.75000000    2.91000009
   13.31305599   76.85679626    0.75000000    2.91000009
   13.31916618   76.85679626    0.75000000    2.91000009
   13.32333374   80.77359772    0.73000002    2.91000009
   13.32638836   81.25129700    0.73000002    2.91000009
   13.32972240   76.71869659    0.70999998    2.91000009
   13.33249950   81.70130157    0.69000000    2.91000009
   13.33333302   78.40720367    0.67000002    2.91000009
   13.33666611   80.58709717    0.69000000    2.91000009
   13.33972168   81.35109711    0.67000002    2.91000009
   13.34305477   75.06719971    0.67000002    2.91000009
   13.34611034   82.27850342    0.67000002    2.93000007
   13.34944439   81.89920044    0.64999998    2.91000009
   13.35277843   76.16989899    0.63000000    2.93000007
   13.35583401   84.31189728    0.61000001    2.93000007
   13.36194515   84.31189728    0.58999997    2.91000009
   13.36611176   83.46890259    0.58999997    2.91000009
   13.36916637   77.18840027    0.61000001    2.91000009
   13.37250042   77.84490204    0.61000001    2.93000007
   13.37583351   77.43959808    0.61000001    2.89000010
   13.37888908   78.62920380    0.61000001    2.86999989
   13.38222218   79.43000031    0.61000001    2.91000009
   13.38555527   80.97899628    0.63000000    2.91000009
   13.38861084   77.62599945    0.63000000    2.93000007
   13.39194393   78.94920349    0.63000000    2.91000009
   13.39499950   80.22859955    0.63000000    2.91000009
   13.39833355   87.26909637    0.63000000    2.91000009
   13.39916611   79.64520264    0.63000000    2.91000009
   13.40472221   79.64520264    0.63000000    2.93000007
   13.40888882   80.43599701    0.63000000    2.91000009
   13.41222191   81.40440369    0.61000001    2.91000009
   13.41527748   81.57009888    0.58999997    2.93000007
   13.43305588   83.34449768    0.61000001    2.93000007
   13.43527794   77.83529663    0.63000000    2.91000009
   13.43861103   75.27030182    0.63000000    2.93000007
   13.44194412   80.67199707    0.63000000    2.93000007
   13.44777775   80.67199707    0.64999998    2.91000009
   13.45194435   79.82929993    0.63000000    2.93000007
   13.45527744   78.11029816    0.63000000    2.91000009
   13.45833302   77.71289825    0.63000000    2.93000007
   13.46166611   78.97100067    0.63000000    2.91000009
   13.46472168   79.29219818    0.61000001    2.91000009
   13.46611118   78.73100281    0.61000001    2.93000007
   13.46861076   81.02079773    0.63000000    2.91000009
   13.47194386   80.78379822    0.63000000    2.93000007
   13.47499943   80.69789886    0.64999998    2.93000007
   13.47833252   76.36060333    0.64999998    2.93000007
   13.48166656   80.01390076    0.63000000    2.93000007
   13.48472214   77.82270050    0.63000000    2.93000007
   13.49055576   77.82270050    0.63000000    2.93000007
   13.49472237   73.57869720    0.64999998    2.93000007
   13.49805546   78.12870026    0.64999998    2.91000009
   13.49944496   76.29630280    0.63000000    2.91000009
   13.50166702   75.04850006    0.61000001    2.91000009
   13.50500011   76.30809784    0.61000001    2.93000007
   13.50805569   79.93869781    0.61000001    2.93000007
   13.51138878   78.78179932    0.63000000    2.91000009
   13.51472187   75.40409851    0.63000000    2.93000007
   13.51777744   79.54660034    0.69000000    2.93000007
   13.52111053   84.06060028    0.67000002    2.93000007
   13.52444458   81.84970093    0.67000002    2.93000007
   13.52750015   89.83039856    0.67000002    2.93000007
   13.53361130   89.83039856    0.64999998    2.91000009
   13.53750038   78.57749939    0.64999998    2.93000007
   13.54083347   78.78209686    0.58999997    2.93000007
   13.54416752   80.10679626    0.58999997    2.93000007
   13.54722309   79.23590088    0.56999999    2.93000007
   13.55055618   80.05590057    0.56999999    2.91000009
   13.55388927   78.94010162    0.56999999    2.93000007
   13.55694485   78.26689911    0.55000001    2.93000007
   13.56027794   82.33399963    0.55000001    2.93000007
   13.56333351   85.07530212    0.56999999    2.91000009
   13.56611156   81.48729706    0.58999997    2.93000007
   13.56694412   79.54039764    0.58999997    2.93000007
   13.57027817   75.23709869    0.58999997    2.93000007
   13.57638836   75.23709869    0.58999997    2.93000007
   13.58055592   79.14340210    0.58999997    2.93000007
   13.58361053   81.98169708    0.58999997    2.93000007
   13.58694458   79.29499817    0.61000001    2.93000007
   13.59027767   79.31819916    0.61000001    2.93000007
   13.59333324   77.39469910    0.58999997    2.93000007
   13.59666634   77.06719971    0.58999997    2.94000006
   13.59944439   75.88300323    0.61000001    2.93000007
   13.60027790   82.24289703    0.61000001    2.93000007
   13.60361195   77.61840057    0.63000000    2.93000007
   13.60694504   80.19960022    0.64999998    2.93000007
   13.61000061   80.51149750    0.64999998    2.93000007
   13.61333370   75.91010284    0.64999998    2.93000007
   13.61916637   75.91010284    0.63000000    2.93000007
   13.62333393   78.78610229    0.58999997    2.93000007
   13.62666702   75.78880310    0.58999997    2.93000007
   13.62972260   77.99479675    0.58999997    2.93000007
   13.63277817   82.20310211    0.56999999    2.93000007
   13.63333321   83.27760315    0.56999999    2.93000007
   13.63666630   73.35250092    0.58999997    2.93000007
   13.63972187   76.67729950    0.58999997    2.94000006
   13.64305496   81.96189880    0.56999999    2.93000007
   13.64638901   78.83529663    0.58999997    2.93000007
   13.64944458   78.86170197    0.58999997    2.94000006
   13.65277767   81.37290192    0.58999997    2.93000007
   13.65583324   79.66220093    0.61000001    2.93000007
   13.66194439   79.66220093    0.63000000    2.94000006
   13.66611099   75.45559692    0.63000000    2.93000007
   13.66666698   77.06880188    0.63000000    2.93000007
   13.67000008   84.52300262    0.63000000    2.93000007
   13.67305565   77.02529907    0.58999997    2.93000007
   13.67638874   73.13379669    0.58999997    2.93000007
   13.67972279   77.89459991    0.61000001    2.93000007
   13.68277836   75.01380157    0.63000000    2.93000007
   13.68611145   77.94129944    0.70999998    2.94000006
   13.68944454   76.87100220    0.73000002    2.93000007
   13.69250011   73.00379944    0.75000000    2.93000007
   13.69583321   84.30429840    0.70999998    2.94000006
   13.69916630   80.83260345    0.70999998    2.94000006
   13.69972229   77.41169739    0.70999998    2.94000006
   13.70499992   77.41169739    0.64999998    2.94000006
   13.70888901   75.16870117    0.64999998    2.93000007
   13.71222210   75.31320190    0.64999998    2.93000007
   13.71555519   78.72209930    0.64999998    2.93000007
   13.71861076   76.59049988    0.67000002    2.94000006
   13.72194386   77.15989685    0.67000002    2.93000007
   13.72527695   76.13569641    0.67000002    2.93000007
   13.72833252   78.18810272    0.58999997    2.94000006
   13.73166656   78.44139862    0.58999997    2.94000006
   13.73277760   82.26740265    0.56999999    2.94000006
   13.73527813   81.18250275    0.61000001    2.94000006
   13.73861122   80.30670166    0.63000000    2.93000007
   13.74166679   79.23690033    0.63000000    2.93000007
   13.74777794   79.23690033    0.63000000    2.93000007
   13.75194454   82.05780029    0.63000000    2.93000007
   13.75500011   76.27149963    0.63000000    2.93000007
   13.75833321   78.59590149    0.63000000    2.93000007
   13.76166630   82.29879761    0.63000000    2.93000007
   13.76472187   74.89409637    0.63000000    2.93000007
   13.76638889   73.45610046    0.63000000    2.94000006
   13.76833344   78.25900269    0.64999998    2.94000006
   13.77166653   81.41049957    0.64999998    2.94000006
   13.77472210   74.65180206    0.64999998    2.94000006
   13.77805519   84.21820068    0.64999998    2.93000007
   13.78138828   78.20099640    0.64999998    2.93000007
   13.78444481   78.66850281    0.67000002    2.93000007
   13.79055595   78.66850281    0.76999998    2.93000007
   13.79472256   79.12709808    0.76999998    2.93000007
   13.79805565   77.89089966    0.76999998    2.93000007
   13.79972267   78.37229919    0.79000002    2.93000007
   13.80166721   75.27020264    0.76999998    2.94000006
   13.80500031   79.50810242    0.76999998    2.93000007
   13.80805588   79.38580322    0.76999998    2.94000006
   13.81138897   79.36489868    0.75000000    2.93000007
   13.81472206   79.07959747    0.75000000    2.94000006
   13.81777763   83.15560150    0.76999998    2.93000007
   13.82111073   77.63400269    0.75000000    2.93000007
   13.82444477   79.62190247    0.79000002    2.93000007
   13.82750034   79.66359711    0.79000002    2.93000007
   13.83333302   79.66359711    0.76999998    2.93000007
   13.83749962   82.14170074    0.76999998    2.93000007
   13.84083271   79.54219818    0.80000001    2.94000006
   13.84388828   77.11489868    0.80000001    2.93000007
   13.84722233   80.75759888    0.83999997    2.94000006
   13.85055637   78.87100220    0.81999999    2.93000007
   13.85361195   78.86509705    0.80000001    2.93000007
   13.85694504   76.91200256    0.80000001    2.93000007
   13.86027813   86.03250122    0.80000001    2.93000007
   13.86333370   79.73390198    0.81999999    2.94000006
   13.86638927   79.28690338    0.88000000    2.93000007
   13.86694431   76.65550232    0.88000000    2.93000007
   13.87027836   83.41829681    0.88000000    2.93000007
   13.87638855   83.41829681    0.89999998    2.94000006
   13.88027763   81.98750305    0.88000000    2.94000006
   13.88361073   82.67939758    0.89999998    2.93000007
   13.88694477   81.05010223    0.89999998    2.94000006
   13.89000034   88.37280273    0.94000000    2.93000007
   13.89333344   80.61849976    0.95999998    2.93000007
   13.89666653   85.58650208    0.95999998    2.94000006
   13.89972210   78.77549744    0.95999998    2.93000007
   13.89999962   85.68119812    0.94000000    2.93000007
   13.90333271   90.91200256    0.92000002    2.93000007
   13.90638828   90.55410004    0.88000000    2.93000007
   13.90972137   78.57530212    0.86000001    2.94000006
   13.91305542   78.31079865    0.86000001    2.94000006
   13.91916656   78.31079865    0.86000001    2.93000007
   13.92333412   82.34559631    0.86000001    2.94000006
   13.92638874   79.72530365    0.88000000    2.93000007
   13.92972279   78.00749969    0.88000000    2.94000006
   13.93305588   82.43240356    0.89999998    2.94000006
   13.93333340   80.39790344    0.89999998    2.94000006
   13.93666649   90.02459717    0.89999998    2.93000007
   13.93972206   84.58930206    0.89999998    2.93000007
   13.94305515   84.03829956    0.92000002    2.94000006
   13.94638920   83.70339966    0.95999998    2.93000007
   13.94944477   75.82150269    1.00000000    2.94000006
   13.95277786   84.10949707    0.98000002    2.94000006
   13.95611095   81.47409821    0.92000002    2.94000006
   13.96194458   81.47409821    0.92000002    2.93000007
   13.96611118   80.01640320    0.92000002    2.94000006
   13.96666622   76.82910156    0.92000002    2.93000007
   13.96999931   78.01319885    0.92000002    2.93000007
   13.97305489   78.93699646    0.89999998    2.94000006
   13.97638798   77.63020325    0.89999998    2.94000006
   13.97944355   80.47519684    0.80000001    2.94000006
   13.98277760   87.53109741    0.80000001    2.94000006
   13.98611164   80.20349884    0.83999997    2.94000006
   13.98916721   78.42710114    0.88000000    2.93000007
   13.99250031   79.50129700    0.88000000    2.94000006
   13.99583340   76.99949646    0.86000001    2.94000006
   13.99888897   78.20970154    0.81999999    2.94000006
   14.00000000   84.78649902    0.81999999    2.93000007
   14.00472260   84.78649902    0.83999997    2.94000006
   14.00888920   80.61070251    0.89999998    2.93000007
   14.01222229   77.92810059    0.89999998    2.93000007
   14.01555538   81.88439941    0.92000002    2.93000007
   14.01861095   78.01370239    0.89999998    2.94000006
   14.02194405   77.02760315    0.89999998    2.94000006
   14.02527714   79.86830139    0.89999998    2.94000006
   14.02833271   78.41290283    0.89999998    2.94000006
   14.03166676   83.62860107    0.89999998    2.93000007
   14.03333378   77.07900238    0.88000000    2.94000006
   14.03555584   79.13140106    0.86000001    2.94000006
   14.03861141   75.98600006    0.86000001    2.94000006
   14.04194450   84.02290344    0.83999997    2.93000007
   14.04777813   84.02290344    0.79000002    2.94000006
   14.05166721   78.80460358    0.79000002    2.94000006
   14.05500031   80.95790100    0.80000001    2.94000006
   14.05833340   80.79930115    0.80000001    2.94000006
   14.06138897   82.85240173    0.81999999    2.94000006
   14.06472206   78.96929932    0.80000001    2.94000006
   14.06666660   79.14710236    0.79000002    2.94000006
   14.06861115   83.28350067    0.79000002    2.94000006
   14.07166672   83.07460022    0.79000002    2.94000006
   14.07499981   76.17859650    0.75000000    2.94000006
   14.07805538   81.67890167    0.75000000    2.94000006
   14.08138847   85.07140350    0.79000002    2.94000006
   14.08472157   84.77559662    0.79000002    2.94000006
   14.09055519   84.77559662    0.81999999    2.94000006
   14.09472179   85.26219940    0.83999997    2.94000006
   14.09777737   76.97219849    0.81999999    2.94000006
   14.10000038   75.42009735    0.79000002    2.93000007
   14.10166740   83.52079773    0.79000002    2.94000006
   14.10472298   78.25689697    0.76999998    2.94000006
   14.10805607   82.08820343    0.73000002    2.94000006
   14.11138916   80.48269653    0.70999998    2.94000006
   14.11444473   75.95809937    0.70999998    2.94000006
   14.11777782   77.77770233    0.73000002    2.93000007
   14.12111092   83.75789642    0.75000000    2.94000006
   14.12416649   76.47859955    0.75000000    2.94000006
   14.12750053   80.33619690    0.75000000    2.94000006
   14.13333321   80.33619690    0.80000001    2.94000006
   14.13749981   78.18849945    0.79000002    2.96000004
   14.14083290   80.31379700    0.76999998    2.93000007
   14.14388847   83.95639801    1.46000004    2.94000006
   14.14722252   81.78140259    4.90999985    2.96000004
   14.15027714   75.47319794    4.90999985    2.94000006
   14.15361118   76.62689972    4.90999985    3.01999998
   14.15694427   87.83249664    4.90999985    3.03999996
   14.15999985   78.07890320    4.90999985    2.98000002
   14.16333294   83.18920135    4.90999985    2.98000002
   14.16666698   78.40650177    4.90999985    3.05999994
   14.16694450   74.98090363    4.90999985    3.07999992
   14.17027855   74.70379639    1.58000004    3.05999994
   14.17611122   74.70379639    0.30000001    3.00000000
   14.18027782   78.76689911    0.20999999    1.50000000
   14.18361092   77.91860199    0.17000000    0.73000002
   14.18694496   76.56020355    0.15000001    0.88000000
   14.19000053   76.64440155    0.13000000    0.83999997
   14.19333363   79.29290009    0.11000000    0.81999999
   14.19666672   73.97779846    0.11000000    0.80000001
   14.19972229   70.74109650    0.11000000    0.75000000
   14.20027733   75.58110046    0.09000000    0.75000000
   14.20333290   74.17340088    0.09000000    0.67000002
   14.20666695   73.78399658    0.09000000    0.61000001
   14.20972157   76.16380310    0.09000000    0.56999999
   14.21305561   78.41380310    0.09000000    0.52999997
   14.21916580   78.41380310    0.07000000    0.51999998
   14.22305489   74.51909637    0.07000000    0.47999999
   14.22638798   80.46160126    0.07000000    0.46000001
   14.22972202   78.13849640    0.05000000    0.41999999
   14.23277760   77.52819824    0.07000000    0.40000001
   14.23361111   86.12850189    0.07000000    0.38000000
   14.23638916   79.87460327    0.07000000    0.36000001
   14.23972225   74.30269623    0.07000000    0.31999999
   14.24277782   79.63670349    0.05000000    0.28000000
   14.24611092   80.21820068    0.07000000    0.25000000
   14.24944496   79.38150024    0.05000000    0.23000000
   14.25249958   77.71489716    0.05000000    0.19000000
   14.25583363   77.45390320    0.05000000    0.15000001
   14.26194477   77.45390320    0.05000000    0.09000000
   14.26611137   77.07779694    0.05000000    0.07000000
   14.26722240   76.79309845    0.05000000    0.07000000
   14.26972198   84.78199768    0.05000000    0.05000000
   14.27305508   79.17070007    0.05000000    0.05000000
   14.27611065   76.41369629    0.05000000    0.03000000
   14.27944374   82.75640106    0.05000000    0.03000000
   14.28277779   75.33489990    0.05000000    0.01000000
   14.28583336   76.69899750    0.03000000    0.01000000
   14.28916740   75.91580200    0.05000000    0.01000000
   14.29250050   77.17040253    0.05000000    0.01000000
   14.29555607   79.65699768    0.05000000    0.01000000
   14.29888916   76.78549957    0.05000000    0.01000000
   14.30055618   75.66829681    0.05000000    0.01000000
   14.30472279   75.66829681    0.05000000    0.01000000
   14.30888939   86.06919861    0.05000000    0.01000000
   14.31222248   79.01110077    0.05000000    0.01000000
   14.31527805   84.34929657    0.05000000    0.01000000
   14.31861115   74.78150177    0.05000000    0.01000000
   14.32166672   74.58719635    0.05000000    0.01000000
   14.32499981   78.66970062    0.05000000    0.01000000
   14.32833290   77.96150208    0.05000000    0.01000000
   14.33138847   76.74279785    0.05000000    0.01000000
   14.33388901   77.04959869    0.05000000    0.01000000
   14.33500004   78.58470154    0.05000000    0.01000000
   14.33833313   75.70590210    0.05000000    0.01000000
   14.34138870   77.99109650    0.05000000    0.01000000
   14.34749985   77.99109650    0.05000000    0.01000000
   14.35166740   77.40380096    0.05000000    0.01000000
   14.35500050   73.50679779    0.05000000    0.01000000
   14.35833359   75.97039795    0.05000000    0.01000000
   14.36138916   73.82949829    0.05000000    0.01000000
   14.36472225   74.40920258    0.05000000    0.01000000
   14.36722279   78.53730011    0.05000000    0.01000000
   14.36833382   80.39550018    0.05000000    0.01000000
   14.37166691   81.91239929    0.05000000    0.01000000
   14.37472248   81.66149902    0.05000000    0.01000000
   14.37805557   80.60980225    0.05000000    0.01000000
   14.38138866   79.40869904    0.05000000    0.01000000
   14.38444424   76.85269928    0.05000000    0.01000000
   14.39055538   76.85269928    0.05000000    0.01000000
   14.39444447   74.83190155    0.05000000    0.01000000
   14.39777756   77.87809753    0.05000000    0.01000000
   14.40055561   79.39270020    0.05000000    0.01000000
   14.40138817   80.75279999    0.05000000    0.01000000
   14.40472221   75.60469818    0.05000000    0.01000000
   14.40777779   80.98200226    0.05000000    0.01000000
   14.41111088   79.22760010    0.05000000    0.01000000
   14.41444397   85.05590057    0.05000000    0.01000000
   14.41750050   78.36119843    0.05000000    0.01000000
   14.42083359   77.44740295    0.05000000    0.01000000
   14.42416668   76.96309662    0.05000000    0.01000000
   14.42722225   77.63790131    0.05000000    0.01000000
   14.43333340   77.63790131    0.05000000    0.01000000
   14.45166683   82.81870270    0.05000000    0.01000000
   14.45499992   80.20310211    0.05000000    0.01000000
   14.45805550   82.17590332    0.05000000    0.01000000
   14.46138859   81.43520355    0.05000000    0.01000000
   14.46444416   79.78790283    0.05000000    0.01000000
   14.46777725   78.53800201    0.05000000    0.01000000
   14.47111034   78.25969696    0.05000000    0.01000000
   14.47638798   78.25969696    0.05000000    0.01000000
   14.48055553   77.63490295    0.05000000    0.01000000
   14.48361111   76.42729950    0.05000000    0.01000000
   14.48472214   84.19629669    0.05000000    0.01000000
   14.48750019   82.79660034    0.05000000    0.01000000
   14.49055576   74.97650146    0.05000000    0.01000000
   14.49388885   74.78029633    0.05000000    0.01000000
   14.49694443   77.71440125    0.05000000    0.01000000
   14.50027752   75.52320099    0.05000000    0.01000000
   14.50361156   76.43229675    0.05000000    0.01000000
   14.50666714   74.87789917    0.05000000    0.01000000
   14.51000023   79.87400055    0.05000000    0.01000000
   14.51333332   79.61769867    0.05000000    0.01000000
   14.51916599   79.61769867    0.05000000    0.01000000
   14.52333355   83.17130280    0.05000000    0.01000000
   14.52666664   82.14689636    0.05000000    0.01000000
   14.52972221   80.17389679    0.05000000    0.01000000
   14.53305531   80.53189850    0.05000000    0.01000000
   14.53638935   75.63939667    0.05000000    0.01000000
   14.53944492   79.06089783    0.05000000    0.01000000
   14.54277802   76.22200012    0.05000000    0.01000000
   14.54611111   75.80310059    0.05000000    0.01000000
   14.54916668   78.83159637    0.05000000    0.01000000
   14.55138874   77.23729706    0.05000000    0.01000000
   14.55305576   74.16719818    0.05000000    0.01000000
   14.55611134   73.10420227    0.05000000    0.01000000
   14.56194496   73.10420227    0.05000000    0.01000000
   14.56611156   74.78849792    0.05000000    0.01000000
   14.56944466   75.23179626    0.05000000    0.01000000
   14.57277775   76.60489655    0.05000000    0.01000000
   14.57583332   76.56950378    0.05000000    0.01000000
   14.57916641   76.25550079    0.05000000    0.01000000
   14.58222198   75.95089722    0.05000000    0.01000000
   14.58472157   71.77279663    0.05000000    0.01000000
   14.58611107   76.25820160    0.05000000    0.01000000
   14.58916664   81.43180084    0.05000000    0.01000000
   14.59249973   81.15679932    0.05000000    0.01000000
   14.59583282   77.60700226    0.05000000    0.01000000
   14.59888840   77.69599915    0.05000000    0.01000000
   14.60500050   77.69599915    0.05000000    0.01000000
   14.60916710   77.06340027    0.05000000    0.01000000
   14.61222267   80.66339874    0.05000000    0.01000000
   14.61555576   75.44650269    0.05000000    0.01000000
   14.61805534   80.08470154    0.05000000    0.01000000
   14.61916637   83.54290009    0.05000000    0.01000000
   14.62222195   80.97969818    0.05000000    0.01000000
   14.62555599   79.12310028    0.05000000    0.01000000
   14.62888908   79.28839874    0.05000000    0.01000000
   14.63194466   81.41860199    0.05000000    0.01000000
   14.63527775   79.06900024    0.05000000    0.01000000
   14.63833332   81.74320221    0.05000000    0.01000000
   14.64166641   81.10590363    0.05000000    0.01000000
   14.64777756   81.10590363    0.05000000    0.01000000
   14.65194416   78.23139954    0.05000000    0.01000000
   14.65499973   76.47769928    0.05000000    0.01000000
   14.65833282   75.36389923    0.05000000    0.01000000
   14.66166592   75.59829712    0.05000000    0.01000000
   14.66472149   73.82350159    0.05000000    0.01000000
   14.66805553   74.53250122    0.05000000    0.01000000
   14.67138958   76.33300018    0.05000000    0.01000000
   14.67444515   76.72190094    0.05000000    0.01000000
   14.67777824   80.40059662    0.05000000    0.01000000
   14.68083382   76.23320007    0.05000000    0.01000000
   14.68416691   76.24579620    0.05000000    0.01000000
   14.68472195   77.86509705    0.05000000    0.01000000
   14.69055557   77.86509705    0.05000000    0.01000000
   14.69472218   74.91359711    0.05000000    0.01000000
   14.69805527   74.95069885    0.05000000    0.01000000
   14.70111084   76.47959900    0.05000000    0.01000000
   14.70444393   80.56860352    0.05000000    0.01000000
   14.70777798   78.86660004    0.05000000    0.01000000
   14.71083355   74.78500366    0.05000000    0.01000000
   14.71416664   80.04219818    0.05000000    0.01000000
   14.71749973   79.54930115    0.05000000    0.01000000
   14.71805477   79.27850342    0.05000000    0.01000000
   14.72111034   79.20700073    0.05000000    0.01000000
   14.72416592   74.59739685    0.05000000    0.01000000
   14.72749996   80.00559998    0.05000000    0.01000000
   14.73333359   80.00559998    0.05000000    0.01000000
   14.73750019   75.19249725    0.05000000    0.01000000
   14.74083328   79.35910034    0.05000000    0.01000000
   14.74416733   80.58930206    0.05000000    0.01000000
   14.74722290   78.47650146    0.05000000    0.01000000
   14.75055599   83.33609772    0.05000000    0.01000000
   14.75138855   78.63909912    0.05000000    0.01000000
   14.75416660   79.45110321    0.05000000    0.01000000
   14.75722218   78.26460266    0.05000000    0.01000000
   14.76055527   74.85820007    0.05000000    0.01000000
   14.76388931   74.53140259    0.05000000    0.01000000
   14.76694393   74.94599915    0.05000000    0.01000000
   14.77027798   81.66249847    0.05000000    0.01000000
   14.77638817   81.66249847    0.05000000    0.01000000
   14.78027725   79.09929657    0.05000000    0.01000000
   14.78361130   74.98650360    0.05000000    0.01000000
   14.78472233   77.18509674    0.05000000    0.01000000
   14.78722286   77.66059875    0.05000000    0.01000000
   14.79027843   73.54550171    0.05000000    0.01000000
   14.79361153   74.89179993    0.05000000    0.01000000
   14.79694462   76.00050354    0.05000000    0.01000000
   14.80000019   80.28939819    0.05000000    0.01000000
   14.80333328   76.72560120    0.05000000    0.01000000
   14.80666733   80.83899689    0.05000000    0.01000000
   14.80972195   80.95349884    0.05000000    0.01000000
   14.81305599   78.67060089    0.05000000    0.01000000
   14.81916618   78.67060089    0.05000000    0.01000000
   14.82333374   79.39029694    0.05000000    0.01000000
   14.82638836   83.67690277    0.05000000    0.01000000
   14.82972240   81.41200256    0.05000000    0.01000000
   14.83305550   78.31079865    0.05000000    0.01000000
   14.83611107   82.35639954    0.05000000    0.01000000
   14.83944416   79.71949768    0.05000000    0.01000000
   14.84249973   83.38819885    0.05000000    0.01000000
   14.84583282   79.35669708    0.05000000    0.01000000
   14.84916592   79.40049744    0.05000000    0.01000000
   14.85138893   77.03389740    0.05000000    0.01000000
   14.85277843   81.06950378    0.05000000    0.01000000
   14.85583401   78.16809845    0.05000000    0.01000000
   14.86194515   78.16809845    0.05000000    0.01000000
   14.86611176   80.25910187    0.05000000    0.01000000
   14.86944485   80.58740234    0.05000000    0.01000000
   14.87250042   82.71499634    0.05000000    0.01000000
   14.87583351   75.51139832    0.05000000    0.01000000
   14.87888908   74.99929810    0.05000000    0.01000000
   14.88222218   78.16729736    0.05000000    0.01000000
   14.88472176   78.37840271    0.05000000    0.01000000
   14.88583279   78.65689850    0.05000000    0.01000000
   14.88888836   77.58689880    0.05000000    0.01000000
   14.89222240   75.59010315    0.05000000    0.01000000
   14.89555550   77.81220245    0.05000000    0.01000000
   14.89861107   83.11109924    0.05000000    0.01000000
   14.90472221   83.11109924    0.05000000    0.01000000
   14.90888882   78.44770050    0.05000000    0.01000000
   14.91222191   78.37580109    0.05000000    0.01000000
   14.91527748   77.61440277    0.05000000    0.01000000
   14.91805553   78.91310120    0.05000000    0.01000000
   14.91916656   77.96350098    0.05000000    0.01000000
   14.92222214   81.62020111    0.05000000    0.01000000
   14.92555618   77.91280365    0.05000000    0.01000000
   14.92944431   80.15249634    0.00000000    0.00000000
   14.93333340   77.86530304    0.00000000    0.00000000
   14.93722248   80.71610260    0.00000000    0.00000000
   14.94111156   78.42109680    0.00000000    0.00000000
   14.94833374   78.42109680    0.00000000    0.00000000
   14.95305538   76.95459747    0.00000000    0.00000000
   14.95694447   76.98249817    0.00000000    0.00000000
   14.96083355   76.71720123    0.00000000    0.00000000
   14.96472168   79.03769684    0.00000000    0.00000000
   14.96777725   79.39920044    0.05000000    0.01000000
   14.97111034   81.12580109    0.05000000    0.01000000
   14.97444439   78.50650024    0.05000000    0.01000000
   14.97777748   76.77960205    0.05000000    0.01000000
   14.98083305   79.49140167    0.05000000    0.01000000
   14.98416710   79.07019806    0.05000000    0.01000000
   14.98472214   80.49449921    0.05000000    0.01000000
   14.99055576   80.49449921    0.03000000    0.01000000
   14.99472237   78.80130005    4.90999985    2.96000004
   14.99777794   76.40609741    4.90999985    2.94000006
   15.00111103   78.90579987    4.90999985    2.98000002
   15.00444412   77.78420258    4.90999985    2.94000006
   15.00749969   82.29709625    4.90999985    2.94000006
   15.01083374   77.23819733    4.90999985    2.94000006
   15.01388931   77.00689697    4.90999985    2.96000004
   15.01722240   76.89839935    0.69000000    2.98000002
   15.01833344   79.06269836    0.69000000    2.98000002
   15.02083302   74.14830017    0.67000002    2.96000004
   15.02416611   80.70030212    0.69000000    2.98000002
   15.02750015   77.95390320    0.67000002    2.98000002
   15.03333378   77.95390320    0.67000002    2.98000002
   15.03750038   84.12470245    0.67000002    2.98000002
   15.13777733   -1.00000000   -1.00000000   -1.00000000
   15.54111195   -1.00000000   -1.00000000   -1.00000000
   15.64055538   -1.00000000   -1.00000000   -1.00000000
   15.78416729   77.39669800    0.86000001    2.98000002
   15.78750038   78.75900269    0.83999997    2.98000002
   15.79083347   77.80670166    0.81999999    3.00000000
   15.79388905   81.54750061    0.81999999    2.98000002
   15.79722309   77.55760193    0.79000002    2.96000004
   15.80055618   76.05629730    0.79000002    2.98000002
   15.80444431   76.05629730    0.79000002    2.96000004
   15.80861092   75.57309723    0.79000002    2.98000002
   15.81194496   77.57559967    0.80000001    2.96000004
   15.81527805   76.47679901    0.80000001    2.96000004
   15.81750011   82.76409912    0.80000001    2.98000002
   15.81888866   78.19120026    0.80000001    2.98000002
   15.82194424   79.86470032    0.81999999    2.98000002
   15.82527733   78.64749908    0.81999999    2.98000002
   15.82861137   79.07879639    0.86000001    2.98000002
   15.83166695   78.52709961    0.83999997    2.98000002
   15.83500004   77.89379883    0.86000001    2.98000002
   15.83805561   78.28070068    0.86000001    2.98000002
   15.84138870   75.77169800    0.88000000    2.96000004
   15.84749985   75.77169800    0.88000000    2.98000002
   15.85166740   83.26290131    0.89999998    2.98000002
   15.85472298   74.47119904    0.89999998    2.96000004
   15.85805607   75.74600220    0.88000000    2.96000004
   15.86111164   76.49859619    0.88000000    2.98000002
   15.86444473   77.21179962    0.92000002    2.98000002
   15.86777782   78.40070343    0.89999998    2.98000002
   15.87083340   76.67559814    0.92000002    2.98000002
   15.87416649   78.49359894    0.92000002    2.98000002
   15.87750053   77.45269775    0.92000002    2.98000002
   15.88055611   76.93070221    0.89999998    2.98000002
   15.88388920   77.29979706    0.89999998    2.96000004
   15.88444424   81.05889893    0.89999998    2.96000004
   15.89027786   81.05889893    0.88000000    2.96000004
   15.89444447   78.07620239    0.86000001    2.96000004
   15.89750004   76.91790009    0.88000000    2.98000002
   15.90083313   74.26670074    0.86000001    2.96000004
   15.90416622   76.49720001    0.86000001    2.98000002
   15.90722179   76.28299713    0.86000001    2.96000004
   15.91055489   79.01770020    0.86000001    2.98000002
   15.91388893   78.12930298    0.86000001    2.98000002
   15.91694450   79.43579865    0.86000001    2.98000002
   15.91777802   80.38809967    0.86000001    2.98000002
   15.92055607   82.98889923    0.86000001    2.98000002
   15.92388916   77.91089630    0.83999997    2.96000004
   15.92722225   78.73169708    0.83999997    2.96000004
   15.93305588   78.73169708    0.86000001    2.98000002
   15.93722248   81.17160034    0.83999997    2.98000002
   15.94055557   81.65630341    0.83999997    2.98000002
   15.94361115   86.01599884    0.83999997    2.98000002
   15.94694424   82.86730194    0.86000001    2.96000004
   15.94999981   78.22509766    0.83999997    2.98000002
   15.95111084   80.31030273    0.81999999    2.98000002
   15.95361137   77.88899994    0.83999997    2.96000004
   15.95694447   75.80909729    0.81999999    2.96000004
   15.96027756   79.16629791    0.86000001    2.98000002
   15.96333313   79.76180267    0.83999997    2.98000002
   15.96666622   75.07939911    0.81999999    2.96000004
   15.96972179   76.85919952    0.86000001    2.98000002
   15.97583294   76.85919952    0.89999998    2.98000002
   15.97999954   72.90910339    0.86000001    2.98000002
   15.98333359   80.85040283    0.86000001    2.96000004
   15.98444462   74.51709747    0.83999997    2.96000004
   15.98694515   76.03659821    0.80000001    2.98000002
   15.99027824   77.77030182    0.80000001    2.98000002
   15.99361134   80.55709839    0.75000000    2.98000002
   15.99666691   78.72530365    0.76999998    2.98000002
   16.00000000   76.62390137    0.76999998    2.96000004
   16.00305557   80.11299896    0.75000000    2.98000002
   16.00638962   78.04429626    0.75000000    2.98000002
   16.00972176   77.05500031    0.73000002    2.98000002
   16.01277733   74.87760162    0.75000000    2.98000002
   16.01888847   74.87760162    0.81999999    2.98000002
   16.02277756   77.17259979    0.81999999    2.98000002
   16.02611160   76.60130310    0.80000001    2.96000004
   16.02944374   78.46019745    0.80000001    2.98000002
   16.03277779   77.00589752    0.79000002    2.96000004
   16.03583336   78.35489655    0.76999998    2.98000002
   16.03916550   75.73509979    0.75000000    2.98000002
   16.04222107   76.41750336    0.75000000    2.98000002
   16.04555511   78.88349915    0.75000000    2.96000004
   16.04888916   76.82129669    0.70999998    2.98000002
   16.05111122   75.89880371    0.73000002    2.98000002
   16.05222130   79.84609985    0.73000002    2.98000002
   16.05555534   76.17839813    0.73000002    2.98000002
   16.06166649   76.17839813    0.73000002    2.98000002
   16.06583214   76.58750153    0.70999998    2.98000002
   16.06888962   75.85970306    0.70999998    2.98000002
   16.07222366   76.28739929    0.79000002    2.98000002
   16.07555580   75.62169647    0.80000001    2.98000002
   16.07861137   75.46330261    0.80000001    2.98000002
   16.08194542   80.49649811    0.80000001    2.98000002
   16.08444595   73.18579865    0.79000002    2.98000002
   16.08555603   84.87509918    0.79000002    2.98000002
   16.08889008   76.61460114    0.76999998    2.98000002
   16.09222221   80.18599701    0.79000002    2.98000002
   16.09527779   77.89469910    0.81999999    2.98000002
   16.09861183   77.20899963    0.86000001    2.96000004
   16.10444450   77.20899963    0.86000001    2.96000004
   16.10861206   77.27490234    0.86000001    2.98000002
   16.11194420   75.62899780    0.86000001    2.98000002
   16.11499977   78.09149933    0.86000001    2.98000002
   16.11777878   76.52580261    0.86000001    2.98000002
   16.11861038   76.02459717    0.86000001    2.98000002
   16.12194443   75.28520203    0.83999997    2.98000002
   16.12527847   75.33180237    0.80000001    2.98000002
   16.12833405   73.68470001    0.76999998    2.98000002
   16.13166618   77.72489929    0.75000000    2.98000002
   16.13500023   79.16390228    0.76999998    2.98000002
   16.13805580   74.30629730    0.73000002    2.98000002
   16.14166641   73.33000183    0.75000000    2.98000002
   16.14722252   73.33000183    0.81999999    2.98000002
   16.15138817   77.41149902    0.81999999    2.98000002
   16.15472221   79.61660004    0.89999998    2.98000002
   16.15805435   77.07260132    0.89999998    2.98000002
   16.16110992   77.23320007    0.95999998    2.98000002
   16.16444397   76.66799927    0.98000002    2.98000002
   16.16749954   80.94539642    1.00000000    2.98000002
   16.17083359   76.21360016    1.00000000    2.98000002
   16.17416573   77.32469940    1.00000000    2.96000004
   16.17722130   77.03949738    1.00000000    2.96000004
   16.18083191   82.21410370    0.98000002    2.98000002
   16.18388748   79.79730225    0.98000002    2.98000002
   16.18444443   79.81279755    0.98000002    2.98000002
   16.19027710   79.81279755    0.89999998    2.98000002
   16.19416618   78.45359802    0.89999998    2.98000002
   16.19749832   77.26609802    0.89999998    2.98000002
   16.20083427   77.48359680    0.86000001    2.98000002
   16.20388985   77.82369995    0.86000001    2.98000002
   16.20722389   79.30410004    0.81999999    2.98000002
   16.21055603   79.83249664    0.79000002    2.98000002
   16.21361160   76.96849823    0.76999998    2.98000002
   16.21694565   79.27059937    0.76999998    2.98000002
   16.21777916   79.93379974    0.75000000    2.98000002
   16.22055626   79.32430267    0.73000002    2.98000002
   16.22361183   87.29419708    0.73000002    2.98000002
   16.22694588   76.01039886    0.73000002    2.98000002
   16.23305511   76.01039886    0.63000000    2.98000002
   16.23722267   73.70590210    0.61000001    2.98000002
   16.24027824   77.73149872    0.61000001    2.98000002
   16.24361229   75.72840118    0.61000001    2.98000002
   16.24694443   74.67089844    0.63000000    2.98000002
   16.25000000   77.11519623    0.63000000    2.98000002
   16.25111198   77.91049957    0.63000000    2.98000002
   16.25388908   75.21130371    0.63000000    2.98000002
   16.25694466   77.92160034    0.61000001    2.98000002
   16.26027870   79.31069946    0.55000001    2.98000002
   16.26361084   78.71140289    0.52999997    3.00000000
   16.26666641   78.09719849    0.51999998    3.00000000
   16.27000046   75.98729706    0.51999998    2.98000002
   16.27583313   75.98729706    0.56999999    2.98000002
   16.28000069   80.28209686    0.56999999    3.00000000
   16.28333282   78.68689728    0.56999999    2.98000002
   16.28444481   77.83599854    0.56999999    2.98000002
   16.28694344   76.69210052    0.52999997    2.98000002
   16.28999901   80.78420258    0.55000001    2.98000002
   16.29333305   76.76809692    0.56999999    2.98000002
   16.29666710   81.08920288    0.56999999    2.98000002
   16.29972076   74.36489868    0.55000001    3.00000000
   16.30305481   78.99120331    0.56999999    2.98000002
   16.30638885   79.42179871    0.56999999    2.98000002
   16.30944443   78.17669678    0.56999999    2.98000002
   16.31277657   76.18240356    0.55000001    2.98000002
   16.31861115   76.18240356    0.63000000    2.98000002
   16.32277870   82.70379639    0.64999998    2.98000002
   16.32611275   78.28250122    0.64999998    2.96000004
   16.32916832   81.03450012    0.64999998    2.98000002
   16.33250046   78.83000183    0.64999998    2.98000002
   16.33583450   75.87819672    0.69000000    2.98000002
   16.33889008   76.42489624    0.69000000    3.00000000
   16.34222221   76.07389832    0.64999998    3.00000000
   16.34555626   75.14939880    0.67000002    2.98000002
   16.34861183   80.00900269    0.67000002    2.98000002
   16.35111237   77.43879700    0.67000002    2.98000002
   16.35250092   75.88829803    0.67000002    2.98000002
   16.35555649   79.08999634    0.64999998    2.98000002
   16.36166763   79.08999634    0.64999998    2.98000002
   16.36555672   75.23570251    0.64999998    3.00000000
   16.36888885   77.07420349    0.63000000    2.98000002
   16.37222290   78.88939667    0.63000000    2.98000002
   16.37527847   76.06729889    0.61000001    2.98000002
   16.37861061   72.57319641    0.63000000    2.98000002
   16.38194466   78.87609863    0.61000001    2.98000002
   16.38444519   76.53530121    0.61000001    2.98000002
   16.38555527   74.75579834    0.61000001    2.98000002
   16.38861084   76.66190338    0.63000000    2.98000002
   16.39194489   81.08280182    0.63000000    3.00000000
   16.39527702   75.76799774    0.63000000    2.98000002
   16.39833260   78.60600281    0.63000000    2.98000002
   16.40444374   78.60600281    0.63000000    2.98000002
   16.40861130   77.89820099    0.61000001    2.98000002
   16.41166687   78.70349884    0.61000001    2.98000002
   16.41499901   76.99790192    0.58999997    3.00000000
   16.41777802   75.93389893    0.58999997    3.00000000
   16.41860962   75.32779694    0.58999997    2.98000002
   16.42166519   75.73680115    0.61000001    2.98000002
   16.42499924   75.09889984    0.61000001    2.98000002
   16.42833328   73.82469940    0.58999997    2.98000002
   16.43138885   80.27739716    0.61000001    2.98000002
   16.43472099   78.52069855    0.61000001    3.00000000
   16.43777657   75.55310059    0.61000001    3.00000000
   16.44111061   75.55400085    0.63000000    2.98000002
   16.44722176   75.55400085    0.64999998    2.98000002
   16.45138931   75.77310181    0.63000000    2.98000002
   16.45472336   75.64219666    0.63000000    2.98000002
   16.45777893   76.76770020    0.63000000    2.98000002
   16.46111107   86.88899994    0.63000000    2.98000002
   16.46416664   74.91780090    0.63000000    2.98000002
   16.46750069   81.03070068    0.63000000    2.98000002
   16.47083473   75.90760040    0.63000000    2.98000002
   16.47389030   74.94879913    0.63000000    3.00000000
   16.47722244   74.97859955    0.61000001    2.98000002
   16.48055649   77.88269806    0.61000001    2.98000002
   16.48361206   75.43930054    0.61000001    2.98000002
   16.48444557   78.69380188    0.61000001    2.98000002
   16.48999977   78.69380188    0.61000001    2.98000002
   16.49444389   75.77809906    0.61000001    2.98000002
   16.49749947   82.30680084    0.61000001    2.98000002
   16.50083351   78.17669678    0.61000001    2.96000004
   16.50416756   77.13359833    0.63000000    3.00000000
   16.50722313   74.90380096    0.63000000    2.98000002
   16.51055527   77.67669678    0.63000000    2.98000002
   16.51361084   76.66310120    0.58999997    2.98000002
   16.51694489   75.46029663    0.56999999    2.98000002
   16.51777840   78.26080322    0.56999999    2.98000002
   16.52055550   77.04930115    0.56999999    2.98000002
   16.52361107   80.30539703    0.52999997    2.98000002
   16.52694511   78.61129761    0.52999997    2.98000002
   16.53305435   78.61129761    0.52999997    2.96000004
   16.53694344   76.98210144    0.52999997    2.98000002
   16.54027748   73.90290070    0.52999997    3.00000000
   16.54361153   77.54399872    0.55000001    2.98000002
   16.54666710   78.24440002    0.56999999    2.98000002
   16.54999924   79.48320007    0.56999999    2.98000002
   16.55111122   80.85440063    0.58999997    2.98000002
   16.55360985   76.42919922    0.56999999    2.98000002
   16.55666542   76.67549896    0.56999999    2.98000002
   16.55999947   77.62870026    0.56999999    2.98000002
   16.56333351   75.19550323    0.56999999    2.98000002
   16.56638718   78.26589966    0.56999999    2.98000002
   16.56972313   76.41670227    0.58999997    2.98000002
   16.57583427   76.41670227    0.56999999    2.98000002
   16.58000183   74.01039886    0.52999997    2.98000002
   16.58305550   77.76460266    0.52999997    2.98000002
   16.58444595   80.27639771    0.52999997    2.98000002
   16.58694458   77.57289886    0.55000001    3.00000000
   16.59027863   76.43299866    0.55000001    2.98000002
   16.59333420   73.86319733    0.52999997    2.98000002
   16.59666824   77.70880127    0.58999997    2.98000002
   16.59972191   77.85340118    0.58999997    2.98000002
   16.60305595   76.32530212    0.56999999    2.98000002
   16.60639000   75.11150360    0.55000001    2.98000002
   16.60944557   76.54280090    0.55000001    2.98000002
   16.61277771   80.45929718    0.55000001    2.98000002
   16.61861038   80.45929718    0.52999997    2.98000002
   16.62277794   75.91580200    0.55000001    2.98000002
   16.62583351   76.57260132    0.61000001    2.98000002
   16.62916756   78.55380249    0.64999998    2.98000002
   16.63249969   78.42220306    0.64999998    2.98000002
   16.63555527   77.70590210    0.64999998    2.98000002
   16.63888931   79.48179626    0.75000000    2.98000002
   16.64222145   76.48690033    0.75000000    2.98000002
   16.64527702   78.79000092    0.73000002    2.98000002
   16.64861107   76.85829926    0.73000002    2.98000002
   16.65111160   78.84179688    0.64999998    2.98000002
   16.65222168   76.55359650    0.64999998    2.98000002
   16.65527725   76.85870361    0.61000001    2.98000002
   16.66138840   76.85870361    0.63000000    2.98000002
   16.66555595   77.43630219    0.61000001    2.98000002
   16.66888809   79.39569855    0.61000001    2.98000002
   16.67194366   80.33260345    0.61000001    2.98000002
   16.67527771   76.83470154    0.58999997    2.98000002
   16.67860985   75.19370270    0.56999999    2.98000002
   16.68166542   83.89119720    0.55000001    2.98000002
   16.68444443   75.26709747    0.52999997    2.98000002
   16.68527603   76.43080139    0.52999997    2.98000002
   16.68833160   74.82710266    0.52999997    2.98000002
   16.69166565   76.64209747    0.51999998    2.98000002
   16.69499969   82.48989868    0.50000000    3.00000000
   16.69805527   83.80660248    0.47999999    2.98000002
   16.70444489   83.80660248    0.47999999    2.98000002
   16.70861244   78.55100250    0.47999999    2.98000002
   16.71166801   78.31020355    0.50000000    2.98000002
   16.71500015   82.55770111    0.50000000    2.98000002
   16.71777916   77.26519775    0.51999998    3.00000000
   16.71861076   78.56390381    0.52999997    3.00000000
   16.72194481   77.58029938    0.55000001    2.98000002
   16.72500038   76.63770294    0.55000001    2.98000002
   16.72833443   77.12809753    0.55000001    2.98000002
   16.73139000   78.01059723    0.55000001    2.98000002
   16.73472214   77.60340118    0.55000001    2.98000002
   16.73805618   79.16300201    0.55000001    2.98000002
   16.74111176   75.08619690    1.34000003    2.96000004
   16.74722290   75.08619690    0.03000000    0.11000000
   16.75138855   78.98899841    0.03000000    0.11000000
   16.75444412   87.51619720    0.03000000    0.11000000
   16.75777817   77.39689636    0.03000000    0.11000000
   16.76111031   75.39790344    0.03000000    0.11000000
   16.76444435   75.37000275    0.03000000    0.11000000
   16.76749992   76.09639740    0.03000000    0.11000000
   16.77083397   76.99089813    0.03000000    0.11000000
   16.77388954   76.22460175    0.03000000    0.11000000
   16.77722168   74.66840363    0.03000000    0.11000000
   16.78055573   77.80650330    0.03000000    0.11000000
   16.78361130   74.54550171    0.03000000    0.11000000
   16.78444481   74.67199707    0.03000000    0.11000000
   16.80527687   74.67199707    0.03000000    0.11000000
   16.80916595   77.57009888    0.03000000    0.11000000
   16.81250000   77.75070190    0.03000000    0.11000000
   16.81583214   76.56099701    0.03000000    0.11000000
   16.81777954   75.95230103    0.03000000    0.11000000
   16.81944466   80.50199890    0.03000000    0.11000000
   16.82277870   80.14150238    0.03000000    0.11000000
   16.82583427   78.20349884    0.03000000    0.11000000
   16.82916832   83.94770050    0.03000000    0.11000000
   16.83250046   77.03029633    0.03000000    0.11000000
   16.83555603   79.66049957    0.03000000    0.11000000
   16.83889008   76.88970184    0.03000000    0.11000000
   16.84222221   79.75150299    0.03000000    0.11000000
   16.84805679   79.75150299    0.03000000    0.11000000
   16.85194397   78.33100128    0.03000000    0.11000000
   16.85527802   78.27089691    0.03000000    0.11000000
   16.85861206   80.48979950    0.03000000    0.11000000
   16.86166763   76.96759796    0.03000000    0.11000000
   16.86499977   78.69069672    0.03000000    0.11000000
   16.86805534   74.88809967    0.03000000    0.11000000
   16.87138939   82.18569946    0.03000000    0.11000000
   16.87472153   76.66470337    0.03000000    0.11000000
   16.87777710   76.19419861    0.03000000    0.11000000
   16.88111115   79.60759735    0.03000000    0.11000000
   16.88444519   81.21630096    0.03000000    0.11000000
   16.88500023   76.87799835    0.03000000    0.11000000
   16.89083290   76.87799835    0.03000000    0.11000000
   16.89500046   79.71119690    0.03000000    0.11000000
   16.89805603   78.42060089    0.03000000    0.11000000
   16.90138817   77.77690125    0.03000000    0.11000000
   16.90444374   76.38610077    0.03000000    0.11000000
   16.90777779   78.21369934    0.03000000    0.11000000
   16.91110992   78.63359833    0.03000000    0.11000000
   16.91416550   76.63169861    0.03000000    0.11000000
   16.91749954   78.17120361    0.03000000    0.11000000
   16.91833305   79.98079681    0.03000000    0.11000000
   16.92111015   79.36360168    0.03000000    0.11000000
   16.92444420   77.58159637    0.03000000    0.11000000
   16.92749977   75.56919861    0.03000000    0.11000000
   16.93361092   75.56919861    0.03000000    0.11000000
   16.93777657   78.31700134    0.03000000    0.11000000
   16.94083214   81.60540009    0.03000000    0.11000000
   16.94416618   77.75370026    0.03000000    0.11000000
   16.94749832   78.31849670    0.03000000    0.11000000
   16.95055580   76.84149933    0.03000000    0.11000000
   16.95166779   78.43389893    0.03000000    0.11000000
   16.95416832   78.27890015    0.03000000    0.11000000
   16.95750046   76.54900360    0.03000000    0.11000000
   16.96055603   74.15270233    0.03000000    0.11000000
   16.96389008   79.77940369    0.03000000    0.11000000
   16.96722221   81.31289673    0.03000000    0.11000000
   16.97027779   77.59870148    0.03000000    0.11000000
   16.97638893   77.59870148    0.03000000    0.11000000
   16.98055649   74.46469879    0.03000000    0.11000000
   16.98388863   76.46330261    0.03000000    0.11000000
   16.98500061   79.25640106    0.03000000    0.11000000
   16.98750114   74.94730377    0.03000000    0.11000000
   16.99083328   75.05329895    0.03000000    0.11000000
   16.99388885   75.92459869    0.03000000    0.11000000
   16.99722290   73.04019928    0.03000000    0.11000000
   17.00055504   73.96820068    0.03000000    0.11000000
   17.00361061   79.14849854    0.03000000    0.11000000
   17.00694466   77.50499725    0.03000000    0.11000000
   17.01027870   75.46009827    0.03000000    0.11000000
   17.01333427   76.34500122    0.03000000    0.11000000
   17.01916695   76.34500122    0.03000000    0.11000000
   17.02333260   81.00039673    0.03000000    0.11000000
   17.02666664   83.30970001    0.03000000    0.11000000
   17.03000069   76.01969910    0.03000000    0.11000000
   17.03305435   76.74440002    0.03000000    0.11000000
   17.03638840   79.19930267    0.03000000    0.11000000
   17.03944397   78.25109863    0.03000000    0.11000000
   17.04277802   73.95059967    0.03000000    0.11000000
   17.04611015   77.71610260    0.03000000    0.11000000
   17.04916573   75.18679810    0.03000000    0.11000000
   17.05166626   76.94789886    0.03000000    0.11000000
   17.05277634   78.58209991    0.03000000    0.11000000
   17.05611038   75.91300201    0.03000000    0.11000000
   17.06222153   75.91300201    0.03000000    0.11000000
   17.06638718   79.16870117    0.03000000    0.11000000
   17.06944466   73.89060211    0.03000000    0.11000000
   17.07277870   80.34369659    0.03000000    0.11000000
   17.07583427   78.83920288    0.03000000    0.11000000
   17.07916832   78.03209686    0.03000000    0.11000000
   17.08250046   80.37380219    0.03000000    0.11000000
   17.08500099   79.73059845    0.03000000    0.11000000
   17.08611107   84.15830231    0.03000000    0.11000000
   17.08944511   78.19760132    0.03000000    0.11000000
   17.09250069   78.36830139    0.03000000    0.11000000
   17.09583473   80.10040283    0.03000000    0.11000000
   17.09916687   77.81469727    0.03000000    0.11000000
   17.10499954   77.81469727    0.03000000    0.11000000
   17.10916710   74.36070251    0.03000000    0.11000000
   17.11222267   73.50279999    0.03000000    0.11000000
   17.11555672   74.72769928    0.03000000    0.11000000
   17.11833382   80.40599823    0.03000000    0.11000000
   17.11916733   76.50370026    0.03000000    0.11000000
   17.12249947   79.07759857    0.03000000    0.11000000
   17.12555504   77.51750183    0.03000000    0.11000000
   17.12888908   80.14969635    0.03000000    0.11000000
   17.13222313   78.88909912    0.03000000    0.11000000
   17.13527679   80.86969757    0.03000000    0.11000000
   17.13861084   80.10050201    0.03000000    0.11000000
   17.14194489   77.34089661    0.03000000    0.11000000
   17.14777756   77.34089661    0.03000000    0.11000000
   17.15194321   77.24500275    0.03000000    0.11000000
   17.15527725   81.17949677    0.03000000    0.11000000
   17.15833282   76.95059967    0.03000000    0.11000000
   17.16166687   76.96369934    0.03000000    0.11000000
   17.16499901   80.74490356    0.03000000    0.11000000
   17.16805458   75.09899902    0.03000000    0.11000000
   17.17138863   75.64649963    0.03000000    0.11000000
   17.17444420   80.89510345    0.03000000    0.11000000
   17.17777634   75.98400116    0.03000000    0.11000000
   17.18111038   77.97750092    0.03000000    0.11000000
   17.18416595   74.81159973    0.03000000    0.11000000
   17.18499947   77.16750336    0.03000000    0.11000000
   17.19055557   77.16750336    0.03000000    0.11000000
   17.19472122   81.06359863    0.03000000    0.11000000
   17.19805527   76.00319672    0.03000000    0.11000000
   17.20138931   78.27980042    0.03000000    0.11000000
   17.20444489   76.11630249    0.03000000    0.11000000
   17.20777893   77.39569855    0.03000000    0.11000000
   17.21083450   77.85179901    0.03000000    0.11000000
   17.21416664   76.27020264    0.03000000    0.11000000
   17.21750069   76.46769714    0.03000000    0.11000000
   17.21833420   77.15720367    0.03000000    0.11000000
   17.22083473   76.88999939    0.03000000    0.11000000
   17.22416687   77.62310028    0.03000000    0.11000000
   17.22750092   78.63749695    0.03000000    0.11000000
   17.23361206   78.63749695    0.03000000    0.11000000
   17.23777771   76.02610016    0.03000000    0.11000000
   17.24083328   77.12359619    0.03000000    0.11000000
   17.24416733   82.19380188    0.03000000    0.11000000
   17.24722290   78.38809967    0.03000000    0.11000000
   17.25055504   74.95030212    0.03000000    0.11000000
   17.25166702   76.41739655    0.03000000    0.11000000
   17.25416756   78.05789948    0.03000000    0.11000000
   17.25749969   81.20709991    0.03000000    0.11000000
   17.26083374   75.81030273    0.03000000    0.11000000
   17.26388931   72.79070282    0.03000000    0.11000000
   17.26722145   75.14910126    0.03000000    0.11000000
   17.27027702   75.30539703    0.03000000    0.11000000
   17.27638817   75.30539703    0.03000000    0.11000000
   17.28055573   79.10559845    0.03000000    0.11000000
   17.28361130   76.58100128    0.03000000    0.11000000
   17.28499985   77.75569916    0.03000000    0.11000000
   17.28722191   77.56960297    0.03000000    0.11000000
   17.29055595   77.89689636    0.03000000    0.11000000
   17.29388809   75.49050140    0.03000000    0.11000000
   17.29694366   73.92630005    0.03000000    0.11000000
   17.30027771   74.01580048    0.03000000    0.11000000
   17.30333328   76.43769836    0.03000000    0.11000000
   17.30666542   74.37779999    0.03000000    0.11000000
   17.30999947   78.08090210    0.03000000    0.11000000
   17.31305504   76.34500122    0.03000000    0.11000000
   17.31916809   76.34500122    0.03000000    0.11000000
   17.32333374   78.31300354    0.03000000    0.11000000
   17.32666779   80.31829834    0.03000000    0.11000000
   17.32972336   78.61509705    0.03000000    0.11000000
   17.33305550   76.07720184    0.03000000    0.11000000
   17.33638954   78.41110229    0.03000000    0.11000000
   17.33944511   75.07669830    0.03000000    0.11000000
   17.34277916   77.45999908    0.03000000    0.11000000
   17.34583473   78.41539764    0.03000000    0.11000000
   17.34916687   78.70310211    0.03000000    0.11000000
   17.35166740   78.85510254    0.03000000    0.11000000
   17.35277748   75.33119965    0.03000000    0.11000000
   17.35611153   81.48999786    0.03000000    0.11000000
   17.36222267   81.48999786    0.03000000    0.11000000
   17.36611176   78.55010223    0.03000000    0.11000000
   17.36944389   83.52940369    0.03000000    0.11000000
   17.37277794   84.53730011    0.03000000    0.11000000
   17.37583351   81.33329773    0.03000000    0.11000000
   17.37916756   83.77149963    0.03000000    0.11000000
   17.38222313   78.11109924    0.03000000    0.11000000
   17.38500023   76.97619629    0.03000000    0.11000000
   17.38583374   76.94619751    0.03000000    0.11000000
   17.38916588   77.09169769    0.03000000    0.11000000
   17.39249992   76.41829681    0.03000000    0.11000000
   17.39555550   80.53780365    0.03000000    0.11000000
   17.39888954   75.91960144    0.03000000    0.11000000
   17.40499878   75.91960144    0.03000000    0.11000000
   17.40916634   74.36540222    0.03000000    0.11000000
   17.41222191   77.44450378    0.03000000    0.11000000
   17.41555595   81.39830017    0.03000000    0.11000000
   17.41833305   75.48999786    0.03000000    0.11000000
   17.41916656   74.22190094    0.03000000    0.11000000
   17.42249870   75.73349762    0.03000000    0.11000000
   17.42583275   76.85050201    0.03000000    0.11000000
   17.42888832   81.03669739    0.03000000    0.11000000
   17.43222237   72.99639893    0.03000000    0.11000000
   17.43527603   77.85900116    0.03000000    0.11000000
   17.43861008   76.91580200    0.03000000    0.11000000
   17.44194412   81.28089905    0.03000000    0.11000000
   17.44777679   81.28089905    0.03000000    0.11000000
   17.45194435   77.58509827    0.03000000    0.11000000
   17.45499992   80.90440369    0.03000000    0.11000000
   17.45833397   80.14170074    0.03000000    0.11000000
   17.46166801   80.33889771    0.03000000    0.11000000
   17.46472359   77.30680084    0.03000000    0.11000000
   17.46805573   76.87270355    0.03000000    0.11000000
   17.47138977   78.29889679    0.03000000    0.11000000
   17.47444534   74.03639984    0.03000000    0.11000000
   17.47777748   74.66329956    0.03000000    0.11000000
   17.48083305   82.50499725    0.03000000    0.11000000
   17.48416710   75.46269989    0.03000000    0.11000000
   17.48500061   78.57399750    0.03000000    0.11000000
   17.49055672   78.57399750    0.03000000    0.11000000
   17.49472237   79.28849792    0.03000000    0.11000000
   17.49805641   77.32360077    0.03000000    0.11000000
   17.50111198   76.94049835    0.03000000    0.11000000
   17.50444412   75.54019928    0.03000000    0.11000000
   17.50777817   78.30490112    0.03000000    0.11000000
   17.51083374   75.66979980    0.03000000    0.11000000
   17.51416588   74.97380066    0.03000000    0.11000000
   17.51749992   76.31459808    0.03000000    0.11000000
   17.51833344   76.55039978    0.03000000    0.11000000
   17.52083397   75.18460083    0.03000000    0.11000000
   17.52416611   75.55719757    0.03000000    0.11000000
   17.52750015   78.59809875    0.03000000    0.11000000
   17.53333282   78.59809875    0.03000000    0.11000000
   17.53750038   75.59310150    0.03000000    0.11000000
   17.54083252   78.68260193    0.03000000    0.11000000
   17.54416656   79.21199799    0.03000000    0.11000000
   17.54722214   76.64920044    0.03000000    0.11000000
   17.55055428   78.79489899    0.03000000    0.11000000
   17.55166626   75.48539734    0.03000000    0.11000000
   17.55388832   80.57180023    0.03000000    0.11000000
   17.55722237   76.52799988    0.03000000    0.11000000
   17.56055450   75.50980377    0.03000000    0.11000000
   17.56361008   75.90129852    0.03000000    0.11000000
   17.56694603   78.47200012    0.03000000    0.11000000
   17.57027817   75.87429810    0.03000000    0.11000000
   17.57638931   75.87429810    0.03000000    0.11000000
   17.58055687   79.06600189    0.03000000    0.11000000
   17.58361244   83.02269745    0.03000000    0.11000000
   17.58500099   79.42070007    0.03000000    0.11000000
   17.58722305   78.52249908    0.03000000    0.11000000
   17.59055710   76.72530365    0.03000000    0.11000000
   17.59388924   76.98870087    0.03000000    0.11000000
   17.59694481   74.32659912    0.03000000    0.11000000
   17.60027885   80.73380280    0.03000000    0.11000000
   17.60361099   79.48339844    0.03000000    0.11000000
   17.60666656   78.83950043    0.03000000    0.11000000
   17.61000061   84.25039673    0.03000000    0.11000000
   17.61305618   77.63849640    0.03000000    0.11000000
   17.61916733   77.63849640    0.03000000    0.11000000
   17.62333298   81.50209808    0.03000000    0.11000000
   17.62666702   78.18689728    0.03000000    0.11000000
   17.62972260   80.89620209    0.03000000    0.11000000
   17.63305473   83.58779907    0.03000000    0.11000000
   17.63611031   82.49210358    0.03000000    0.11000000
   17.63944435   78.47380066    0.03000000    0.11000000
   17.64277840   78.75009918    0.03000000    0.11000000
   17.64583397   81.41529846    0.03000000    0.11000000
   17.64916611   77.47679901    0.03000000    0.11000000
   17.65166664   77.50920105    0.03000000    0.11000000
   17.65277672   78.14299774    0.03000000    0.11000000
   17.65611076   78.98320007    0.03000000    0.11000000
   17.66194344   78.98320007    0.03000000    0.11000000
   17.66611099   77.25099945    0.03000000    0.11000000
   17.66944313   78.08789825    0.03000000    0.11000000
   17.67249870   78.33879852    0.03000000    0.11000000
   17.67583275   80.59100342    0.03000000    0.11000000
   17.67916679   80.21730042    0.03000000    0.11000000
   17.68222237   85.86609650    0.03000000    0.11000000
   17.68499947   76.49259949    0.03000000    0.11000000
   17.68583298   76.33719635    0.03000000    0.11000000
   17.68916512   80.13739777    0.03000000    0.11000000
   17.69249916   74.96070099    0.03000000    0.11000000
   17.69555473   76.92680359    0.03000000    0.11000000
   17.69888878   75.74150085    0.03000000    0.11000000
   17.70499992   75.74150085    0.03000000    0.11000000
   17.70888901   75.13020325    0.03000000    0.11000000
   17.71222305   78.36209869    0.03000000    0.11000000
   17.71555710   75.64769745    0.03000000    0.11000000
   17.71833420   75.82009888    0.03000000    0.11000000
   17.71888924   74.84049988    0.03000000    0.11000000
   17.72222328   77.55750275    0.03000000    0.11000000
   17.72555542   74.28959656    0.03000000    0.11000000
   17.72861099   79.09100342    0.03000000    0.11000000
   17.73194504   74.75869751    0.03000000    0.11000000
   17.73527718   76.66570282    0.03000000    0.11000000
   17.73833275   83.19809723    0.03000000    0.11000000
   17.74166679   76.54640198    0.03000000    0.11000000
   17.74777794   76.54640198    0.03000000    0.11000000
   17.75194359   83.34349823    0.03000000    0.11000000
   17.75499916   80.22080231    0.03000000    0.11000000
   17.75833321   81.19080353    0.03000000    0.11000000
   17.76138878   83.90460205    0.03000000    0.11000000
   17.76472282   76.75579834    0.03000000    0.11000000
   17.76805496   80.13800049    0.03000000    0.11000000
   17.77111053   74.07080078    0.03000000    0.11000000
   17.77444458   77.28620148    0.03000000    0.11000000
   17.77777672   77.21990204    0.03000000    0.11000000
   17.78083229   79.48629761    0.03000000    0.11000000
   17.78416634   78.39109802    0.03000000    0.11000000
   17.78499985   81.64240265    0.03000000    0.11000000
   17.79055595   81.64240265    0.03000000    0.11000000
   17.79472160   78.44280243    0.03000000    0.11000000
   17.79777718   76.57550049    0.03000000    0.11000000
   17.80111122   78.94560242    0.03000000    0.11000000
   17.81861115   74.76439667    0.03000000    0.11000000
   17.82111168   75.83750153    0.03000000    0.11000000
   17.82444572   76.63040161    0.03000000    0.11000000
   17.82750130   80.04509735    0.03000000    0.11000000
   17.83361244   80.04509735    0.03000000    0.11000000
   17.83777809   77.74500275    0.03000000    0.11000000
   17.84083366   79.08940125    0.03000000    0.11000000
   17.84416771   80.67320251    0.03000000    0.11000000
   17.84749985   83.68720245    0.03000000    0.11000000
   17.85055542   80.22239685    0.03000000    0.11000000
   17.85194397   78.82589722    0.03000000    0.11000000
   17.85444450   78.12090302    0.03000000    0.11000000
   17.85750008   77.96140289    0.03000000    0.11000000
   17.86083412   78.21939850    0.03000000    0.11000000
   17.86416626   77.87010193    0.03000000    0.11000000
   17.86722183   75.21089935    0.03000000    0.11000000
   17.87055588   76.05280304    0.03000000    0.11000000
   17.87638855   76.05280304    0.03000000    0.11000000
   17.88055611   78.90380096    0.03000000    0.11000000
   17.88388824   75.26419830    0.03000000    0.11000000
   17.88527679   81.66729736    0.03000000    0.11000000
   17.88750076   82.81199646    0.03000000    0.11000000
   17.89055634   80.01059723    0.03000000    0.11000000
   17.89388847   75.58760071    0.03000000    0.11000000
   17.89694405   75.48870087    0.03000000    0.11000000
   17.90027809   78.38030243    0.03000000    0.11000000
   17.90361023   73.97139740    0.03000000    0.11000000
   17.90666580   79.55310059    0.03000000    0.11000000
   17.90999985   78.49099731    0.03000000    0.11000000
   17.91333389   81.91590118    0.03000000    0.11000000
   17.91916656   81.91590118    0.03000000    0.11000000
   17.92333221   79.71659851    0.03000000    0.11000000
   17.92666626   77.81739807    0.03000000    0.11000000
   17.92972183   79.58550262    0.03000000    0.11000000
   17.93305397   76.60929871    0.03000000    0.11000000
   17.93638802   78.52480316    0.03000000    0.11000000
   17.93944359   75.96669769    0.03000000    0.11000000
   17.94277763   76.85780334    0.03000000    0.11000000
   17.94610977   77.96579742    0.03000000    0.11000000
   17.94916534   80.55690002    0.03000000    0.11000000
   17.95194435   76.69190216    0.03000000    0.11000000
   17.95305634   78.42569733    0.03000000    0.11000000
   17.95611191   81.23000336    0.03000000    0.11000000
   17.96222305   81.23000336    0.03000000    0.11000000
   17.96611214   79.42710114    0.03000000    0.11000000
   17.96944427   76.62390137    0.03000000    0.11000000
   17.97277832   75.34770203    0.03000000    0.11000000
   17.97583389   77.79290009    0.03000000    0.11000000
   17.97916794   79.00879669    0.03000000    0.11000000
   17.98250008   80.27510071    0.03000000    0.11000000
   17.98527718   77.13849640    0.03000000    0.11000000
   17.98611069   77.65049744    0.03000000    0.11000000
   17.98916626   79.54660034    0.03000000    0.11000000
   17.99250031   78.60289764    0.03000000    0.11000000
   17.99583435   82.80390167    0.03000000    0.11000000
   17.99888992   78.20050049    0.03000000    0.11000000
   18.00499916   78.20050049    0.03000000    0.11000000
   18.00916672   78.59140015    0.03000000    0.11000000
   18.01222229   80.77320099    0.03000000    0.11000000
   18.01555634   75.96320343    0.03000000    0.11000000
   18.01861000   77.48410034    0.03000000    0.11000000
   18.01916695   80.61109924    0.03000000    0.11000000
   18.02222252   78.49060059    0.03000000    0.11000000
   18.02555466   76.52059937    0.03000000    0.11000000
   18.02888870   83.23889923    0.03000000    0.11000000
   18.03194427   83.16889954    0.03000000    0.11000000
   18.03527641   78.39939880    0.03000000    0.11000000
   18.03861046   75.85800171    0.03000000    0.11000000
   18.04166603   78.24749756    0.03000000    0.11000000
   18.04777718   78.24749756    0.03000000    0.11000000
   18.05194283   80.29029846    0.03000000    0.11000000
   18.05249977   78.28330231    0.03000000    0.11000000
   18.05555534   79.07350159    0.03000000    0.11000000
   18.05888748   76.28720093    0.03000000    0.11000000
   18.06222153   78.73380280    0.03000000    0.11000000
   18.06527710   75.21250153    0.03000000    0.11000000
   18.06861115   77.46279907    0.03000000    0.11000000
   18.07166672   74.13719940    0.03000000    0.11000000
   18.07500076   75.69899750    0.03000000    0.11000000
   18.07833481   76.21489716    0.03000000    0.11000000
   18.08139038   79.26399994    0.03000000    0.11000000
   18.08472252   74.42489624    0.03000000    0.11000000
   18.08527756   76.00140381    0.03000000    0.11000000
   18.09055710   76.00140381    0.03000000    0.11000000
   18.09472275   78.32550049    0.03000000    0.11000000
   18.09805679   81.71420288    0.03000000    0.11000000
   18.10111237   81.16529846    0.03000000    0.11000000
   18.10444450   79.22180176    0.03000000    0.11000000
   18.10777855   78.23010254    0.03000000    0.11000000
   18.11083412   77.29239655    0.03000000    0.11000000
   18.11416626   78.35980225    0.03000000    0.11000000
   18.11750031   74.50009918    0.03000000    0.11000000
   18.11861038   77.09999847    0.03000000    0.11000000
   18.12111092   78.44259644    0.03000000    0.11000000
   18.12416649   79.02010345    0.03000000    0.11000000
   18.12750053   77.75939941    0.03000000    0.11000000
   18.13361168   77.75939941    0.03000000    0.11000000
   18.13750076   76.98079681    0.03000000    0.11000000
   18.14083290   75.23770142    0.03000000    0.11000000
   18.14416695   78.25420380    0.03000000    0.11000000
   18.14722252   78.40119934    0.03000000    0.11000000
   18.15055466   78.98090363    0.03000000    0.11000000
   18.15194321   81.37339783    0.03000000    0.11000000
   18.15416718   79.55590057    0.03000000    0.11000000
   18.15722275   78.05000305    0.03000000    0.11000000
   18.16055489   79.74749756    0.03000000    0.11000000
   18.16388893   78.94300079    0.03000000    0.11000000
   18.16694450   75.54570007    0.03000000    0.11000000
   18.17027664   80.65039825    0.03000000    0.11000000
   18.17638779   80.65039825    0.03000000    0.11000000
   18.18055534   78.49449921    0.03000000    0.11000000
   18.18361092   75.09999847    0.03000000    0.11000000
   18.18527603   74.65090179    0.03000000    0.11000000
   18.18750000   76.29609680    0.03000000    0.11000000
   18.19083214   80.77870178    0.03000000    0.11000000
   18.19388771   76.60379791    0.03000000    0.11000000
   18.19722176   78.48699951    0.03000000    0.11000000
   18.20027924   80.18009949    0.03000000    0.11000000
   18.20361137   78.19529724    0.03000000    0.11000000
   18.20694542   81.73629761    0.03000000    0.11000000
   18.21000099   78.06210327    0.03000000    0.11000000
   18.21333504   79.61959839    0.03000000    0.11000000
   18.21916771   79.61959839    0.03000000    0.11000000
   18.22333336   79.15080261    0.03000000    0.11000000
   18.22666740   84.74800110    0.03000000    0.11000000
   18.22972298   77.91660309    0.03000000    0.11000000
   18.23305511   79.77519989    0.03000000    0.11000000
   18.23611069   78.84750366    0.03000000    0.11000000
   18.23944473   78.36209869    0.03000000    0.11000000
   18.24277878   83.79620361    0.03000000    0.11000000
   18.24583435   80.68430328    0.03000000    0.11000000
   18.24916649   80.04540253    0.03000000    0.11000000
   18.25194359   79.96690369    0.03000000    0.11000000
   18.25277710   82.25389862    0.03000000    0.11000000
   18.25583267   78.70890045    0.03000000    0.11000000
   18.26194382   78.70890045    0.03000000    0.11000000
   18.26611137   78.56220245    0.03000000    0.11000000
   18.26944351   75.78910065    0.03000000    0.11000000
   18.27249908   76.58480072    0.03000000    0.11000000
   18.27583313   80.44609833    0.03000000    0.11000000
   18.27916718   79.37989807    0.03000000    0.11000000
   18.28222275   79.51490021    0.03000000    0.11000000
   18.28527641   76.43530273    0.03000000    0.11000000
   18.28610992   77.19650269    0.03000000    0.11000000
   18.28916550   76.80460358    0.03000000    0.11000000
   18.29249954   85.12500000    0.03000000    0.11000000
   18.29583359   77.84239960    0.03000000    0.11000000
   18.29888916   79.12010193    0.03000000    0.11000000
   18.30499840   79.12010193    0.03000000    0.11000000
   18.30888748   74.09429932    0.03000000    0.11000000
   18.31222153   73.80000305    0.03000000    0.11000000
   18.31555557   77.60829926    0.03000000    0.11000000
   18.31861115   76.98090363    0.03000000    0.11000000
   18.31916809   74.23850250    0.03000000    0.11000000
   18.32222366   73.53510284    0.03000000    0.11000000
   18.32555580   74.53859711    0.03000000    0.11000000
   18.32888985   74.82790375    0.03000000    0.11000000
   18.33194542   75.87210083    0.03000000    0.11000000
   18.33527756   75.57089996    0.03000000    0.11000000
   18.33861160   78.68389893    0.03000000    0.11000000
   18.34166718   75.59690094    0.03000000    0.11000000
   18.34777832   75.59690094    0.03000000    0.11000000
   18.35194397   77.61740112    0.03000000    0.11000000
   18.35222244   83.79859924    0.03000000    0.11000000
   18.35555649   78.83110046    0.03000000    0.11000000
   18.35888863   78.64489746    0.03000000    0.11000000
   18.36194420   78.87169647    0.03000000    0.11000000
   18.36527824   76.96150208    0.03000000    0.11000000
   18.36861038   79.55909729    0.03000000    0.11000000
   18.37166595   78.76969910    0.03000000    0.11000000
   18.37500000   76.06960297    0.03000000    0.11000000
   18.37833405   74.71389771    0.03000000    0.11000000
   18.38138962   74.47879791    0.03000000    0.11000000
   18.38472176   74.71790314    0.03000000    0.11000000
   18.38555527   76.10469818    0.03000000    0.11000000
   18.39055634   76.10469818    0.03000000    0.11000000
   18.39472198   79.45410156    0.03000000    0.11000000
   18.39805603   78.84190369    0.03000000    0.11000000
   18.40111160   79.01170349    0.03000000    0.11000000
   18.40444374   77.77040100    0.03000000    0.11000000
   18.40749931   79.00119781    0.03000000    0.11000000
   18.41083336   78.18489838    0.03000000    0.11000000
   18.41416550   81.62680054    0.03000000    0.11000000
   18.41722107   78.34040070    0.03000000    0.11000000
   18.41888809   75.27050018    0.03000000    0.11000000
   18.42083359   76.46679688    0.03000000    0.11000000
   18.42416573   78.75009918    0.03000000    0.11000000
   18.42722130   78.21579742    0.03000000    0.11000000
   18.43333244   78.21579742    0.03000000    0.11000000
   18.43750000   81.01309967    0.03000000    0.11000000
   18.44083214   75.45420074    0.03000000    0.11000000
   18.44388771   76.84909821    0.03000000    0.11000000
   18.44722176   75.87190247    0.03000000    0.11000000
   18.45055580   75.29799652    0.03000000    0.11000000
   18.45222282   77.29000092    0.03000000    0.11000000
   18.45416832   77.81790161    0.03000000    0.11000000
   18.45750046   76.86730194    0.03000000    0.11000000
   18.46055603   81.63600159    0.03000000    0.11000000
   18.46389008   77.87500000    0.03000000    0.11000000
   18.46722221   76.15660095    0.03000000    0.11000000
   18.47027779   77.70189667    0.03000000    0.11000000
   18.47611237   77.70189667    0.03000000    0.11000000
   18.48027802   76.79740143    0.03000000    0.11000000
   18.48361206   78.30609894    0.03000000    0.11000000
   18.48555565   75.50039673    0.03000000    0.11000000
   18.48722267   77.48159790    0.03000000    0.11000000
   18.49055672   75.56780243    0.03000000    0.11000000
   18.49361229   77.63249969    0.03000000    0.11000000
   18.49694443   78.51000214    0.03000000    0.11000000
   18.50027847   80.52010345    0.03000000    0.11000000
   18.50333405   76.78459930    0.03000000    0.11000000
   18.50666618   77.60810089    0.03000000    0.11000000
   18.51000023   84.00759888    0.03000000    0.11000000
   18.51305580   77.35449982    0.03000000    0.11000000
   18.51916695   77.35449982    0.03000000    0.11000000
   18.52333260   75.27020264    0.03000000    0.11000000
   18.52638817   75.53160095    0.03000000    0.11000000
   18.52972221   75.14070129    0.03000000    0.11000000
   18.53277779   77.20950317    0.03000000    0.11000000
   18.53610992   77.74259949    0.03000000    0.11000000
   18.53944397   81.19439697    0.03000000    0.11000000
   18.54249954   78.36730194    0.03000000    0.11000000
   18.54583359   77.10990143    0.03000000    0.11000000
   18.54916573   77.57790375    0.03000000    0.11000000
   18.55222130   77.32510376    0.03000000    0.11000000
   18.55277634   78.66310120    0.03000000    0.11000000
   18.55611038   76.03279877    0.03000000    0.11000000
   18.56194305   76.03279877    0.03000000    0.11000000
   18.56611061   82.38629913    0.03000000    0.11000000
   18.56916809   81.42369843    0.03000000    0.11000000
   18.57250023   83.88169861    0.03000000    0.11000000
   18.57583427   80.82740021    0.03000000    0.11000000
   18.57888985   75.78410339    0.03000000    0.11000000
   18.58222389   75.66570282    0.03000000    0.11000000
   18.58555603   76.77439880    0.03000000    0.11000000
   18.58611107   76.31330109    0.03000000    0.11000000
   18.58916664   77.62020111    0.03000000    0.11000000
   18.59222221   78.84230042    0.03000000    0.11000000
   18.59555626   79.58730316    0.03000000    0.11000000
   18.59889030   79.83200073    0.03000000    0.11000000
   18.60472298   79.83200073    0.03000000    0.11000000
   18.60888863   76.06099701    0.03000000    0.11000000
   18.61222267   77.88459778    0.03000000    0.11000000
   18.61527824   79.45739746    0.03000000    0.11000000
   18.61861038   81.08419800    0.03000000    0.11000000
   18.61944389   81.56839752    0.03000000    0.11000000
   18.62222290   80.89499664    0.03000000    0.11000000
   18.62527847   85.32299805    0.03000000    0.11000000
   18.62861061   79.17729950    0.03000000    0.11000000
   18.63194466   81.59230042    0.03000000    0.11000000
   18.63500023   81.36969757    0.03000000    0.11000000
   18.63833237   77.12819672    0.03000000    0.11000000
   18.64166641   81.62129974    0.03000000    0.11000000
   18.64749908   81.62129974    0.03000000    0.11000000
   18.65166664   80.84140015    0.03000000    0.11000000
   18.65277672   75.57499695    0.03000000    0.11000000
   18.65555573   83.77110291    0.03000000    0.11000000
   18.65861130   78.02259827    0.03000000    0.11000000
   18.66194344   73.84929657    0.03000000    0.11000000
   18.66527748   75.24210358    0.03000000    0.11000000
   18.66833305   77.89730072    0.03000000    0.11000000
   18.67166519   75.52120209    0.03000000    0.11000000
   18.67499924   79.03679657    0.03000000    0.11000000
   18.67805481   75.33529663    0.03000000    0.11000000
   18.68138885   76.67089844    0.03000000    0.11000000
   18.68444443   77.26619720    0.03000000    0.11000000
   18.68610954   80.14219666    0.03000000    0.11000000
   18.69055557   80.14219666    0.03000000    0.11000000
   18.69472122   76.20179749    0.03000000    0.11000000
   18.69777679   80.37370300    0.03000000    0.11000000
   18.70111275   76.33480072    0.03000000    0.11000000
   18.70416832   75.37210083    0.03000000    0.11000000
   18.70750046   77.85130310    0.03000000    0.11000000
   18.71083450   78.99479675    0.03000000    0.11000000
   18.71416664   76.87979889    0.03000000    0.11000000
   18.71722221   79.58090210    0.03000000    0.11000000
   18.71944427   76.65080261    0.03000000    0.11000000
   18.72083473   78.62370300    0.03000000    0.11000000
   18.72389030   78.62239838    0.03000000    0.11000000
   18.72722244   78.54429626    0.03000000    0.11000000
   18.73333359   78.54429626    0.03000000    0.11000000
   18.73750114   75.55860138    0.03000000    0.11000000
   18.74055672   79.86229706    0.03000000    0.11000000
   18.74388885   77.81150055    0.03000000    0.11000000
   18.74722290   80.85410309    0.03000000    0.11000000
   18.75027847   77.68029785    0.03000000    0.11000000
   18.75277710   75.26180267    0.03000000    0.11000000
   18.75416756   82.59750366    0.03000000    0.11000000
   18.75722313   75.84230042    0.03000000    0.11000000
   18.76055527   77.04879761    0.03000000    0.11000000
   18.76388931   78.42910004    0.03000000    0.11000000
   18.76694489   78.58869934    0.03000000    0.11000000
   18.77027702   77.55549622    0.03000000    0.11000000
   18.77611160   77.55549622    0.03000000    0.11000000
   18.78027725   80.17299652    0.03000000    0.11000000
   18.78361130   79.35939789    0.03000000    0.11000000
   18.78610992   75.95809937    0.03000000    0.11000000
   18.78722191   74.96279907    0.03000000    0.11000000
   18.79027748   79.01390076    0.03000000    0.11000000
   18.79361153   75.92800140    0.03000000    0.11000000
   18.79694366   82.26280212    0.03000000    0.11000000
   18.79999924   77.49970245    0.03000000    0.11000000
   18.80333328   79.51339722    0.03000000    0.11000000
   18.80666542   78.01349640    0.03000000    0.11000000
   18.80972099   74.45310211    0.03000000    0.11000000
   18.81305504   82.26589966    0.03000000    0.11000000
   18.81888962   82.26589966    0.03000000    0.11000000
   18.83750153   76.80030060    0.03000000    0.11000000
   18.84055710   75.42539978    0.03000000    0.11000000
   18.84388924   79.54599762    0.03000000    0.11000000
   18.84722328   76.31539917    0.03000000    0.11000000
   18.85027885   78.02600098    0.03000000    0.11000000
   18.85361099   79.29350281    0.03000000    0.11000000
   18.85666656   81.76809692    0.03000000    0.11000000
   18.86222267   81.76809692    0.03000000    0.11000000
   18.86611176   78.79489899    0.03000000    0.11000000
   18.86944389   79.45320129    0.03000000    0.11000000
   18.87055588   77.91840363    0.03000000    0.11000000
   18.87305641   77.30130005    0.03000000    0.11000000
   18.87638855   74.12809753    0.03000000    0.11000000
   18.87972260   76.65540314    0.03000000    0.11000000
   18.88277817   75.25910187    0.03000000    0.11000000
   18.88611031   77.51419830    0.03000000    0.11000000
   18.88944435   76.63639832    0.03000000    0.11000000
   18.89277840   75.11239624    0.03000000    0.11000000
   18.89611053   80.70020294    0.03000000    0.11000000
   18.89944458   78.80780029    0.03000000    0.11000000
   18.90499878   78.80780029    0.03000000    0.11000000
   18.90916634   78.23030090    0.03000000    0.11000000
   18.91222191   79.25119781    0.03000000    0.11000000
   18.91555595   78.48049927    0.03000000    0.11000000
   18.91888809   82.10060120    0.03000000    0.11000000
   18.92194366   77.72070313    0.03000000    0.11000000
   18.92527771   76.29129791    0.03000000    0.11000000
   18.92833328   78.87049866    0.03000000    0.11000000
   18.93166542   75.04989624    0.03000000    0.11000000
   18.93499947   75.83489990    0.03000000    0.11000000
   18.93722153   77.71019745    0.03000000    0.11000000
   18.93833160   76.67800140    0.03000000    0.11000000
   18.94166565   79.48490143    0.03000000    0.11000000
   18.94777679   79.48490143    0.03000000    0.11000000
   18.95194435   74.43260193    0.03000000    0.11000000
   18.95527840   74.31600189    0.03000000    0.11000000
   18.95833397   75.62640381    0.03000000    0.11000000
   18.96166801   74.94319916    0.03000000    0.11000000
   18.96472359   78.67810059    0.03000000    0.11000000
   18.96805573   75.64189911    0.03000000    0.11000000
   18.97055626   75.18830109    0.03000000    0.11000000
   18.97166634   77.63349915    0.03000000    0.11000000
   18.97500038   77.53260040    0.03000000    0.11000000
   18.97833443   77.55899811    0.03000000    0.11000000
   18.98139000   77.02870178    0.03000000    0.11000000
   18.98472214   76.09030151    0.03000000    0.11000000
   18.99055672   76.09030151    0.03000000    0.11000000
   18.99472237   75.66139984    0.03000000    0.11000000
   18.99805641   76.28379822    0.03000000    0.11000000
   19.00111198   74.44650269    0.03000000    0.11000000
   19.00388908   81.44069672    0.03000000    0.11000000
   19.00472260   76.27239990    0.03000000    0.11000000
   19.00805473   82.53170013    0.03000000    0.11000000
   19.01138878   76.66709900    0.03000000    0.11000000
   19.01444435   75.84059906    0.03000000    0.11000000
   19.01777840   77.27089691    0.03000000    0.11000000
   19.02083397   79.21019745    0.03000000    0.11000000
   19.02416611   78.56310272    0.03000000    0.11000000
   19.02750015   77.79850006    0.03000000    0.11000000
   19.03361130   77.79850006    0.03000000    0.11000000
   19.03750038   79.21469879    0.03000000    0.11000000
   19.04083252   83.49579620    0.03000000    0.11000000
   19.04416656   77.78279877    0.03000000    0.11000000
   19.04722214   85.82559967    0.03000000    0.11000000
   19.05055428   78.43550110    0.03000000    0.11000000
   19.05388832   80.36340332    0.03000000    0.11000000
   19.05694389   79.49449921    0.03000000    0.11000000
   19.06027794   75.00360107    0.03000000    0.11000000
   19.06333351   77.72869873    0.03000000    0.11000000
   19.06666756   76.51950073    0.03000000    0.11000000
   19.07000160   78.77310181    0.03000000    0.11000000
   19.07055664   81.57649994    0.03000000    0.11000000
   19.07638931   81.57649994    0.03000000    0.11000000
   19.08055687   76.40519714    0.03000000    0.11000000
   19.08361244   80.55439758    0.03000000    0.11000000
   19.08694458   76.73590088    0.03000000    0.11000000
   19.09027863   77.81549835    0.03000000    0.11000000
   19.09333420   77.93609619    0.03000000    0.11000000
   19.09666824   78.80139923    0.03000000    0.11000000
   19.09972191   76.76760101    0.03000000    0.11000000
   19.10305595   78.66999817    0.03000000    0.11000000
   19.10388947   79.44529724    0.03000000    0.11000000
   19.10666656   78.31739807    0.03000000    0.11000000
   19.11000061   74.79370117    0.03000000    0.11000000
   19.11333466   77.94039917    0.03000000    0.11000000
   19.11916733   77.94039917    0.03000000    0.11000000
   19.12333298   74.34040070    0.03000000    0.11000000
   19.12666702   76.31639862    0.03000000    0.11000000
   19.12972260   72.94049835    0.03000000    0.11000000
   19.13305473   75.56529999    0.03000000    0.11000000
   19.13611031   73.48690033    0.03000000    0.11000000
   19.13722229   75.83450317    0.03000000    0.11000000
   19.13972282   74.44879913    0.03000000    0.11000000
   19.14305496   77.65299988    0.03000000    0.11000000
   19.14638901   75.89579773    0.03000000    0.11000000
   19.14944458   77.92810059    0.03000000    0.11000000
   19.15277672   77.00050354    0.03000000    0.11000000
   19.15611076   76.95549774    0.03000000    0.11000000
   19.16194344   76.95549774    0.03000000    0.11000000
   19.16611099   77.21549988    0.03000000    0.11000000
   19.16944313   79.32389832    0.03000000    0.11000000
   19.17055511   84.28839874    0.03000000    0.11000000
   19.17277718   78.08840179    0.03000000    0.11000000
   19.17611122   78.65019989    0.03000000    0.11000000
   19.17944336   75.19120026    0.03000000    0.11000000
   19.18249893   78.59400177    0.03000000    0.11000000
   19.18583298   76.95429993    0.03000000    0.11000000
   19.18916512   80.32460022    0.03000000    0.11000000
   19.19222069   81.90840149    0.03000000    0.11000000
   19.19555473   79.52680206    0.03000000    0.11000000
   19.19861031   76.32350159    0.03000000    0.11000000
   19.20499992   76.32350159    0.03000000    0.11000000
   19.20916748   77.82170105    0.03000000    0.11000000
   19.21222305   79.72779846    0.03000000    0.11000000
   19.21555710   77.58039856    0.03000000    0.11000000
   19.21861076   81.94490051    0.03000000    0.11000000
   19.22194481   80.67829895    0.03000000    0.11000000
   19.22527885   79.39589691    0.03000000    0.11000000
   19.22833443   77.33470154    0.03000000    0.11000000
   19.23166656   77.14070129    0.03000000    0.11000000
   19.23500061   75.51940155    0.03000000    0.11000000
   19.23722267   77.40529633    0.03000000    0.11000000
   19.23833275   77.98999786    0.03000000    0.11000000
   19.24166679   78.78279877    0.03000000    0.11000000
   19.24777794   78.78279877    0.03000000    0.11000000
   19.25194359   79.02089691    0.03000000    0.11000000
   19.25499916   77.94319916    0.03000000    0.11000000
   19.25833321   76.72540283    0.03000000    0.11000000
   19.26166725   77.70629883    0.03000000    0.11000000
   19.26472282   76.54239655    0.03000000    0.11000000
   19.26805496   77.54599762    0.03000000    0.11000000
   19.27055550   83.21360016    0.03000000    0.11000000
   19.27138901   77.53919983    0.03000000    0.11000000
   19.27472115   78.23760223    0.03000000    0.11000000
   19.27805519   79.23149872    0.03000000    0.11000000
   19.28111076   76.55539703    0.03000000    0.11000000
   19.28444481   79.12500000    0.03000000    0.11000000
   19.29055595   79.12500000    0.03000000    0.11000000
   19.29472160   80.61620331    0.03000000    0.11000000
   19.29805565   77.17769623    0.03000000    0.11000000
   19.30111122   77.27749634    0.03000000    0.11000000
   19.30388832   77.77619934    0.03000000    0.11000000
   19.30472183   81.67289734    0.03000000    0.11000000
   19.30805397   79.28700256    0.03000000    0.11000000
   19.31138802   77.19760132    0.03000000    0.11000000
   19.31444359   80.79280090    0.03000000    0.11000000
   19.31777954   79.53959656    0.03000000    0.11000000
   19.32111168   76.84780121    0.03000000    0.11000000
   19.32416725   75.67810059    0.03000000    0.11000000
   19.32750130   77.80300140    0.03000000    0.11000000
   19.33333397   77.80300140    0.03000000    0.11000000
   19.33750153   76.03379822    0.03000000    0.11000000
   19.34083366   78.03299713    0.03000000    0.11000000
   19.34388924   76.69909668    0.03000000    0.11000000
   19.34722328   79.76820374    0.03000000    0.11000000
   19.35055542   78.37049866    0.03000000    0.11000000
   19.35361099   75.79160309    0.03000000    0.11000000
   19.35694504   78.06449890    0.03000000    0.11000000
   19.36027908   76.39440155    0.03000000    0.11000000
   19.36333466   81.20459747    0.03000000    0.11000000
   19.36666679   79.66519928    0.03000000    0.11000000
   19.36972237   80.32019806    0.03000000    0.11000000
   19.37055588   75.79010010    0.03000000    0.11000000
   19.37638855   75.79010010    0.03000000    0.11000000
   19.38027763   74.95449829    0.03000000    0.11000000
   19.38361168   76.40209961    0.03000000    0.11000000
   19.38694382   76.11710358    0.03000000    0.11000000
   19.38999939   76.72480011    0.03000000    0.11000000
   19.39333344   76.21569824    0.03000000    0.11000000
   19.39666748   77.75209808    0.03000000    0.11000000
   19.39972115   76.52999878    0.03000000    0.11000000
   19.40305519   74.51439667    0.03000000    0.11000000
   19.40388870   75.40299988    0.03000000    0.11000000
   19.40694427   76.48010254    0.03000000    0.11000000
   19.40999985   75.32469940    0.03000000    0.11000000
   19.41333389   77.84670258    0.03000000    0.11000000
   19.41916656   77.84670258    0.03000000    0.11000000
   19.42333221   77.70639801    0.03000000    0.11000000
   19.42638779   75.19239807    0.03000000    0.11000000
   19.42972183   76.85310364    0.03000000    0.11000000
   19.43305397   79.16190338    0.03000000    0.11000000
   19.43610954   77.35410309    0.03000000    0.11000000
   19.43722153   78.25679779    0.03000000    0.11000000
   19.43999863   78.99790192    0.03000000    0.11000000
   19.44305420   86.62409973    0.03000000    0.11000000
   19.44638824   84.33910370    0.03000000    0.11000000
   19.44944382   77.29370117    0.03000000    0.11000000
   19.45277786   78.52549744    0.03000000    0.11000000
   19.45611191   79.55799866    0.03000000    0.11000000
   19.46194458   79.55799866    0.03000000    0.11000000
   19.46611214   76.99839783    0.03000000    0.11000000
   19.46944427   77.97260284    0.03000000    0.11000000
   19.47055626   82.91580200    0.03000000    0.11000000
   19.47305679   78.72689819    0.03000000    0.11000000
   19.47611237   75.63069916    0.03000000    0.11000000
   19.47944450   74.85240173    0.03000000    0.11000000
   19.48277855   79.79889679    0.03000000    0.11000000
   19.48583412   85.34819794    0.03000000    0.11000000
   19.48916626   78.19339752    0.03000000    0.11000000
   19.49250031   79.04260254    0.03000000    0.11000000
   19.49555588   80.53500366    0.03000000    0.11000000
   19.49888992   77.76799774    0.03000000    0.11000000
   19.50472260   77.76799774    0.03000000    0.11000000
   19.50888824   78.90760040    0.03000000    0.11000000
   19.51222229   81.74109650    0.03000000    0.11000000
   19.51527786   80.01370239    0.03000000    0.11000000
   19.51861000   78.56649780    0.03000000    0.11000000
   19.52194405   79.19300079    0.03000000    0.11000000
   19.52499962   84.10919952    0.03000000    0.11000000
   19.52833366   75.64649963    0.03000000    0.11000000
   19.53166580   76.24109650    0.03000000    0.11000000
   19.53472137   76.45639801    0.03000000    0.11000000
   19.53722191   77.95870209    0.03000000    0.11000000
   19.53861046   75.82060242    0.03000000    0.11000000
   19.54166603   76.31870270    0.03000000    0.11000000
   19.54777718   76.31870270    0.03000000    0.11000000
   19.55166626   74.19589996    0.03000000    0.11000000
   19.55499840   82.60800171    0.03000000    0.11000000
   19.55833244   77.07679749    0.03000000    0.11000000
   19.56138802   74.84059906    0.03000000    0.11000000
   19.56472206   80.16059875    0.03000000    0.11000000
   19.56805611   77.19499969    0.03000000    0.11000000
   19.57055664   78.64980316    0.03000000    0.11000000
   19.57166672   78.65509796    0.03000000    0.11000000
   19.57472229   81.79149628    0.03000000    0.11000000
   19.57805634   81.43900299    0.03000000    0.11000000
   19.58111191   76.61599731    0.03000000    0.11000000
   19.58444595   81.00389862    0.03000000    0.11000000
   19.59055710   81.00389862    0.03000000    0.11000000
   19.59472275   77.72380066    0.03000000    0.11000000
   19.59777832   78.20970154    0.03000000    0.11000000
   19.60111237   82.56520081    0.03000000    0.11000000
   19.60388947   78.18090057    0.03000000    0.11000000
   19.60472298   75.78150177    0.03000000    0.11000000
   19.60777855   77.82140350    0.03000000    0.11000000
   19.61111069   75.56610107    0.03000000    0.11000000
   19.61416626   76.60410309    0.03000000    0.11000000
   19.61750031   79.20860291    0.03000000    0.11000000
   19.62083435   77.40440369    0.03000000    0.11000000
   19.62388992   77.46820068    0.03000000    0.11000000
   19.62722206   78.60569763    0.03000000    0.11000000
   19.63333321   78.60569763    0.03000000    0.11000000
   19.63750076   77.73799896    0.03000000    0.11000000
   19.64083290   81.99549866    0.03000000    0.11000000
   19.64388847   80.64859772    0.03000000    0.11000000
   19.64722252   77.12609863    0.03000000    0.11000000
   19.65055466   77.80789948    0.03000000    0.11000000
   19.65361023   75.39640045    0.03000000    0.11000000
   19.65694427   84.93840027    0.03000000    0.11000000
   19.65999985   80.96399689    0.03000000    0.11000000
   19.66333389   78.74600220    0.03000000    0.11000000
   19.66666603   77.71649933    0.03000000    0.11000000
   19.66972160   78.78710175    0.03000000    0.11000000
   19.67055511   79.24729919    0.03000000    0.11000000
   19.67611122   79.24729919    0.03000000    0.11000000
   19.68027687   74.06849670    0.03000000    0.11000000
   19.68361092   74.52940369    0.03000000    0.11000000
   19.68666649   82.71430206    0.03000000    0.11000000
   19.68999863   77.47769928    0.03000000    0.11000000
   19.69333267   75.77909851    0.03000000    0.11000000
   19.69638824   79.20220184    0.03000000    0.11000000
   19.69972038   76.96050262    0.03000000    0.11000000
   19.70305634   75.96820068    0.03000000    0.11000000
   19.70388985   78.19069672    0.03000000    0.11000000
   19.70666695   76.21939850    0.03000000    0.11000000
   19.70972252   77.03240204    0.03000000    0.11000000
   19.71305656   77.94049835    0.03000000    0.11000000
   19.71916771   77.94049835    0.03000000    0.11000000
   19.72305679   78.63639832    0.03000000    0.11000000
   19.72638893   78.91210175    0.03000000    0.11000000
   19.72972298   82.26010132    0.03000000    0.11000000
   19.73277855   78.19719696    0.03000000    0.11000000
   19.73611069   77.97109985    0.03000000    0.11000000
   19.73722267   79.63420105    0.03000000    0.11000000
   19.73972321   77.65529633    0.03000000    0.11000000
   19.74277878   78.29620361    0.03000000    0.11000000
   19.74611092   81.06179810    0.03000000    0.11000000
   19.74944496   80.55950165    0.03000000    0.11000000
   19.75250053   81.24639893    0.03000000    0.11000000
   19.75583267   80.36820221    0.03000000    0.11000000
   19.76194382   80.36820221    0.03000000    0.11000000
   19.76611137   80.61789703    0.03000000    0.11000000
   19.76916695   80.55110168    0.03000000    0.11000000
   19.77055550   79.64569855    0.03000000    0.11000000
   19.77305603   78.85150146    0.03000000    0.11000000
   19.77611160   81.17800140    0.03000000    0.11000000
   19.77944374   82.48459625    0.03000000    0.11000000
   19.78277779   78.88020325    0.03000000    0.11000000
   19.78583336   80.11679840    0.03000000    0.11000000
   19.78916550   79.07019806    0.03000000    0.11000000
   19.79222107   81.37729645    0.03000000    0.11000000
   19.79555511   79.78230286    0.03000000    0.11000000
   19.79888916   77.64689636    0.03000000    0.11000000
   19.80472183   77.64689636    0.03000000    0.11000000
   19.80888748   82.64289856    0.03000000    0.11000000
   19.81222153   83.33830261    0.03000000    0.11000000
   19.81527710   78.98280334    0.03000000    0.11000000
   19.81861115   81.11579895    0.03000000    0.11000000
   19.82166672   79.41580200    0.03000000    0.11000000
   19.82500076   77.47989655    0.03000000    0.11000000
   19.82833481   78.73120117    0.03000000    0.11000000
   19.83139038   78.55020142    0.03000000    0.11000000
   19.83472252   75.94039917    0.03000000    0.11000000
   19.83722305   75.50039673    0.03000000    0.11000000
   19.85777855   75.50039673    0.03000000    0.11000000
   19.86194420   78.15129852    0.03000000    0.11000000
   19.86527824   80.67019653    0.03000000    0.11000000
   19.86833382   77.61070251    0.03000000    0.11000000
   19.87055588   80.78199768    0.03000000    0.11000000
   19.87222290   79.60369873    0.03000000    0.11000000
   19.87527847   79.58249664    0.03000000    0.11000000
   19.87861061   75.88369751    0.03000000    0.11000000
   19.88194466   73.64350128    0.03000000    0.11000000
   19.88500023   75.60350037    0.03000000    0.11000000
   19.88833237   78.33180237    0.03000000    0.11000000
   19.89138794   80.30680084    0.03000000    0.11000000
   19.89472198   79.08260345    0.03000000    0.11000000
   19.90055466   79.08260345    0.03000000    0.11000000
   19.90472221   80.16390228    0.03000000    0.11000000
   19.90805435   79.01210022    0.03000000    0.11000000
   19.91110992   77.79689789    0.03000000    0.11000000
   19.91444397   77.38079834    0.03000000    0.11000000
   19.91777802   74.65149689    0.03000000    0.11000000
   19.92083359   78.91929626    0.03000000    0.11000000
   19.92416573   79.72460175    0.03000000    0.11000000
   19.92749977   83.04599762    0.03000000    0.11000000
   19.93055534   80.52390289    0.03000000    0.11000000
   19.93388748   77.00879669    0.03000000    0.11000000
   19.93694305   76.78269958    0.03000000    0.11000000
   19.93750000   80.94760132    0.03000000    0.11000000
   19.94333267   80.94760132    0.03000000    0.11000000
   19.94749832   80.76660156    0.03000000    0.11000000
   19.95083427   77.12169647    0.03000000    0.11000000
   19.95416832   76.76059723    0.03000000    0.11000000
   19.95722389   79.60359955    0.03000000    0.11000000
   19.96055603   74.54550171    0.03000000    0.11000000
   19.96361160   75.19219971    0.03000000    0.11000000
   19.96694565   78.51640320    0.03000000    0.11000000
   19.97027779   75.99880219    0.03000000    0.11000000
   19.97083473   75.44940186    0.03000000    0.11000000
   19.97389030   78.22100067    0.03000000    0.11000000
   19.97722244   79.62010193    0.03000000    0.11000000
   19.98027802   78.85500336    0.03000000    0.11000000
   19.98638916   78.85500336    0.03000000    0.11000000
   19.99055672   80.06960297    0.03000000    0.11000000
   19.99361229   75.58740234    0.03000000    0.11000000
   19.99694443   82.80599976    0.03000000    0.11000000
   20.00000000   77.61949921    0.03000000    0.11000000
   20.00333405   77.09989929    0.03000000    0.11000000
   20.00416756   81.76190186    0.03000000    0.11000000
   20.00694466   80.04560089    0.03000000    0.11000000
   20.01027870   76.18000031    0.03000000    0.11000000
   20.01333427   77.42739868    0.03000000    0.11000000
   20.01666641   73.53250122    0.03000000    0.11000000
   20.02000046   75.25659943    0.03000000    0.11000000
   20.02305603   77.10739899    0.03000000    0.11000000
   20.02916718   77.10739899    0.03000000    0.11000000
   20.03333282   77.65809631    0.03000000    0.11000000
   20.03638840   77.66690063    0.03000000    0.11000000
   20.03750038   76.66320038    0.03000000    0.11000000
   20.03999901   76.10839844    0.03000000    0.11000000
   20.04333305   78.84410095    0.03000000    0.11000000
   20.04638863   75.38359833    0.03000000    0.11000000
   20.04972076   79.68900299    0.03000000    0.11000000
   20.05305481   77.23470306    0.03000000    0.11000000
   20.05611038   76.90339661    0.03000000    0.11000000
   20.05944443   77.75289917    0.03000000    0.11000000
   20.06250000   78.99960327    0.03000000    0.11000000
   20.06583214   78.83139801    0.03000000    0.11000000
   20.07194519   78.83139801    0.03000000    0.11000000
   20.07611275   77.35820007    0.03000000    0.11000000
   20.07944489   77.25849915    0.03000000    0.11000000
   20.08250046   78.98380280    0.03000000    0.11000000
   20.08583450   77.33319855    0.03000000    0.11000000
   20.08916664   81.92849731    0.03000000    0.11000000
   20.09222221   83.60500336    0.03000000    0.11000000
   20.09555626   78.62999725    0.03000000    0.11000000
   20.09889030   80.78990173    0.03000000    0.11000000
   20.10194397   85.15080261    0.03000000    0.11000000
   20.10416794   82.23069763    0.03000000    0.11000000
   20.10555649   79.54989624    0.03000000    0.11000000
   20.10888863   81.20120239    0.03000000    0.11000000
   20.11472321   81.20120239    0.03000000    0.11000000
   20.11888885   83.89289856    0.03000000    0.11000000
   20.12222290   81.40799713    0.03000000    0.11000000
   20.12527847   81.92030334    0.03000000    0.11000000
   20.12861061   80.50039673    0.03000000    0.11000000
   20.13194466   81.34449768    0.03000000    0.11000000
   20.13500023   80.20089722    0.03000000    0.11000000
   20.13750076   78.77619934    0.03000000    0.11000000
   20.13861084   78.06909943    0.03000000    0.11000000
   20.14194489   82.86990356    0.03000000    0.11000000
   20.14500046   78.86990356    0.03000000    0.11000000
   20.14833260   81.18769836    0.03000000    0.11000000
   20.15138817   78.89119720    0.03000000    0.11000000
   20.15777779   78.89119720    0.03000000    0.11000000
   20.16166687   79.47579956    0.03000000    0.11000000
   20.16499901   83.00399780    0.03000000    0.11000000
   20.16833305   81.09580231    0.03000000    0.11000000
   20.17083359   76.16860199    0.03000000    0.11000000
   20.17194366   78.33969879    0.03000000    0.11000000
   20.17527771   79.43379974    0.03000000    0.11000000
   20.17833328   80.12590027    0.03000000    0.11000000
   20.18166542   78.38330078    0.03000000    0.11000000
   20.18472099   78.45059967    0.03000000    0.11000000
   20.18805504   82.66670227    0.03000000    0.11000000
   20.19138718   78.05349731    0.03000000    0.11000000
   20.19444275   83.30850220    0.03000000    0.11000000
   20.20055580   83.30850220    0.03000000    0.11000000
   20.20472336   82.66950226    0.03000000    0.11000000
   20.20777893   76.02919769    0.03000000    0.11000000
   20.21111107   80.55580139    0.03000000    0.11000000
   20.21444511   81.06279755    0.03000000    0.11000000
   20.21750069   82.13800049    0.03000000    0.11000000
   20.22083473   79.46009827    0.03000000    0.11000000
   20.22389030   77.96980286    0.03000000    0.11000000
   20.22722244   80.31649780    0.03000000    0.11000000
   20.23055649   81.61039734    0.03000000    0.11000000
   20.23361206   76.59079742    0.03000000    0.11000000
   20.23694420   77.77880096    0.03000000    0.11000000
   20.23750114   77.85119629    0.03000000    0.11000000
   20.24333382   77.85119629    0.03000000    0.11000000
   20.24749947   78.49600220    0.03000000    0.11000000
   20.25083351   80.76969910    0.03000000    0.11000000
   20.25388908   79.74960327    0.03000000    0.11000000
   20.25722313   79.69740295    0.03000000    0.11000000
   20.26055527   82.53450012    0.03000000    0.11000000
   20.26361084   79.18229675    0.03000000    0.11000000
   20.26694489   76.22200012    0.03000000    0.11000000
   20.27027702   77.93689728    0.03000000    0.11000000
   20.27083397   78.72570038    0.03000000    0.11000000
   20.27388954   77.25370026    0.03000000    0.11000000
   20.27722168   77.41960144    0.03000000    0.11000000
   20.28027725   78.81400299    0.03000000    0.11000000
   20.28610992   78.81400299    0.03000000    0.11000000
   20.29027748   81.59549713    0.03000000    0.11000000
   20.29361153   77.16889954    0.03000000    0.11000000
   20.29666710   77.23120117    0.03000000    0.11000000
   20.29999924   80.56050110    0.03000000    0.11000000
   20.30333328   77.18540192    0.03000000    0.11000000
   20.30416679   76.56449890    0.03000000    0.11000000
   20.30694389   79.17510223    0.03000000    0.11000000
   20.31027794   80.82270050    0.03000000    0.11000000
   20.31333351   78.34760284    0.03000000    0.11000000
   20.31666756   79.10500336    0.03000000    0.11000000
   20.32000160   76.52279663    0.03000000    0.11000000
   20.32305717   78.30210114    0.03000000    0.11000000
   20.32916832   78.30210114    0.03000000    0.11000000
   20.33305550   82.16269684    0.03000000    0.11000000
   20.33638954   77.43779755    0.03000000    0.11000000
   20.33750153   76.69249725    0.03000000    0.11000000
   20.34000015   78.65589905    0.03000000    0.11000000
   20.34333420   79.54499817    0.03000000    0.11000000
   20.34638977   79.78949738    0.03000000    0.11000000
   20.34972191   80.76529694    0.03000000    0.11000000
   20.35305595   77.57559967    0.03000000    0.11000000
   20.35611153   79.00340271    0.03000000    0.11000000
   20.35944557   78.70659637    0.03000000    0.11000000
   20.36250114   78.99810028    0.03000000    0.11000000
   20.36583328   76.61440277    0.03000000    0.11000000
   20.37194443   76.61440277    0.03000000    0.11000000
   20.37611198   79.56839752    0.03000000    0.11000000
   20.37916756   78.55020142    0.03000000    0.11000000
   20.38249969   74.75199890    0.03000000    0.11000000
   20.38583374   85.51740265    0.03000000    0.11000000
   20.38888931   84.50319672    0.03000000    0.11000000
   20.39222145   85.20539856    0.03000000    0.11000000
   20.39527702   81.91829681    0.03000000    0.11000000
   20.39861107   76.31529999    0.03000000    0.11000000
   20.40194321   79.73840332    0.03000000    0.11000000
   20.40416718   79.31300354    0.03000000    0.11000000
   20.40555573   80.02120209    0.03000000    0.11000000
   20.40888786   79.40129852    0.03000000    0.11000000
   20.41472244   79.40129852    0.03000000    0.11000000
   20.41888809   79.05290222    0.03000000    0.11000000
   20.42222214   83.17199707    0.03000000    0.11000000
   20.42527771   82.93550110    0.03000000    0.11000000
   20.42860985   81.68679810    0.03000000    0.11000000
   20.43166542   90.15499878    0.03000000    0.11000000
   20.43499947   82.60310364    0.03000000    0.11000000
   20.43777657   79.97920227    0.03000000    0.11000000
   20.43861008   79.57869720    0.03000000    0.11000000
   20.44194412   79.63120270    0.03000000    0.11000000
   20.44499969   79.54409790    0.03000000    0.11000000
   20.44833183   77.07150269    0.03000000    0.11000000
   20.45166779   82.92089844    0.03000000    0.11000000
   20.45750046   82.92089844    0.03000000    0.11000000
   20.46166801   87.83249664    0.03000000    0.11000000
   20.46500015   78.57150269    0.03000000    0.11000000
   20.46805573   82.72049713    0.03000000    0.11000000
   20.47111130   84.34159851    0.03000000    0.11000000
   20.47166634   78.16290283    0.03000000    0.11000000
   20.47500038   83.09819794    0.03000000    0.11000000
   20.47805595   79.14980316    0.03000000    0.11000000
   20.48139000   80.34539795    0.03000000    0.11000000
   20.48472214   82.19480133    0.03000000    0.11000000
   20.48777771   86.48690033    0.03000000    0.11000000
   20.49111176   84.28990173    0.03000000    0.11000000
   20.49416733   81.55190277    0.03000000    0.11000000
   20.50055504   81.55190277    0.03000000    0.11000000
   20.50444412   77.87580109    0.03000000    0.11000000
   20.50777817   79.16580200    0.03000000    0.11000000
   20.51111031   83.40979767    0.03000000    0.11000000
   20.51444435   78.78790283    0.03000000    0.11000000
   20.51749992   82.43679810    0.03000000    0.11000000
   20.52083397   77.86119843    0.03000000    0.11000000
   20.52388954   76.12599945    0.03000000    0.11000000
   20.52722168   79.11109924    0.03000000    0.11000000
   20.53055573   77.27220154    0.03000000    0.11000000
   20.53361130   85.96469879    0.03000000    0.11000000
   20.53694344   87.65010071    0.03000000    0.11000000
   20.53777695   83.36399841    0.03000000    0.11000000
   20.54333305   83.36399841    0.03000000    0.11000000
   20.54749870   79.95069885    0.03000000    0.11000000
   20.55055428   79.53749847    0.03000000    0.11000000
   20.55388832   78.86070251    0.03000000    0.11000000
   20.55722237   84.14820099    0.03000000    0.11000000
   20.56027794   75.87709808    0.03000000    0.11000000
   20.56361008   81.24050140    0.03000000    0.11000000
   20.56666756   83.76670074    0.03000000    0.11000000
   20.57000160   84.01599884    0.03000000    0.11000000
   20.57111168   82.29640198    0.03000000    0.11000000
   20.57361221   83.33750153    0.03000000    0.11000000
   20.57694626   80.01580048    0.03000000    0.11000000
   20.58000183   80.87619781    0.03000000    0.11000000
   20.58611107   80.87619781    0.03000000    0.11000000
   20.59027863   77.75450134    0.03000000    0.11000000
   20.59361267   84.19059753    0.03000000    0.11000000
   20.59666824   78.43009949    0.03000000    0.11000000
   20.60000038   80.77239990    0.03000000    0.11000000
   20.60305595   80.45559692    0.03000000    0.11000000
   20.60444450   81.29660034    0.03000000    0.11000000
   20.60666656   77.85569763    0.03000000    0.11000000
   20.61000061   79.90440369    0.03000000    0.11000000
   20.61305618   79.98069763    0.03000000    0.11000000
   20.61638832   84.19850159    0.03000000    0.11000000
   20.61972237   80.97149658    0.03000000    0.11000000
   20.62277794   81.66780090    0.03000000    0.11000000
   20.62888908   81.66780090    0.03000000    0.11000000
   20.63305473   88.23840332    0.03000000    0.11000000
   20.63638878   84.43609619    0.03000000    0.11000000
   20.63777733   80.09059906    0.03000000    0.11000000
   20.63999939   82.16970062    0.03000000    0.11000000
   20.64333344   84.38710022    0.03000000    0.11000000
   20.64638901   78.28269958    0.03000000    0.11000000
   20.64972115   82.02020264    0.03000000    0.11000000
   20.65305519   79.46479797    0.03000000    0.11000000
   20.65611076   78.58370209    0.03000000    0.11000000
   20.65944481   78.83260345    0.03000000    0.11000000
   20.66277695   75.17350006    0.03000000    0.11000000
   20.66583252   76.18849945    0.03000000    0.11000000
   20.67194366   76.18849945    0.03000000    0.11000000
   20.67583275   80.13580322    0.03000000    0.11000000
   20.67916679   85.27970123    0.03000000    0.11000000
   20.68249893   77.43750000    0.03000000    0.11000000
   20.68555450   82.76129913    0.03000000    0.11000000
   20.68888855   79.71089935    0.03000000    0.11000000
   20.69222069   80.70570374    0.03000000    0.11000000
   20.69527626   82.76750183    0.03000000    0.11000000
   20.69861031   80.22360229    0.03000000    0.11000000
   20.70166779   81.80269623    0.03000000    0.11000000
   20.70444489   83.58470154    0.03000000    0.11000000
   20.70527840   92.16320038    0.03000000    0.11000000
   20.70861244   79.01850128    0.03000000    0.11000000
   20.71472359   79.01850128    0.03000000    0.11000000
   20.71888924   81.33850098    0.03000000    0.11000000
   20.72194481   81.20819855    0.03000000    0.11000000
   20.72527885   92.38240051    0.03000000    0.11000000
   20.72861099   86.00810242    0.03000000    0.11000000
   20.73166656   83.51029968    0.03000000    0.11000000
   20.73500061   79.57039642    0.03000000    0.11000000
   20.73777771   88.63159943    0.03000000    0.11000000
   20.73861122   82.94989777    0.03000000    0.11000000
   20.74194527   84.32039642    0.03000000    0.11000000
   20.74527740   82.99120331    0.03000000    0.11000000
   20.74833298   79.29859924    0.03000000    0.11000000
   20.75166702   83.97260284    0.03000000    0.11000000
   20.75749969   83.97260284    0.03000000    0.11000000
   20.76166725   80.76580048    0.03000000    0.11000000
   20.76499939   86.67980194    0.03000000    0.11000000
   20.76805496   86.74759674    0.03000000    0.11000000
   20.77111053   81.80020142    0.03000000    0.11000000
   20.77166557   78.84609985    0.03000000    0.11000000
   20.77499962   79.06220245    0.03000000    0.11000000
   20.77833366   80.70880127    0.03000000    0.11000000
   20.78138924   81.48100281    0.03000000    0.11000000
   20.78472137   90.23400116    0.03000000    0.11000000
   20.78777695   80.27670288    0.03000000    0.11000000
   20.79111099   83.74569702    0.03000000    0.11000000
   20.79444313   79.58409882    0.03000000    0.11000000
   20.80027771   79.58409882    0.03000000    0.11000000
   20.80444336   87.97810364    0.03000000    0.11000000
   20.80777740   78.65119934    0.03000000    0.11000000
   20.81083298   77.61129761    0.03000000    0.11000000
   20.81416512   79.37529755    0.03000000    0.11000000
   20.81750107   82.42769623    0.03000000    0.11000000
   20.82055664   79.48750305    0.03000000    0.11000000
   20.82389069   80.57599640    0.03000000    0.11000000
   20.82722282   77.65570068    0.03000000    0.11000000
   20.83027840   83.54309845    0.03000000    0.11000000
   20.83361244   83.36399841    0.03000000    0.11000000
   20.83666801   82.98989868    0.03000000    0.11000000
   20.83777809   83.68470001    0.03000000    0.11000000
   20.84333420   83.68470001    0.03000000    0.11000000
   20.84722328   81.89630127    0.03000000    0.11000000
   20.85055542   76.40570068    0.03000000    0.11000000
   20.85388947   80.20410156    0.03000000    0.11000000
   20.87138939   85.01010132    0.03000000    0.11000000
   20.87388992   81.25879669    0.03000000    0.11000000
   20.87694550   82.37010193    0.03000000    0.11000000
   20.88027763   78.58470154    0.03000000    0.11000000
   20.88611031   78.58470154    0.03000000    0.11000000
   20.89027786   78.61419678    0.03000000    0.11000000
   20.89361191   80.74810028    0.03000000    0.11000000
   20.89694405   82.06060028    0.03000000    0.11000000
   20.89999962   83.03939819    0.03000000    0.11000000
   20.90333366   83.73729706    0.03000000    0.11000000
   20.90472221   83.98780060    0.03000000    0.11000000
   20.90694427   80.24909973    0.03000000    0.11000000
   20.91027832   84.47290039    0.03000000    0.11000000
   20.91361046   80.96929932    0.03000000    0.11000000
   20.91666603   79.37779999    0.03000000    0.11000000
   20.92000008   83.39710236    0.03000000    0.11000000
   20.92333221   86.99210358    0.03000000    0.11000000
   20.92916679   86.99210358    0.03000000    0.11000000
   20.93333244   80.66719818    0.03000000    0.11000000
   20.93638802   77.79550171    0.03000000    0.11000000
   20.93805504   77.46910095    0.03000000    0.11000000
   20.93999863   86.27870178    0.03000000    0.11000000
   20.94333267   86.05989838    0.03000000    0.11000000
   20.94666672   78.82939911    0.03000000    0.11000000
   20.94972038   81.00830078    0.03000000    0.11000000
   20.95305634   80.18329620    0.03000000    0.11000000
   20.95639038   79.19180298    0.03000000    0.11000000
   20.95944595   76.67530060    0.03000000    0.11000000
   20.96277809   84.27249908    0.03000000    0.11000000
   20.96611214   80.45629883    0.03000000    0.11000000
   20.97194481   80.45629883    0.03000000    0.11000000
   20.97611237   77.99130249    0.03000000    0.11000000
   20.97916794   78.94950104    0.03000000    0.11000000
   20.98250008   81.32659912    0.03000000    0.11000000
   20.98583412   81.66500092    0.03000000    0.11000000
   20.98888969   82.10379791    0.03000000    0.11000000
   20.99222183   79.63520050    0.03000000    0.11000000
   20.99555588   79.53040314    0.03000000    0.11000000
   20.99861145   84.47070313    0.03000000    0.11000000
   21.00194359   81.67630005    0.03000000    0.11000000
   21.00472260   79.51499939    0.03000000    0.11000000
   21.00527763   83.49340057    0.03000000    0.11000000
   21.00861168   80.86889648    0.03000000    0.11000000
   21.01472282   80.86889648    0.03000000    0.11000000
   21.01888847   83.61720276    0.03000000    0.11000000
   21.02222252   80.91439819    0.03000000    0.11000000
   21.02527809   82.14800262    0.03000000    0.11000000
   21.02861023   85.75039673    0.03000000    0.11000000
   21.03194427   82.44740295    0.03000000    0.11000000
   21.03499985   83.96790314    0.03000000    0.11000000
   21.03805542   81.56390381    0.03000000    0.11000000
   21.03888893   76.03430176    0.03000000    0.11000000
   21.04194450   83.68740082    0.03000000    0.11000000
   21.04527664   78.74240112    0.03000000    0.11000000
   21.04861069   81.29499817    0.03000000    0.11000000
   21.05166626   83.22029877    0.03000000    0.11000000
   21.05777740   83.22029877    0.03000000    0.11000000
   21.06166649   80.31500244    0.03000000    0.11000000
   21.06499863   76.95839691    0.03000000    0.11000000
   21.06833458   78.95390320    0.03000000    0.11000000
   21.07139015   79.79940033    0.03000000    0.11000000
   21.07166672   79.17520142    0.03000000    0.11000000
   21.07500076   79.50659943    0.03000000    0.11000000
   21.07833481   79.77020264    0.03000000    0.11000000
   21.08139038   80.76629639    0.03000000    0.11000000
   21.08472252   80.43859863    0.03000000    0.11000000
   21.08805656   80.62030029    0.03000000    0.11000000
   21.09111214   86.01850128    0.03000000    0.11000000
   21.09444427   80.94909668    0.03000000    0.11000000
   21.10055542   80.94909668    0.03000000    0.11000000
   21.10472298   85.68530273    0.03000000    0.11000000
   21.10499954   81.56870270    0.03000000    0.11000000
   21.10833359   81.64209747    0.03000000    0.11000000
   21.11166763   83.81510162    0.03000000    0.11000000
   21.11472321   81.65119934    0.03000000    0.11000000
   21.11805534   87.76039886    0.03000000    0.11000000
   21.12138939   81.42780304    0.03000000    0.11000000
   21.12444496   86.02210236    0.03000000    0.11000000
   21.12777710   75.78320313    0.03000000    0.11000000
   21.13111115   82.68740082    0.03000000    0.11000000
   21.13416672   79.95369720    0.03000000    0.11000000
   21.13750076   79.53260040    0.03000000    0.11000000
   21.13805580   81.57279968    0.03000000    0.11000000
   21.14333344   81.57279968    0.03000000    0.11000000
   21.14749908   81.06839752    0.03000000    0.11000000
   21.15055466   83.68319702    0.03000000    0.11000000
   21.15388870   80.74939728    0.03000000    0.11000000
   21.15722275   84.93659973    0.03000000    0.11000000
   21.16027832   80.18289948    0.03000000    0.11000000
   21.16361046   80.61640167    0.03000000    0.11000000
   21.16694450   81.81719971    0.03000000    0.11000000
   21.17000008   83.66880035    0.03000000    0.11000000
   21.17138863   82.78559875    0.03000000    0.11000000
   21.17388916   81.02249908    0.03000000    0.11000000
   21.17694473   76.41549683    0.03000000    0.11000000
   21.18027687   79.86119843    0.03000000    0.11000000
   21.18610954   79.86119843    0.03000000    0.11000000
   21.19027710   79.76959991    0.03000000    0.11000000
   21.19361115   85.29160309    0.03000000    0.11000000
   21.19666672   79.95339966    0.03000000    0.11000000
   21.20000076   87.15740204    0.03000000    0.11000000
   21.20333481   78.56109619    0.03000000    0.11000000
   21.20472336   80.72039795    0.03000000    0.11000000
   21.20694542   82.42759705    0.03000000    0.11000000
   21.21000099   80.11340332    0.03000000    0.11000000
   21.21333504   81.54630280    0.03000000    0.11000000
   21.21638870   85.07219696    0.03000000    0.11000000
   21.21972275   78.69349670    0.03000000    0.11000000
   21.22305679   81.20300293    0.03000000    0.11000000
   21.22888947   81.20300293    0.03000000    0.11000000
   21.23305511   81.95870209    0.03000000    0.11000000
   21.23638916   80.29799652    0.03000000    0.11000000
   21.23805618   77.10269928    0.03000000    0.11000000
   21.23999977   81.82440186    0.03000000    0.11000000
   21.24305534   80.13159943    0.03000000    0.11000000
   21.24638939   82.60140228    0.03000000    0.11000000
   21.24944496   88.72810364    0.03000000    0.11000000
   21.25277710   81.55539703    0.03000000    0.11000000
   21.25611115   81.67720032    0.03000000    0.11000000
   21.25916672   81.52829742    0.03000000    0.11000000
   21.26250076   80.43990326    0.03000000    0.11000000
   21.26583290   83.00469971    0.03000000    0.11000000
   21.27194405   83.00469971    0.03000000    0.11000000
   21.27611160   81.74579620    0.03000000    0.11000000
   21.27916718   78.80570221    0.03000000    0.11000000
   21.28249931   80.71720123    0.03000000    0.11000000
   21.28555489   79.68470001    0.03000000    0.11000000
   21.28888893   79.22250366    0.03000000    0.11000000
   21.29222107   85.43499756    0.03000000    0.11000000
   21.29527664   79.46920013    0.03000000    0.11000000
   21.29861069   86.49530029    0.03000000    0.11000000
   21.30194283   84.25019836    0.03000000    0.11000000
   21.30472183   79.42720032    0.03000000    0.11000000
   21.30555534   81.38069916    0.03000000    0.11000000
   21.30861092   83.15989685    0.03000000    0.11000000
   21.31472206   83.15989685    0.03000000    0.11000000
   21.31888962   81.90090179    0.03000000    0.11000000
   21.32194519   89.06490326    0.03000000    0.11000000
   21.32527924   80.77670288    0.03000000    0.11000000
   21.32861137   86.54129791    0.03000000    0.11000000
   21.33166695   80.29080200    0.03000000    0.11000000
   21.33500099   81.33200073    0.03000000    0.11000000
   21.33805656   85.22219849    0.03000000    0.11000000
   21.33861160   88.26889801    0.03000000    0.11000000
   21.34166718   91.76540375    0.03000000    0.11000000
   21.34500122   81.57460022    0.03000000    0.11000000
   21.34805679   80.95819855    0.03000000    0.11000000
   21.35138893   82.66110229    0.03000000    0.11000000
   21.35750008   82.66110229    0.03000000    0.11000000
   21.36166763   83.64499664    0.03000000    0.11000000
   21.36499977   85.49019623    0.03000000    0.11000000
   21.36805534   81.17700195    0.03000000    0.11000000
   21.37138939   88.35949707    0.03000000    0.11000000
   21.37194443   87.78710175    0.03000000    0.11000000
   21.37500000   85.81439972    0.03000000    0.11000000
   21.37833405   82.16790009    0.03000000    0.11000000
   21.38138962   84.41220093    0.03000000    0.11000000
   21.38472176   90.59889984    0.03000000    0.11000000
   21.38805580   85.25820160    0.03000000    0.11000000
   21.39111137   85.86710358    0.03000000    0.11000000
   21.39444351   83.63279724    0.03000000    0.11000000
   21.40055466   83.63279724    0.03000000    0.11000000
   21.40444374   87.94080353    0.03000000    0.11000000
   21.40499878   81.05639648    0.03000000    0.11000000
   21.40833282   84.58589935    0.03000000    0.11000000
   21.41166687   89.88629913    0.03000000    0.11000000
   21.41472244   81.61380005    0.03000000    0.11000000
   21.41805458   77.35449982    0.03000000    0.11000000
   21.42111015   86.22470093    0.03000000    0.11000000
   21.42444420   86.92259979    0.03000000    0.11000000
   21.42777634   84.73020172    0.03000000    0.11000000
   21.43083191   85.43890381    0.03000000    0.11000000
   21.43416595   83.15619659    0.03000000    0.11000000
   21.43750000   82.55819702    0.03000000    0.11000000
   21.43833160   81.27079773    0.03000000    0.11000000
   21.44333267   81.27079773    0.03000000    0.11000000
   21.44749832   85.12310028    0.03000000    0.11000000
   21.45055580   82.32199860    0.03000000    0.11000000
   21.45388985   83.24060059    0.03000000    0.11000000
   21.45694542   81.96119690    0.03000000    0.11000000
   21.46027946   82.06909943    0.03000000    0.11000000
   21.46361160   88.97419739    0.03000000    0.11000000
   21.46694565   85.42089844    0.03000000    0.11000000
   21.47000122   83.45030212    0.03000000    0.11000000
   21.47166634   89.84999847    0.03000000    0.11000000
   21.47361183   91.34719849    0.03000000    0.11000000
   21.47694588   88.66790009    0.03000000    0.11000000
   21.48000145   85.74790192    0.03000000    0.11000000
   21.48611069   85.74790192    0.03000000    0.11000000
   21.49027824   85.41639709    0.03000000    0.11000000
   21.49333382   89.22959900    0.03000000    0.11000000
   21.49666786   83.01959991    0.03000000    0.11000000
   21.50000000   82.73840332    0.03000000    0.11000000
   21.50305557   84.70200348    0.03000000    0.11000000
   21.50499916   83.55329895    0.03000000    0.11000000
   21.50666618   86.69850159    0.03000000    0.11000000
   21.51000023   87.60179901    0.03000000    0.11000000
   21.51305580   89.03549957    0.03000000    0.11000000
   21.51638794   86.37519836    0.03000000    0.11000000
   21.51972198   86.83350372    0.03000000    0.11000000
   21.52277756   88.69809723    0.03000000    0.11000000
   21.52888870   88.69809723    0.03000000    0.11000000
   21.53305435   90.57649994    0.03000000    0.11000000
   21.53638840   82.66100311    0.03000000    0.11000000
   21.53833199   87.47460175    0.03000000    0.11000000
   21.53999901   82.89689636    0.03000000    0.11000000
   21.54333305   82.13189697    0.03000000    0.11000000
   21.54638863   89.99069977    0.03000000    0.11000000
   21.54972076   85.50890350    0.03000000    0.11000000
   21.55305481   87.51719666    0.03000000    0.11000000
   21.55611038   81.85690308    0.03000000    0.11000000
   21.55944443   88.44309998    0.03000000    0.11000000
   21.56250000   82.21890259    0.03000000    0.11000000
   21.56583214   92.02600098    0.03000000    0.11000000
   21.57166672   92.02600098    0.03000000    0.11000000
   21.57583427   89.14990234    0.03000000    0.11000000
   21.57916832   85.98220062    0.03000000    0.11000000
   21.58250046   84.50830078    0.03000000    0.11000000
   21.58555603   93.05639648    0.03000000    0.11000000
   21.58889008   86.94280243    0.03000000    0.11000000
   21.59194565   81.69699860    0.03000000    0.11000000
   21.59527779   85.74089813    0.03000000    0.11000000
   21.59861183   85.32779694    0.03000000    0.11000000
   21.60166740   87.29850006    0.03000000    0.11000000
   21.60499954   90.02660370    0.03000000    0.11000000
   21.60694504   86.73229980    0.03000000    0.11000000
   21.60861206   86.59149933    0.03000000    0.11000000
   21.61472321   86.59149933    0.03000000    0.11000000
   21.61888885   87.27330017    0.03000000    0.11000000
   21.62194443   86.34470367    0.03000000    0.11000000
   21.62527847   87.28679657    0.03000000    0.11000000
   21.62833405   86.84889984    0.03000000    0.11000000
   21.63166618   87.42510223    0.03000000    0.11000000
   21.63500023   84.67160034    0.03000000    0.11000000
   21.63805580   82.66239929    0.03000000    0.11000000
   21.64027786   88.81929779    0.03000000    0.11000000
   21.64166641   82.26219940    0.03000000    0.11000000
   21.64500046   87.51129913    0.03000000    0.11000000
   21.64833260   91.37359619    0.03000000    0.11000000
   21.65138817   87.00930023    0.03000000    0.11000000
   21.65749931   87.00930023    0.03000000    0.11000000
   21.66166687   83.11199951    0.03000000    0.11000000
   21.66472244   82.06790161    0.03000000    0.11000000
   21.66805458   81.23410034    0.03000000    0.11000000
   21.67138863   85.72889709    0.03000000    0.11000000
   21.67361069   86.11519623    0.03000000    0.11000000
   21.67499924   88.31189728    0.03000000    0.11000000
   21.67833328   86.05889893    0.03000000    0.11000000
   21.68138885   85.59809875    0.03000000    0.11000000
   21.68472099   87.65390015    0.03000000    0.11000000
   21.68805504   88.51650238    0.03000000    0.11000000
   21.69111061   87.49980164    0.03000000    0.11000000
   21.69444275   83.74199677    0.03000000    0.11000000
   21.70027924   83.74199677    0.03000000    0.11000000
   21.70444489   86.97619629    0.03000000    0.11000000
   21.70694542   87.87490082    0.03000000    0.11000000
   21.70805550   87.25740051    0.03000000    0.11000000
   21.71138954   91.44869995    0.03000000    0.11000000
   21.71444511   87.12059784    0.03000000    0.11000000
   21.71777916   86.13469696    0.03000000    0.11000000
   21.72111130   84.54740143    0.03000000    0.11000000
   21.72416687   89.52839661    0.03000000    0.11000000
   21.72750092   86.35289764    0.03000000    0.11000000
   21.73083305   83.01789856    0.03000000    0.11000000
   21.73416710   91.45839691    0.03000000    0.11000000
   21.73722267   79.73259735    0.03000000    0.11000000
   21.74305534   79.73259735    0.03000000    0.11000000
   21.74722290   86.12310028    0.03000000    0.11000000
   21.75055504   87.23509979    0.03000000    0.11000000
   21.75388908   83.69979858    0.03000000    0.11000000
   21.75694466   86.28299713    0.03000000    0.11000000
   21.76027870   86.48760223    0.03000000    0.11000000
   21.76333427   90.60829926    0.03000000    0.11000000
   21.76666641   90.38249969    0.03000000    0.11000000
   21.77000046   87.29010010    0.03000000    0.11000000
   21.77305603   91.27770233    0.03000000    0.11000000
   21.77416611   90.51599884    0.03000000    0.11000000
   21.77666664   89.21869659    0.03000000    0.11000000
   21.78000069   86.26809692    0.03000000    0.11000000
   21.78610992   86.26809692    0.03000000    0.11000000
   21.79027748   85.89080048    0.03000000    0.11000000
   21.79333305   93.37779999    0.03000000    0.11000000
   21.79666710   94.30639648    0.03000000    0.11000000
   21.79999924   90.39649963    0.03000000    0.11000000
   21.80305481   91.73449707    0.03000000    0.11000000
   21.80638885   96.65589905    0.03000000    0.11000000
   21.80749893  101.48699951    0.03000000    0.11000000
   21.80999947   88.72750092    0.03000000    0.11000000
   21.81333351   89.20590210    0.03000000    0.11000000
   21.81666756   95.12359619    0.03000000    0.11000000
   21.81972313   89.73069763    0.03000000    0.11000000
   21.82305717   89.00710297    0.03000000    0.11000000
   21.82888985   89.00710297    0.03000000    0.11000000
   21.83305550   88.44100189    0.03000000    0.11000000
   21.83611107   87.37349701    0.03000000    0.11000000
   21.83944511   82.17780304    0.03000000    0.11000000
   21.84083366   86.47660065    0.03000000    0.11000000
   21.84305573   84.31680298    0.03000000    0.11000000
   21.84638977   93.40820313    0.03000000    0.11000000
   21.84944534   85.26519775    0.03000000    0.11000000
   21.85277748   90.73269653    0.03000000    0.11000000
   21.85611153   85.36990356    0.03000000    0.11000000
   21.85916710   86.10220337    0.03000000    0.11000000
   21.86250114   85.65820313    0.03000000    0.11000000
   21.86555672   91.88020325    0.03000000    0.11000000
   21.87166595   91.88020325    0.03000000    0.11000000
   21.88999939   89.09190369    0.03000000    0.11000000
   21.89333344   83.82119751    0.03000000    0.11000000
   21.89666748   90.25019836    0.03000000    0.11000000
   21.89972115   87.79540253    0.03000000    0.11000000
   21.90305519   90.25679779    0.03000000    0.11000000
   21.90638924   90.73000336    0.03000000    0.11000000
   21.90944481   88.47979736    0.03000000    0.11000000
   21.91472244   88.47979736    0.03000000    0.11000000
   21.91888809   89.70390320    0.03000000    0.11000000
   21.92222214   89.75949860    0.03000000    0.11000000
   21.92305565   88.34989929    0.03000000    0.11000000
   21.92583275   92.14479828    0.03000000    0.11000000
   21.92916679   89.49320221    0.03000000    0.11000000
   21.93222237   89.94400024    0.03000000    0.11000000
   21.93555450   92.62439728    0.03000000    0.11000000
   21.93888855   85.67630005    0.03000000    0.11000000
   21.94194412   93.80280304    0.03000000    0.11000000
   21.94527626   90.35849762    0.03000000    0.11000000
   21.94833183   93.38269806    0.03000000    0.11000000
   21.95166779   92.58689880    0.03000000    0.11000000
   21.95777893   92.58689880    0.03000000    0.11000000
   21.96166801   89.64559937    0.03000000    0.11000000
   21.96500015   91.24530029    0.03000000    0.11000000
   21.96833420   93.47119904    0.03000000    0.11000000
   21.97138977   88.16149902    0.03000000    0.11000000
   21.97472191   90.60189819    0.03000000    0.11000000
   21.97805595   96.72350311    0.03000000    0.11000000
   21.98111153   90.10890198    0.03000000    0.11000000
   21.98444557   95.77989960    0.03000000    0.11000000
   21.98750114   97.04070282    0.03000000    0.11000000
   21.98972321  103.00900269    0.03000000    0.11000000
   21.99138832   91.10160065    0.03000000    0.11000000
   21.99472237   99.62270355    0.03000000    0.11000000
   22.00055504   99.62270355    0.03000000    0.11000000
   22.00472260   91.53859711    0.03000000    0.11000000
   22.00805473   91.66030121    0.03000000    0.11000000
   22.01111031   96.80950165    0.03000000    0.11000000
   22.01444435  101.67600250    0.03000000    0.11000000
   22.01777840   94.33999634    0.03000000    0.11000000
   22.02166557   89.22779846    0.03000000    0.11000000
   22.02388954   91.60749817    0.03000000    0.11000000
   22.02611160   88.81330109    0.03000000    0.11000000
   22.02944374   91.58439636    0.03000000    0.11000000
   22.03277779   92.27069855    0.03000000    0.11000000
   22.03722191   93.05349731    0.03000000    0.11000000
   22.04333305   93.05349731    0.03000000    0.11000000
   22.04833221   90.08300018    0.03000000    0.11000000
   22.05194283   99.28220367    0.03000000    0.11000000
   22.05555534  108.78900146    0.03000000    0.11000000
   22.05777740  109.45800018    0.03000000    0.11000000
