    HOUR (UT)   FLARE FACTOR    SKY TESTER    SUN TESTER
   15.00861073   -1.00000000   -1.00000000   -1.00000000
   15.09166622   83.91210175    0.63000000    2.61999989
   15.09472179   80.80740356    0.61000001    2.64000010
   15.09805489   83.57599640    0.61000001    2.64000010
   15.10111141   84.20310211    0.58999997    2.64000010
   15.10444450   78.69619751    0.58999997    2.64000010
   15.10750008   84.33460236    0.58999997    2.64000010
   15.11166668   84.33460236    0.58999997    2.64000010
   15.11583328   85.60949707    0.58999997    2.64000010
   15.11916637   79.71749878    0.58999997    2.64000010
   15.12222195   83.62329865    0.58999997    2.64000010
   15.12472248   82.10430145    0.76999998    2.64000010
   15.12722206   85.44370270    0.80000001    2.64000010
   15.13166714   84.93139648    1.34000003    2.66000009
   15.13555527   88.99610138    0.98000002    2.64000010
   15.13944435   84.48429871    0.88000000    2.64000010
   15.14277744   82.23709869    0.86000001    2.61999989
   15.14583302   82.18280029    0.86000001    2.61999989
   15.14916611   85.45089722    0.86000001    2.61999989
   15.15472221   85.45089722    0.80000001    2.64000010
   15.15861034   81.90550232    0.75000000    2.61999989
   15.16194439   84.65910339    0.75000000    2.64000010
   15.16527748   86.47489929    0.76999998    2.64000010
   15.16833401   82.97170258    0.76999998    2.64000010
   15.17166710   82.98110199    0.79000002    2.64000010
   15.17472267   82.39600372    0.79000002    2.64000010
   15.17805576   92.09780121    0.75000000    2.64000010
   15.18138885   90.87609863    0.75000000    2.64000010
   15.18444443   87.16739655    0.73000002    2.64000010
   15.18777752   91.05470276    0.73000002    2.64000010
   15.19083309   86.13960266    0.73000002    2.64000010
   15.19138908   88.53749847    0.73000002    2.64000010
   15.19750023   88.53749847    0.69000000    2.64000010
   15.20166683   94.97820282    0.67000002    2.64000010
   15.20472240   90.81369781    0.67000002    2.64000010
   15.20805550   92.33409882    0.64999998    2.64000010
   15.21138859   81.43099976    0.64999998    2.64000010
   15.21444416   85.52660370    0.67000002    2.64000010
   15.21777725   92.15730286    0.70999998    2.64000010
   15.22083282   87.57460022    0.70999998    2.64000010
   15.22416592   87.65799713    0.70999998    2.64000010
   15.22472191   87.66059875    0.70999998    2.64000010
   15.22777748   86.82489777    0.73000002    2.64000010
   15.23111057   90.09760284    0.73000002    2.64000010
   15.23416710   88.24130249    0.70999998    2.64000010
   15.24027824   88.24130249    0.70999998    2.64000010
   15.24444485   89.39379883    0.70999998    2.64000010
   15.24777794   88.81210327    0.69000000    2.64000010
   15.25083351   90.85780334    0.69000000    2.64000010
   15.25416660   89.74610138    0.67000002    2.64000010
   15.25722218   90.66979980    0.69000000    2.64000010
   15.25833321   83.52829742    0.69000000    2.64000010
   15.26083374   87.80740356    0.67000002    2.64000010
   15.26472187   87.55310059    0.67000002    2.64000010
   15.26805496   85.82430267    0.64999998    2.64000010
   15.27111053   84.83020020    0.64999998    2.64000010
   15.27444458   85.61750031    0.64999998    2.64000010
   15.27777767   85.96829987    0.67000002    2.64000010
   15.28305531   85.96829987    0.67000002    2.64000010
   15.28722286   84.71600342    0.67000002    2.64000010
   15.29055595   84.67610168    0.67000002    2.64000010
   15.29166698   85.27670288    0.67000002    2.64000010
   15.29416752   84.65670013    0.67000002    2.66000009
   15.29750061   87.28880310    0.67000002    2.64000010
   15.30055618   90.88379669    0.67000002    2.64000010
   15.30388927   85.12049866    0.67000002    2.64000010
   15.30722237   84.06199646    0.67000002    2.64000010
   15.31027794   86.98629761    0.67000002    2.64000010
   15.31361103   85.69210052    0.67000002    2.64000010
   15.31666660   83.70020294    0.67000002    2.66000009
   15.31999969   90.90560150    0.64999998    2.64000010
   15.32611084   90.90560150    0.63000000    2.64000010
   15.32999992   91.37300110    0.63000000    2.64000010
   15.33333302   83.24819946    0.63000000    2.64000010
   15.33666611   84.99279785    0.61000001    2.64000010
   15.33972168   89.07299805    0.61000001    2.66000009
   15.34305477   83.91100311    0.63000000    2.66000009
   15.34611034   85.58149719    0.63000000    2.64000010
   15.34944439   85.22039795    0.63000000    2.66000009
   15.35277843   84.43669891    0.63000000    2.64000010
   15.35583401   84.76159668    0.63000000    2.64000010
   15.35805607   85.60720062    0.61000001    2.64000010
   15.35944462   82.91100311    0.61000001    2.64000010
   15.36277771   85.40889740    0.58999997    2.64000010
   15.36888885   85.40889740    0.58999997    2.66000009
   15.37305546   82.43599701    0.58999997    2.64000010
   15.37611103   80.73590088    0.58999997    2.64000010
   15.37944412   84.02459717    0.61000001    2.66000009
   15.38277817   82.30509949    0.61000001    2.64000010
   15.38611126   80.25509644    0.61000001    2.66000009
   15.38916683   92.20680237    0.70999998    2.66000009
   15.39166641   81.11669922    0.70999998    2.64000010
   15.39277744   83.45050049    0.69000000    2.64000010
   15.39611053   83.19139862    0.63000000    2.64000010
   15.39916611   86.79989624    0.63000000    2.64000010
   15.40249920   84.56829834    0.61000001    2.64000010
   15.40555477   81.67040253    0.58999997    2.66000009
   15.41166592   81.67040253    4.90999985    2.36999989
   15.41583252   88.33540344    4.90999985    2.23000002
   15.41916656   87.24189758    0.58999997    2.66000009
   15.42222214   87.89099884    0.80000001    2.66000009
   15.42500019   93.98860168    4.90999985    2.51999998
   15.42583370  117.46399689    4.90999985    2.51999998
   15.42916679   86.51290131    4.90999985    2.36999989
   15.43222237   88.02410126    4.90999985    2.69000006
   15.43555546   83.62239838    0.75000000    2.64000010
   15.43861103   85.41439819    0.75000000    2.64000010
   15.44194412   81.53330231    0.75000000    2.66000009
   15.44527817   83.41889954    0.64999998    2.66000009
   15.44833374   89.39340210    0.81999999    2.66000009
   15.45444393   89.39340210    4.90999985    2.39000010
   15.45861053   85.89270020    4.90999985    2.69000006
   15.46194458   84.37999725    0.55000001    2.64000010
   15.46500015   88.35430145    0.52999997    2.64000010
   15.46833324   82.53220367    0.52999997    2.66000009
   15.47138882   84.88400269    0.52999997    2.66000009
   15.47472191   83.86589813    0.52999997    2.64000010
   15.47805500   85.51650238    0.52999997    2.66000009
   15.48111057   88.25599670    0.52999997    2.64000010
   15.48444462   84.67590332    0.51999998    2.66000009
   15.48750019   88.77069855    0.51999998    2.67000008
   15.49083328   85.17620087    0.51999998    2.66000009
   15.49166679   84.64929962    0.51999998    2.66000009
   15.49750042   84.64929962    0.52999997    2.67000008
   15.50138855   85.90720367    0.51999998    2.66000009
   15.50472260   85.63899994    0.52999997    2.66000009
   15.50805569   87.80899811    0.52999997    2.66000009
   15.51111126   83.54709625    0.52999997    2.66000009
   15.51444435   89.77790070    0.51999998    2.66000009
   15.51749992   80.36849976    0.51999998    2.66000009
   15.52083302   89.99819946    0.51999998    2.66000009
   15.52416611   86.95670319    0.51999998    2.66000009
   15.52499962   79.93479919    0.51999998    2.66000009
   15.52750015   82.46150208    0.51999998    2.66000009
   15.53083324   89.89199829    0.51999998    2.66000009
   15.53388977   82.77790070    0.50000000    2.67000008
   15.54027843   82.77790070    0.51999998    2.64000010
   15.54444504   87.55639648    0.51999998    2.66000009
   15.54750061   90.86820221    0.47999999    2.66000009
   15.55083370   92.67169952    0.47999999    2.66000009
   15.55388927   85.73899841    0.46000001    2.67000008
   15.55722237   83.23719788    0.47999999    2.66000009
   15.55833340   86.95950317    0.44000000    2.67000008
   15.56083393   86.16670227    0.44000000    2.66000009
   15.56416702   92.15209961    0.44000000    2.67000008
   15.56722260   86.45549774    0.44000000    2.66000009
   15.57055569   84.25109863    0.44000000    2.66000009
   15.57361126   93.82289886    0.44000000    2.66000009
   15.57694435   84.72630310    0.44000000    2.66000009
   15.58305550   84.72630310    0.44000000    2.66000009
   15.58722210   86.80110168    0.46000001    2.66000009
   15.59055519   84.61019897    0.46000001    2.66000009
   15.59166622   90.86630249    0.46000001    2.66000009
   15.59388828   90.16529846    0.46000001    2.67000008
   15.59722233   83.97959900    0.44000000    2.67000008
   15.60027790   78.90149689    0.44000000    2.66000009
   15.60361195   88.89459991    0.44000000    2.66000009
   15.60694504   89.78900146    0.44000000    2.66000009
   15.61000061   84.81890106    0.44000000    2.67000008
   15.61333370   94.39170074    0.41999999    2.66000009
   15.61638927   85.42729950    0.44000000    2.67000008
   15.61972237   86.13339996    0.41999999    2.66000009
   15.62583351   86.13339996    0.41999999    2.67000008
   15.63000011   94.06289673    0.44000000    2.67000008
   15.63333321   84.54869843    0.44000000    2.67000008
   15.63666630   82.86190033    0.44000000    2.66000009
   15.63972187   79.38099670    0.44000000    2.66000009
   15.64305496   89.59729767    0.44000000    2.67000008
   15.64611053   90.25810242    0.44000000    2.67000008
   15.64944458   86.06860352    0.44000000    2.67000008
   15.65277767   86.05269623    0.44000000    2.67000008
   15.65583324   80.46179962    0.44000000    2.67000008
   15.65833282   79.74430084    0.44000000    2.66000009
   15.65944386   87.64900208    0.44000000    2.66000009
   15.66277695   88.06600189    0.44000000    2.66000009
   15.66888905   88.06600189    0.44000000    2.67000008
   15.67305565   84.54750061    0.44000000    2.67000008
   15.67611122   84.20950317    0.41999999    2.67000008
   15.67944431   86.64459991    0.41999999    2.67000008
   15.68249989   81.73629761    0.40000001    2.67000008
   15.68583298   71.67420197    0.40000001    2.67000008
   15.68916702   82.51460266    0.40000001    2.66000009
   15.69166660   80.06950378    0.40000001    2.67000008
   15.69277763   84.76480103    0.40000001    2.67000008
   15.69611073   80.70929718    0.40000001    2.67000008
   15.69916630   85.59809875    0.40000001    2.67000008
   15.70249939   80.61250305    0.40000001    2.66000009
   15.70583344   85.54440308    0.40000001    2.66000009
   15.71166611   85.54440308    0.41999999    2.67000008
   15.71583271   82.41840363    0.41999999    2.67000008
   15.71888828   85.92819977    0.41999999    2.67000008
   15.72222137   82.27729797    0.41999999    2.67000008
   15.72499943   83.29709625    0.41999999    2.67000008
   15.72583294   80.47509766    0.41999999    2.67000008
   15.72916603   89.97940063    0.44000000    2.67000008
   15.73249912   83.55159760    0.44000000    2.67000008
   15.73583317   82.14379883    0.44000000    2.67000008
   15.73916721   83.18740082    0.44000000    2.67000008
   15.74222279   82.23850250    0.44000000    2.67000008
   15.74555588   89.38339996    0.44000000    2.67000008
   15.74861145   86.45420074    0.44000000    2.67000008
   15.75444412   86.45420074    0.44000000    2.66000009
   15.75861073   81.30220032    0.44000000    2.66000009
   15.76194477   86.02130127    0.44000000    2.67000008
   15.76500034   82.11440277    0.44000000    2.67000008
   15.76833344   81.10050201    0.44000000    2.67000008
   15.77138901   82.55989838    0.44000000    2.67000008
   15.77472210   86.65000153    0.44000000    2.67000008
   15.77805519   78.64019775    0.44000000    2.67000008
   15.78111076   80.92810059    0.41999999    2.67000008
   15.78444481   84.74600220    0.41999999    2.67000008
   15.78777790   84.71340179    0.41999999    2.67000008
   15.79083347   84.76090240    0.41999999    2.66000009
   15.79166698   85.79820251    0.41999999    2.66000009
   15.79750061   85.79820251    0.41999999    2.67000008
   15.80166721   85.19629669    0.41999999    2.66000009
   15.80472279   87.14340210    0.41999999    2.67000008
   15.80805588   89.46130371    0.41999999    2.67000008
   15.81138897   85.71540070    0.41999999    2.67000008
   15.81444454   87.42060089    0.41999999    2.67000008
   15.81777763   85.25599670    0.40000001    2.67000008
   15.82083321   83.54070282    0.40000001    2.67000008
   15.82416630   86.28839874    0.38000000    2.67000008
   15.82499981   87.85150146    0.38000000    2.67000008
   15.82777786   86.90570068    0.38000000    2.67000008
   15.83111095   80.23609924    0.36000001    2.67000008
   15.83472157   88.29340363    0.36000001    2.67000008
   15.84111118   88.29340363    0.36000001    2.69000006
   15.84527779   92.23159790    0.36000001    2.67000008
   15.84833336   86.14669800    0.36000001    2.67000008
   15.85166740   82.71109772    0.36000001    2.67000008
   15.85500050   82.42089844    0.36000001    2.67000008
   15.85805607   86.21420288    0.36000001    2.67000008
   15.85861111   84.54419708    0.36000001    2.67000008
   15.86194515   79.36750031    0.36000001    2.67000008
   15.86500072   87.00170135    0.36000001    2.67000008
   15.86833382   83.56369781    0.36000001    2.67000008
   15.87166691   80.89309692    0.36000001    2.67000008
   15.87472248   88.04850006    0.36000001    2.69000006
   15.87805557   91.35420227    0.36000001    2.67000008
   15.88305569   91.35420227    0.36000001    2.67000008
   15.88722229   86.57430267    0.36000001    2.67000008
   15.89027786   84.17900085    0.36000001    2.67000008
   15.89194393   86.94840240    0.38000000    2.69000006
   15.89388847   90.55319977    0.38000000    2.69000006
   15.89694405   86.36650085    0.38000000    2.67000008
   15.90027714   88.56990051    0.38000000    2.67000008
   15.90361118   82.87619781    0.38000000    2.67000008
   15.90694427   81.17749786    0.38000000    2.69000006
   15.90999985   81.16750336    0.51999998    2.67000008
   15.91333294   85.66040039    0.51999998    2.67000008
   15.91638851   91.51719666    0.40000001    2.67000008
   15.91972256   90.62500000    0.40000001    2.67000008
   15.92583370   90.62500000    0.41999999    2.67000008
   15.93000031   86.18750000    0.41999999    2.67000008
   15.93333340   84.13490295    0.41999999    2.67000008
   15.93638897   79.58290100    0.41999999    2.67000008
   15.93972206   83.65339661    0.41999999    2.67000008
   15.94277763   86.86589813    0.40000001    2.69000006
   15.94611073   80.33599854    0.41999999    2.67000008
   15.94944477   76.24279785    0.40000001    2.69000006
   15.95249939   82.75469971    0.40000001    2.67000008
   15.95583344   80.62539673    0.40000001    2.67000008
   15.95861053   83.35749817    0.40000001    2.66000009
   15.95944405   74.08779907    0.41999999    2.67000008
   15.96249962   84.67520142    0.41999999    2.67000008
   15.96861076   84.67520142    0.40000001    2.67000008
   15.97277737   81.40470123    0.40000001    2.67000008
   15.97611046   82.65239716    0.41999999    2.67000008
   15.97944355   80.68720245    0.44000000    2.67000008
   15.98249912   85.66239929    0.46000001    2.67000008
   15.98583317   82.37159729    0.41999999    2.67000008
   15.98888874   81.00740051    0.41999999    2.67000008
   15.99194431   85.34490204    0.40000001    2.67000008
   15.99277782   86.68959808    0.40000001    2.67000008
   15.99611092   85.48130035    0.40000001    2.67000008
   15.99916649   83.42900085    0.40000001    2.67000008
   16.00250053   85.83409882    0.38000000    2.67000008
   16.00555611   88.06069946    0.40000001    2.67000008
   16.01166725   88.06069946    0.40000001    2.66000009
   16.01583290   88.68399811    0.40000001    2.66000009
   16.01888847   86.70960236    0.41999999    2.67000008
   16.02222252   85.88939667    0.44000000    2.66000009
   16.02527809   84.09929657    0.44000000    2.67000008
   16.02583313   86.64859772    0.41999999    2.67000008
   16.02916718   90.13559723    0.41999999    2.66000009
   16.03222275   84.27349854    0.44000000    2.67000008
   16.03555489   89.71790314    0.44000000    2.67000008
   16.03861046   91.61499786    0.47999999    2.67000008
   16.04194450   92.30490112    0.47999999    2.67000008
   16.04527664   85.44429779    0.47999999    2.67000008
   16.04833221   88.93080139    0.47999999    2.67000008
   16.05444336   88.93080139    1.09000003    2.64000010
   16.05861092   86.33319855    1.01999998    2.64000010
   16.05916595   91.52980042    1.00000000    2.66000009
   16.06222153   84.34999847    0.89999998    2.67000008
   16.06555557   88.18609619    0.61000001    2.67000008
   16.06888962   89.15579987    0.55000001    2.67000008
   16.07194519   83.62740326    0.56999999    2.67000008
   16.07527924   85.63659668    0.63000000    2.67000008
   16.07833481   78.83650208    0.56999999    2.67000008
   16.08166695   85.09470367    0.56999999    2.66000009
   16.08500099   86.05609894    0.69000000    2.67000008
   16.08805656   91.61160278    0.58999997    2.66000009
   16.09138870   85.79370117    0.50000000    2.67000008
   16.10861206   82.63220215    0.47999999    2.67000008
   16.11277771   82.63220215    0.50000000    2.67000008
   16.11694527   79.65270233    0.55000001    2.67000008
   16.12027740   83.45600128    0.55000001    2.67000008
   16.12361145   86.02439880    0.56999999    2.67000008
   16.12666702   82.92259979    0.58999997    2.67000008
   16.13000107   85.28320313    0.56999999    2.67000008
   16.13305473   84.27829742    0.58999997    2.67000008
   16.13638878   87.09079742    0.69000000    2.66000009
   16.13972282   82.43869781    0.73000002    2.66000009
   16.14194489   83.76989746    0.73000002    2.66000009
   16.14333344   87.30590057    0.73000002    2.66000009
   16.14638901   82.85929871    0.73000002    2.67000008
   16.14972115   89.58830261    0.63000000    2.66000009
   16.15583229   89.58830261    0.63000000    2.67000008
   16.15972137   91.52880096    0.67000002    2.67000008
   16.16305542   80.25330353    1.03999996    2.67000008
   16.16638756   83.48010254    1.07000005    2.67000008
   16.16944313   88.90720367    1.41999996    2.66000009
   16.17277718   85.68820190    1.63000000    2.66000009
   16.17527771   82.73889923    1.66999996    2.64000010
   16.17638779   80.28060150    1.94000006    2.64000010
   16.17944336   87.52490234    2.66000009    2.64000010
   16.18277740   86.07199860    2.82999992    2.64000010
   16.18610954   83.69470215    3.07999992    2.59999990
   16.18916512   79.92009735    3.28999996    2.59999990
   16.19249916   83.34590149    3.20000005    2.61999989
   16.19861031   83.34590149    2.91000009    2.61999989
   16.20277786   87.22200012    3.70000005    2.64000010
   16.20583344   97.79889679    4.90999985    2.48000002
   16.20861244   94.63020325    4.90999985    2.46000004
   16.20972252   86.24359894    4.90999985    2.40000010
   16.21277809   80.55819702    4.90999985    2.55999994
   16.21611214   87.15419769    4.90999985    2.57999992
   16.21944427   87.61789703    4.90999985    2.53999996
   16.22249985   97.32689667    4.90999985    2.42000008
   16.22583389   93.74150085    4.90999985    2.13000011
   16.22916794   85.90579987    4.90999985    2.46000004
   16.23222351   80.71970367    4.90999985    2.61999989
   16.23555565   80.75920105    3.48000002    2.61999989
   16.24138832   80.75920105    2.89000010    2.64000010
   16.24555588   87.76069641    4.19999981    2.64000010
   16.24888992   85.97560120    4.73999977    2.64000010
   16.25194359   85.54530334    4.90999985    2.64000010
   16.25527763   89.31439972    4.90999985    2.59999990
   16.25833321   89.46479797    4.90999985    2.55999994
   16.26166725   88.47840118    4.90999985    2.51999998
   16.26499939   89.94229889    4.90999985    2.44000006
   16.26805496   87.61920166    4.90999985    2.42000008
   16.27138901   93.33979797    4.90999985    2.51999998
   16.27472115   89.57510376    4.90999985    2.55999994
   16.27638817   96.46739960    4.90999985    2.51999998
   16.27833366   88.94090271    4.90999985    2.50000000
   16.28416634   88.94090271    4.90999985    2.50000000
   16.28833199   84.29669952    4.90999985    2.55999994
   16.29166603   94.79489899    4.90999985    2.55999994
   16.29472160  107.52200317    4.90999985    2.44000006
   16.29805565   95.69640350    4.90999985    2.32999992
   16.30138779  104.46700287    4.90999985    2.53999996
   16.30444336  118.26300049    4.90999985    2.34999990
   16.30777740   92.07129669    4.90999985    1.98000002
   16.30972099  101.49400330    4.90999985    2.61999989
   16.31138802   92.05970001    4.90999985    2.66000009
   16.31472206  109.43499756    4.90999985    2.55999994
   16.31777954   89.61380005    4.90999985    2.67000008
   16.32111168   84.77169800    4.90999985    2.66000009
   16.32722282   84.77169800    4.90999985    2.66000009
   16.33111191   84.35749817    4.90999985    2.69000006
   16.33444595   87.36219788    4.90999985    2.55999994
   16.33777809   94.17639923    4.57999992    2.59999990
   16.34083366   85.89669800    3.18000007    2.59999990
   16.34333420   93.28309631    4.53000021    2.64000010
   16.34472275   92.17929840    4.90999985    2.64000010
   16.34777832   90.72930145    4.90999985    2.64000010
   16.35111237   94.12920380    4.90999985    2.61999989
   16.35416794   86.35340118    4.90999985    2.59999990
   16.35750008   -1.00000000    4.90999985    1.80999994
   16.36083412  188.39799500    4.90999985    1.46000004
   16.36388969   -1.00000000    4.90999985    1.26999998
   16.37000084   -1.00000000    4.90999985    1.13000000
   16.37416649   51.84109879    4.90999985    1.80999994
   16.37666702  122.14399719    4.90999985    1.50000000
   16.37777710  124.22599792    4.90999985    1.51999998
   16.38083267  104.59899902    4.90999985    2.55999994
   16.38416672   85.68560028    4.90999985    2.64000010
   16.38750076   98.75360107    4.90999985    2.66000009
   16.39055634  131.93800354    4.90999985    2.40000010
   16.39388847   -1.00000000    4.90999985    1.73000002
   16.39694405   -1.00000000    4.90999985    0.47999999
   16.40027809   -1.00000000    4.90999985    0.17000000
   16.40361023   -1.00000000    4.90999985    0.15000001
   16.40666580   -1.00000000    4.90999985    0.13000000
   16.41694450   -1.00000000    4.90999985    0.23000000
   16.42000008   -1.00000000    4.90999985    0.25999999
   16.42333221   -1.00000000    4.90999985    0.28000000
   16.42638779   -1.00000000    4.90999985    0.40000001
   16.42972183   -1.00000000    4.90999985    0.86000001
   16.43305397   -1.00000000    4.90999985    0.73000002
   16.43610954   -1.00000000    4.90999985    0.47999999
   16.43944359   -1.00000000    4.90999985    0.28000000
   16.44277763   -1.00000000    4.90999985    0.56999999
   16.44638824   -1.00000000    4.90999985    0.73000002
   16.44944382   -1.00000000    4.90999985    0.20999999
   16.45972252   -1.00000000    4.90999985    0.07000000
   16.46305656   -1.00000000    4.90999985    0.07000000
   16.46611214   -1.00000000    4.90999985    0.07000000
   16.46944427   -1.00000000    4.90999985    0.09000000
   16.47249985   -1.00000000    4.90999985    0.11000000
   16.47583389   -1.00000000    4.90999985    0.17000000
   16.47944450   -1.00000000    4.90999985    0.25000000
   16.48250008   -1.00000000    4.90999985    0.28000000
   16.48583412   -1.00000000    4.90999985    0.55000001
   16.48888969   -1.00000000    4.90999985    0.40000001
   16.49222183   -1.00000000    4.90999985    0.47999999
   16.50250053   -1.00000000    4.90999985    0.30000001
   16.50583267   -1.00000000    4.90999985    0.79000002
   16.50888824   -1.00000000    4.90999985    0.55000001
   16.51250076   -1.00000000    4.90999985    0.40000001
   16.51583290   -1.00000000    4.90999985    0.44000000
   16.51916695   -1.00000000    4.90999985    0.56999999
   16.52222252   -1.00000000    4.90999985    0.79000002
   16.52555466   -1.00000000    4.90999985    0.88000000
   16.52888870  176.40899658    4.90999985    1.76999998
   16.53194427  125.99900055    4.90999985    2.42000008
   16.53527641   97.31269836    4.90999985    2.17000008
   16.54138756   97.31269836    4.90999985    2.50000000
   16.54555511   96.71379852    4.90999985    2.28999996
   16.54861069   93.92379761    4.90999985    2.25000000
   16.55194283  102.03199768    4.90999985    2.26999998
   16.55527687  103.65699768    4.90999985    2.25000000
   16.55833244   93.00060272    4.90999985    2.36999989
   16.56166649   84.95700073    4.90999985    2.57999992
   16.56472206   83.21109772    4.90999985    2.61999989
   16.56805611   88.37830353    4.84999990    2.64000010
   16.57139015   90.12010193    4.90999985    2.53999996
   16.57444572   87.77839661    4.90999985    2.50000000
   16.57722282   91.99019623    4.90999985    2.44000006
   16.57833481   93.59929657    4.90999985    2.42000008
   16.58416748   93.59929657    4.90999985    2.51999998
   16.58833313   94.39640045    4.90999985    2.48000002
   16.59166718   89.33540344    4.90999985    2.59999990
   16.59472275   88.94000244    4.90999985    2.55999994
   16.59805679   92.32859802    4.90999985    2.50000000
   16.60111237   90.85479736    4.90999985    2.57999992
   16.60444450   93.66139984    4.90999985    2.55999994
   16.60777855   92.19300079    4.90999985    2.53999996
   16.61055565   86.23570251    4.90999985    2.57999992
   16.61138916   81.73000336    4.90999985    2.61999989
   16.61444473   87.46109772    3.76999998    2.59999990
   16.61777878   88.51280212    3.46000004    2.64000010
   16.62111092   85.88929749    2.96000004    2.66000009
   16.62694550   85.88929749    2.59999990    2.64000010
   16.63111115   82.65180206    2.48000002    2.66000009
   16.63444519   84.69059753    2.11999989    2.66000009
   16.63750076   81.57019806    1.98000002    2.66000009
   16.64083290   78.18609619    1.89999998    2.66000009
   16.64388847   77.48280334    1.94000006    2.66000009
   16.64444351   83.59040070    1.89999998    2.66000009
   16.64749908   82.64340210    1.60000002    2.66000009
   16.65083313   81.44419861    1.44000006    2.66000009
   16.65416718   80.74929810    1.33000004    2.67000008
   16.65722275   90.18730164    1.05999994    2.67000008
   16.66055489   80.57140350    0.95999998    2.69000006
   16.66388893   84.23259735    0.88000000    2.69000006
   16.67000008   84.23259735    0.81999999    2.67000008
   16.67388916   85.85150146    0.79000002    2.67000008
   16.67722130   87.62719727    0.79000002    2.67000008
   16.67777634   86.72460175    0.79000002    2.67000008
   16.68111038   83.12129974    0.80000001    2.69000006
   16.68416595   85.06610107    0.80000001    2.67000008
   16.68750000   86.03559875    0.80000001    2.67000008
   16.69055557   82.32270050    0.81999999    2.69000006
   16.69388771   87.81569672    0.80000001    2.67000008
   16.69722176   86.76219940    0.81999999    2.69000006
   16.70027924   91.50700378    0.81999999    2.67000008
   16.70361137   90.20610046    0.86000001    2.67000008
   16.70694542   83.52140045    0.81999999    2.67000008
   16.71277809   83.52140045    0.70999998    2.69000006
   16.71694565   82.88890076    0.56999999    2.69000006
   16.72000122   83.37490082    0.51999998    2.69000006
   16.72333336   91.87229919    0.50000000    2.69000006
   16.72666740   90.66419983    0.50000000    2.69000006
   16.72972298   86.67289734    0.55000001    2.69000006
   16.73305511   90.49520111    0.56999999    2.69000006
   16.73611069   83.14990234    0.50000000    2.69000006
   16.73944473   86.21810150    0.50000000    2.69000006
   16.74277878   87.08339691    0.50000000    2.67000008
   16.74388885   86.04789734    0.50000000    2.67000008
   16.74638939   87.02310181    0.50000000    2.69000006
   16.74972153   85.50099945    0.50000000    2.69000006
   16.75555611   85.50099945    0.81999999    2.67000008
   16.75972176   86.34590149    1.48000002    2.69000006
   16.76305580   84.64579773    2.19000006    2.66000009
   16.76611137   83.54409790    3.18000007    2.66000009
   16.76944351   87.97619629    4.90999985    2.64000010
   16.77249908   89.65859985    4.90999985    2.25000000
   16.77583313   89.67890167    4.90999985    2.46000004
   16.77722168   91.78949738    4.90999985    2.46000004
   16.77944374   82.42520142    4.90999985    2.46000004
   16.78277779   87.11309814    4.90999985    2.55999994
   16.78583336   87.10959625    4.76000023    2.61999989
   16.78916550   83.11750031    3.46000004    2.67000008
   16.79222107   86.54100037    2.23000002    2.64000010
   16.79833221   86.54100037    1.25000000    2.67000008
   16.80249977   92.16560364    1.09000003    2.67000008
   16.80583191   80.47409821    0.83999997    2.67000008
   16.80888748   83.28769684    0.70999998    2.69000006
   16.81083298   89.61540222    0.75000000    2.67000008
   16.81277657   84.32759857    0.67000002    2.67000008
   16.81583214   86.02790070    0.58999997    2.67000008
   16.81916809   80.52259827    0.50000000    2.67000008
   16.82250023   82.67720032    0.47999999    2.67000008
   16.82555580   82.07440186    0.46000001    2.69000006
   16.82888985   84.55110168    0.44000000    2.69000006
   16.83194542   81.81030273    0.47999999    2.69000006
   16.83527756   85.44570160    0.47999999    2.69000006
   16.84138870   85.44570160    0.50000000    2.69000006
   16.84527779   84.80139923    0.47999999    2.69000006
   16.84861183   81.95259857    0.44000000    2.69000006
   16.85194397   81.71559906    0.44000000    2.69000006
   16.85499954   84.10849762    0.44000000    2.69000006
   16.85833359   81.91860199    0.41999999    2.69000006
   16.86166763   82.51249695    0.44000000    2.69000006
   16.86472321   84.28520203    0.44000000    2.69000006
   16.86805534   82.34149933    0.44000000    2.69000006
   16.87111092   86.01609802    0.44000000    2.69000006
   16.87444496   81.84680176    0.47999999    2.69000006
   16.87750053   83.18849945    0.47999999    2.69000006
   16.87833405   88.87539673    0.47999999    2.69000006
   16.88416672   88.87539673    0.50000000    2.69000006
   16.88833237   93.89379883    0.47999999    2.69000006
   16.89138794   84.66649628    0.47999999    2.69000006
   16.89472198   82.04650116    0.47999999    2.67000008
   16.89805603   90.24829865    0.47999999    2.67000008
   16.90111160   85.15180206    0.50000000    2.69000006
   16.90444374   86.84899902    0.47999999    2.69000006
   16.90749931   85.89309692    0.63000000    2.69000006
   16.91083336   82.81369781    0.69000000    2.67000008
   16.91138840   80.91899872    0.94000000    2.69000006
   16.91444397   93.09380341    0.98000002    2.67000008
   16.91777802   83.21330261    1.26999998    2.67000008
   16.92111015   85.12490082    1.28999996    2.67000008
   16.92694473   85.12490082    1.14999998    2.67000008
   16.93111038   88.05319977    0.95999998    2.69000006
   16.93444443   83.61199951    0.95999998    2.67000008
   16.93750000   86.10679626    0.94000000    2.69000006
   16.94083214   89.27380371    1.19000006    2.67000008
   16.94388771   90.72209930    0.94000000    2.69000006
   16.94444275   90.77079773    0.94000000    2.69000006
   16.94777679   82.35870361    1.05999994    2.67000008
   16.95111275   94.61499786    0.89999998    2.69000006
   16.95416832   93.20099640    0.89999998    2.67000008
   16.95750046   90.47679901    0.89999998    2.67000008
   16.96083450   87.15329742    0.95999998    2.69000006
   16.96389008   82.38999939    0.98000002    2.69000006
   16.96972275   82.38999939    0.86000001    2.69000006
   16.97389030   89.46929932    0.86000001    2.69000006
   16.97722244   88.88500214    0.86000001    2.69000006
   16.97777748   88.11609650    0.86000001    2.69000006
   16.98083305   92.95999908    0.86000001    2.69000006
   16.98416710   88.64479828    0.88000000    2.69000006
   16.98722267   90.29450226    0.88000000    2.69000006
   16.99055672   87.22460175    1.11000001    2.69000006
   16.99388885   87.35330200    0.89999998    2.64000010
   16.99694443   81.66049957    0.95999998    2.69000006
   17.00027847   96.29859924    1.14999998    2.69000006
   17.00361061   85.57610321    2.50000000    2.67000008
   17.00666618   86.09290314    3.93000007    2.69000006
   17.01277733   86.09290314    1.69000006    2.69000006
   17.01666641   82.81549835    1.71000004    2.67000008
   17.02000046   87.09040070    4.78000021    2.71000004
   17.02333260   98.23780060    4.90999985    2.55999994
   17.02638817  104.21099854    4.90999985    2.59999990
   17.02972221   83.14939880    4.90999985    2.13000011
   17.03305435   -1.00000000    4.90999985    2.15000010
   17.03610992   -1.00000000    4.90999985    0.67000002
   17.03944397  126.70700073    4.90999985    1.66999996
   17.04249954   84.72250366    4.90999985    2.00000000
   17.04444313  180.25599670    4.90999985    2.55999994
   17.04611015   -1.00000000    4.90999985    2.01999998
   17.04944420   -1.00000000    4.90999985    1.11000001
   17.05555534   -1.00000000    4.90999985    2.23000002
   17.05972099  140.28500366    4.90999985    2.07999992
   17.06277657   -1.00000000    4.90999985    1.26999998
   17.06611061   -1.00000000    4.90999985    0.28000000
   17.06916809   -1.00000000    4.90999985    0.15000001
   17.07250023   -1.00000000    4.90999985    0.11000000
   17.07583427   -1.00000000    4.90999985    0.07000000
   17.07944489   -1.00000000    4.90999985    0.07000000
   17.08250046   -1.00000000    4.90999985    0.07000000
   17.08583450   -1.00000000    4.90999985    0.09000000
   17.08916664   -1.00000000    4.90999985    0.13000000
   17.09222221   -1.00000000    4.90999985    0.17000000
   17.09833336   -1.00000000    4.90999985    0.88000000
   17.10250092  104.02400208    4.90999985    1.21000004
   17.10555649   -1.00000000    4.90999985    0.70999998
   17.10888863   -1.00000000    4.90999985    0.46000001
   17.12583351   93.45429993    4.90999985    2.07999992
   17.12888908   92.86930084    4.90999985    2.59999990
   17.13222313   87.27369690    4.90999985    2.59999990
   17.13527679   84.74610138    4.59999990    2.67000008
   17.14138794   84.74610138    4.76000023    2.69000006
   17.14555550   93.27819824    4.51000023    2.69000006
   17.14861107   93.31839752    4.90999985    2.67000008
   17.15194321   91.60579681    4.90999985    2.66000009
   17.15527725   83.00650024    4.90999985    2.67000008
   17.15833282   86.40869904    4.90999985    2.67000008
   17.15916634   90.45050049    4.88999987    2.67000008
   17.16222191   94.98999786    3.89000010    2.66000009
   17.16527748   86.37760162    4.13999987    2.66000009
   17.16860962   90.95030212    4.90999985    2.67000008
   17.17166519   89.52980042    4.90999985    2.71000004
   17.17499924   93.60130310    4.90999985    2.64000010
   17.17833328   87.31220245    4.90999985    2.66000009
   17.18416595   87.31220245    2.34999990    2.66000009
   17.18833160   90.50980377    2.25000000    2.64000010
   17.19166565   86.52269745    2.13000011    2.61999989
   17.19249916   92.17649841    1.98000002    2.61999989
   17.19527626   89.09809875    1.66999996    2.64000010
   17.19833183   86.44339752    1.53999996    2.64000010
   17.20166779   82.25420380    1.38000000    2.67000008
   17.20499992   95.73719788    1.44000006    2.67000008
   17.20805550   88.94920349    1.44000006    2.67000008
   17.30777740   -1.00000000   -1.00000000   -1.00000000
   17.42972183   -1.00000000   -1.00000000   -1.00000000
   17.53388786   -1.00000000   -1.00000000   -1.00000000
   17.65916634  155.52299500    4.90999985    1.55999994
   17.66250038   -1.00000000    4.90999985    0.92000002
   17.66555595  118.98500061    4.90999985    1.00000000
   17.66888809   89.11699677    4.90999985    2.66000009
   17.67194366   91.55239868    4.90999985    2.61999989
   17.67527771   87.57450104    4.90999985    2.61999989
   17.67944336   87.57450104    4.90999985    2.57999992
   17.68361092   85.21569824    4.90999985    2.51999998
   17.68694305   76.88929749    4.90999985    2.66000009
   17.68999863   82.67430115    4.90999985    2.64000010
   17.69249916   88.87059784    4.90999985    2.51999998
   17.69361115   78.34559631    4.90999985    2.48000002
   17.69666672   84.12010193    4.90999985    2.55999994
   17.70000076   80.03669739    4.90999985    2.57999992
   17.70333481   83.52159882    4.36999989    2.61999989
   17.70639038   81.26719666    4.44999981    2.66000009
   17.70972252   81.58409882    4.90999985    2.66000009
   17.71277809   87.64920044    4.90999985    2.55999994
   17.71611214   92.44869995    4.90999985    2.53999996
   17.72222328   92.44869995    4.90999985    2.59999990
   17.72638893   90.95760345    4.90999985    2.23000002
   17.72972298  182.37399292    4.90999985    2.15000010
   17.73277855  132.13200378    4.90999985    1.86000001
   17.73611069   -1.00000000    4.90999985    1.64999998
   17.73916626   -1.00000000    4.90999985    1.60000002
   17.74250031  265.64898682    4.90999985    1.80999994
   17.74583435   96.22129822    4.90999985    2.09999990
   17.74888992   87.83000183    4.90999985    2.53999996
   17.75222206   80.68029785    4.90999985    2.71000004
   17.75527763   86.84619904    4.21999979    2.69000006
   17.75861168   90.69869995    4.80999994    2.21000004
   17.75916672   89.76419830    4.73999977    2.40000010
   17.76527786   89.76419830    3.43000007    2.61999989
   17.76916695   81.18340302    2.82999992    2.66000009
   17.77249908   84.01029968    2.50000000    2.67000008
   17.77583313   78.87760162    2.28999996    2.66000009
   17.77888870   82.54260254    2.28999996    2.66000009
   17.78222275   82.05000305    2.05999994    2.67000008
   17.78527641   81.25820160    1.94000006    2.67000008
   17.78861046   85.04949951    1.85000002    2.67000008
   17.79166603   84.49849701    1.85000002    2.67000008
   17.79249954   86.02719879    1.83000004    2.67000008
   17.79555511   83.33950043    1.88000000    2.67000008
   17.79861069   84.59169769    1.89999998    2.67000008
   17.80194283   92.16339874    1.89999998    2.67000008
   17.80805397   92.16339874    2.03999996    2.67000008
   17.81222153   91.43679810    2.03999996    2.67000008
   17.81527710   81.89710236    2.17000008    2.67000008
   17.81861115   81.47170258    2.26999998    2.67000008
   17.82166672   82.68560028    2.23000002    2.67000008
   17.82500076   84.96320343    2.30999994    2.67000008
   17.82583427   88.41030121    2.11999989    2.67000008
   17.82861137   84.18830109    2.05999994    2.67000008
   17.83194542   85.96710205    2.26999998    2.67000008
   17.83527756   79.70950317    2.42000008    2.67000008
   17.83833313   84.47129822    2.48000002    2.67000008
   17.84166718   80.65049744    2.48000002    2.66000009
   17.84472275   78.74829865    2.30999994    2.67000008
   17.85083389   78.74829865    2.59999990    2.66000009
   17.85499954   80.51239777    2.30999994    2.66000009
   17.85833359   79.67050171    2.42000008    2.67000008
   17.85916710   82.95410156    2.40000010    2.66000009
   17.86194420   79.22440338    3.25000000    2.66000009
   17.86499977   79.18379974    3.43000007    2.64000010
   17.86833382   77.48639679    3.20000005    2.66000009
   17.87166595   80.12629700    3.34999990    2.64000010
   17.87472153   80.13860321    3.36999989    2.66000009
   17.87805557   80.96119690    3.01999998    2.66000009
   17.88111115   80.46330261    2.71000004    2.66000009
   17.88444519   77.03389740    2.75000000    2.66000009
   17.88777733   83.72699738    2.89000010    2.66000009
   17.89361191   83.72699738    3.11999989    2.64000010
   17.89777756   86.18119812    2.76999998    2.66000009
   17.90111160   87.28269958    2.76999998    2.67000008
   17.90416718   81.53949738    2.32999992    2.67000008
   17.90749931   77.14389801    2.57999992    2.66000009
   17.91055489   84.55590057    2.26999998    2.66000009
   17.91388893   74.76260376    2.09999990    2.67000008
   17.91722107   79.79350281    2.23000002    2.67000008
   17.92027664   78.81759644    1.80999994    2.67000008
   17.92361069   77.28019714    1.71000004    2.67000008
   17.92583275   74.86309814    2.76999998    2.67000008
   17.92722130   78.98919678    2.53999996    2.67000008
   17.93055534   84.68499756    1.96000004    2.67000008
   17.93666649   84.68499756    1.94000006    2.66000009
   17.94083214   75.01339722    1.85000002    2.67000008
   17.94388771   81.30429840    1.85000002    2.66000009
   17.94722176   77.05229950    1.85000002    2.66000009
   17.95083427   76.32869720    1.64999998    2.67000008
   17.95388985   78.70880127    2.17000008    2.67000008
   17.95722389   79.45729828    1.96000004    2.67000008
   17.95916748   75.67870331    1.86000001    2.67000008
   17.96083450   77.41400146    1.86000001    2.67000008
   17.96416664   77.83110046    2.25000000    2.69000006
   17.96722221   77.35569763    2.98000002    2.66000009
   17.97055626   78.33799744    2.96000004    2.66000009
   17.97389030   82.84770203    3.00000000    2.64000010
   17.97944450   82.84770203    2.82999992    2.64000010
   17.98361206   81.78340149    2.75000000    2.66000009
   17.98666763   83.05130005    3.09999990    2.66000009
   17.98999977   79.40470123    3.32999992    2.66000009
   17.99250031   88.51069641    3.95000005    2.64000010
   17.99361229   82.65679932    4.21999979    2.64000010
   17.99694443   83.55860138    4.86999989    2.61999989
   18.00000000   92.62429810    4.90999985    2.53999996
   18.00333405   79.89910126    4.90999985    2.46000004
   18.00638962   89.99220276    4.90999985    2.44000006
   18.00972176   98.28910065    4.90999985    2.39000010
   18.01305580   90.92849731    4.90999985    2.30999994
   18.01611137   89.23739624    4.90999985    2.36999989
   18.02222252   89.23739624    4.90999985    2.53999996
   18.02638817   80.62709808    4.90999985    2.59999990
   18.02972221   79.32039642    4.90999985    2.55999994
   18.03277779   85.73419952    4.90999985    2.48000002
   18.03610992   83.32510376    4.90999985    2.51999998
   18.03916550   81.02929688    4.90999985    2.50000000
   18.04249954   88.84349823    4.90999985    2.48000002
   18.04555511   81.63189697    4.90999985    2.48000002
   18.04888916   84.40290070    4.90999985    2.57999992
   18.05222130   91.22109985    4.36999989    2.61999989
   18.05527687   87.90260315    3.21000004    2.64000010
   18.05861092   87.98819733    2.50000000    2.66000009
   18.05916595   87.32759857    2.50000000    2.66000009
   18.06499863   87.32759857    1.80999994    2.67000008
   18.06916809   91.90339661    1.60000002    2.67000008
   18.07250023   81.74790192    1.89999998    2.66000009
   18.07555580   85.78440094    1.96000004    2.66000009
   18.07888985   84.28340149    2.01999998    2.66000009
   18.08222389   87.80940247    2.01999998    2.66000009
   18.08527756   87.59069824    2.03999996    2.66000009
   18.08861160   81.75679779    2.07999992    2.67000008
   18.09166718   80.72280121    2.07999992    2.67000008
   18.09250069   85.54949951    1.91999996    2.66000009
   18.09527779   88.18299866    1.94000006    2.66000009
   18.09861183   88.16179657    2.11999989    2.64000010
   18.10166740   84.09339905    2.32999992    2.66000009
   18.10805511   84.09339905    2.55999994    2.64000010
   18.11194420   78.03289795    2.48000002    2.64000010
   18.11527824   80.23329926    2.46000004    2.64000010
   18.11861038   80.38999939    2.34999990    2.64000010
   18.12166595   80.52950287    2.07999992    2.66000009
   18.12500000   77.61540222    1.66999996    2.67000008
   18.12583351   78.84590149    1.66999996    2.67000008
   18.12861061   84.95860291    1.48000002    2.67000008
   18.13194466   84.82810211    1.50000000    2.66000009
   18.13500023   82.61389923    1.46000004    2.67000008
   18.13833237   83.88670349    1.41999996    2.66000009
   18.14138794   76.51010132    1.34000003    2.67000008
   18.14472198   80.29290009    1.34000003    2.67000008
   18.15083313   80.29290009    1.23000002    2.66000009
   18.15499878   83.40080261    1.21000004    2.66000009
   18.15805435   84.11190033    1.25000000    2.66000009
   18.15916634   81.88300323    1.19000006    2.66000009
   18.16166687   84.33969879    1.16999996    2.66000009
   18.16499901   84.50240326    1.16999996    2.67000008
   18.16805458   81.17440033    1.16999996    2.66000009
   18.17138863   85.33950043    1.16999996    2.66000009
   18.17444420   83.88079834    1.19000006    2.67000008
   18.17777634   86.68129730    1.25000000    2.67000008
   18.18111038   80.90969849    1.25000000    2.67000008
   18.18416595   85.27310181    1.25000000    2.66000009
   18.18750000   83.78320313    1.14999998    2.67000008
   18.19361115   83.78320313    1.25000000    2.66000009
   18.19777679   84.21330261    1.21000004    2.67000008
   18.20111275   84.51660156    1.21000004    2.67000008
   18.20416832   81.79489899    1.05999994    2.66000009
   18.20750046   83.31749725    1.00000000    2.67000008
   18.21083450   87.11560059    0.98000002    2.67000008
   18.21389008   82.93090057    0.98000002    2.67000008
   18.21722221   82.63320160    0.98000002    2.67000008
   18.22027779   82.25189972    1.01999998    2.66000009
   18.22361183   85.83370209    0.95999998    2.66000009
   18.22583389   82.84279633    1.07000005    2.67000008
   18.22722244   83.49150085    1.07000005    2.67000008
   18.23055649   86.90350342    1.11000001    2.66000009
   18.23638916   86.90350342    1.11000001    2.66000009
   18.24055672   85.01999664    1.23000002    2.66000009
   18.24388885   80.93129730    1.23000002    2.66000009
   18.24694443   84.38320160    1.09000003    2.66000009
   18.25027847   80.53510284    1.05999994    2.66000009
   18.25361061   81.46990204    1.14999998    2.66000009
   18.25666618   83.70359802    1.25000000    2.66000009
   18.25916672   81.07959747    1.25000000    2.66000009
   18.26027870   80.88629913    1.38000000    2.66000009
   18.26361084   75.96669769    1.38000000    2.66000009
   18.26666641   84.45269775    1.25000000    2.66000009
   18.27000046   80.56490326    0.95999998    2.66000009
   18.27333260   80.62509918    0.98000002    2.67000008
   18.27944374   80.62509918    1.05999994    2.67000008
   18.28361130   76.64140320    1.34000003    2.66000009
   18.28666687   86.41729736    1.50000000    2.66000009
   18.28999901   84.31690216    1.64999998    2.66000009
   18.29249954   84.38310242    1.75000000    2.66000009
   18.29361153   86.33570099    1.64999998    2.66000009
   18.29694366   81.90570068    1.55999994    2.66000009
   18.29999924   76.73809814    1.55999994    2.66000009
   18.30333328   81.81690216    1.53999996    2.66000009
   18.30666542   83.90480042    1.53999996    2.66000009
   18.30972099   81.19110107    1.91999996    2.66000009
   18.31305504   81.32160187    1.61000001    2.66000009
   18.31638718   79.15029907    2.03999996    2.64000010
   18.32222366   79.15029907    1.14999998    2.66000009
   18.32638931   74.76419830    1.26999998    2.66000009
   18.32944489   84.14730072    1.44000006    2.66000009
   18.33277893   83.20279694    1.61000001    2.66000009
   18.33611107   85.92700195    1.39999998    2.66000009
   18.33916664   80.88670349    1.30999994    2.66000009
   18.34250069   84.77079773    1.30999994    2.66000009
   18.34555626   85.66850281    1.25000000    2.66000009
   18.34889030   82.79010010    1.46000004    2.66000009
   18.35222244   85.30740356    1.60000002    2.66000009
   18.35527802   84.86389923    1.16999996    2.66000009
   18.35861206   88.93890381    1.23000002    2.67000008
   18.35944557   81.43340302    1.26999998    2.66000009
   18.36499977   81.43340302    1.28999996    2.66000009
   18.36916733   84.75140381    1.26999998    2.64000010
   18.37249947   90.34700012    1.23000002    2.66000009
   18.37555504   82.27739716    1.19000006    2.66000009
   18.37888908   80.23729706    1.19000006    2.67000008
   18.38194466   86.50559998    1.21000004    2.66000009
   18.38527679   84.83100128    1.21000004    2.66000009
   18.38861084   83.60330200    1.39999998    2.66000009
   18.39166641   84.50219727    1.25000000    2.66000009
   18.39277840   80.54340363    1.25000000    2.66000009
   18.39527702   81.14219666    1.25000000    2.66000009
   18.39861107   82.98390198    1.14999998    2.66000009
   18.40194321   79.89920044    1.16999996    2.66000009
   18.40777779   79.89920044    1.16999996    2.66000009
   18.41194344   80.43679810    1.16999996    2.66000009
   18.41555595   80.52570343    1.11000001    2.66000009
   18.41888809   78.20980072    1.09000003    2.66000009
   18.42194366   79.94419861    1.05999994    2.66000009
   18.42527771   85.16560364    1.03999996    2.66000009
   18.42611122   79.37529755    1.03999996    2.66000009
   18.42888832   85.70850372    1.13000000    2.66000009
   18.43222237   81.46589661    1.16999996    2.64000010
   18.43555450   84.89150238    1.03999996    2.66000009
   18.43861008   80.12760162    1.01999998    2.66000009
   18.44194412   86.72350311    1.00000000    2.66000009
   18.44527626   87.45600128    0.88000000    2.66000009
   18.45083427   87.45600128    0.92000002    2.66000009
   18.45472336   85.01930237    0.89999998    2.66000009
   18.45805550   83.87550354    1.03999996    2.66000009
   18.45944595   88.03130341    1.03999996    2.66000009
   18.46166801   91.13880157    0.94000000    2.66000009
   18.46500015   82.81199646    0.80000001    2.66000009
   18.46833420   83.23459625    0.83999997    2.66000009
   18.47138977   85.96939850    0.83999997    2.66000009
   18.47472191   84.20890045    1.00000000    2.66000009
   18.47777748   84.54560089    1.00000000    2.66000009
   18.48111153   80.69450378    0.95999998    2.66000009
   18.48444557   85.21469879    0.92000002    2.66000009
   18.48750114   84.11409760    1.00000000    2.66000009
   18.49361229   84.11409760    1.14999998    2.64000010
   18.49777794   79.61190033    1.26999998    2.64000010
   18.50083351   84.82959747    1.33000004    2.64000010
   18.50416756   86.28530121    1.34000003    2.66000009
   18.50749969   86.35350037    1.34000003    2.66000009
   18.51055527   83.94809723    1.36000001    2.66000009
   18.51388931   87.48889923    1.60000002    2.64000010
   18.51722145   87.94380188    1.71000004    2.64000010
   18.52027702   89.18750000    1.64999998    2.64000010
   18.52361107   83.43199921    1.64999998    2.64000010
   18.52611160   83.88510132    1.69000006    2.64000010
   18.52722168   79.32589722    1.69000006    2.64000010
   18.53055573   74.85449982    1.48000002    2.64000010
   18.53638840   74.85449982    1.25000000    2.64000010
   18.54055595   86.98809814    1.23000002    2.66000009
   18.54388809   93.20549774    0.86000001    2.66000009
   18.54694366   84.23509979    0.81999999    2.66000009
   18.55027771   87.73490143    0.88000000    2.64000010
   18.55333328   84.51519775    0.94000000    2.66000009
   18.55666542   81.20729828    1.01999998    2.66000009
   18.55944443   81.50839996    0.86000001    2.64000010
   18.56027794   80.74359894    0.86000001    2.64000010
   18.56361008   84.54589844    0.86000001    2.66000009
   18.56694603   78.98539734    0.83999997    2.64000010
   18.57000160   78.03769684    0.86000001    2.64000010
   18.57333374   85.74610138    0.89999998    2.64000010
   18.57916832   85.74610138    0.89999998    2.64000010
   18.58333397   84.06099701    0.92000002    2.64000010
   18.58666801   81.92330170    0.92000002    2.64000010
   18.58972359   84.36679840    0.88000000    2.64000010
   18.59277916   82.97409821    0.88000000    2.64000010
   18.59333420   84.78260040    1.00000000    2.64000010
   18.59666824   85.98829651    1.00000000    2.64000010
   18.60000038   87.15529633    0.98000002    2.64000010
   18.60305595   84.40679932    1.03999996    2.64000010
   18.60639000   82.11759949    1.05999994    2.66000009
   18.60972214   88.16329956    1.13000000    2.64000010
   18.61277771   86.20680237    1.13000000    2.64000010
   18.61611176   83.83010101    1.01999998    2.64000010
   18.62222290   83.83010101    1.00000000    2.64000010
   18.62611198   83.59030151    0.86000001    2.66000009
   18.62944412   83.54599762    0.86000001    2.66000009
   18.63277817   78.57319641    0.81999999    2.64000010
   18.63583374   87.84490204    0.92000002    2.66000009
   18.63944435   78.78440094    0.95999998    2.64000010
   18.64277840   81.61550140    1.01999998    2.64000010
   18.64583397   80.23899841    1.03999996    2.64000010
   18.64916611   82.45989990    1.05999994    2.64000010
   18.65222168   77.10410309    1.05999994    2.64000010
   18.65555573   77.39520264    0.95999998    2.64000010
   18.65888786   81.27230072    1.19000006    2.64000010
   18.65944481   80.20770264    1.19000006    2.64000010
   18.68000031   80.20770264    0.88000000    2.64000010
   18.68416595   82.40650177    0.88000000    2.64000010
   18.68750000   79.32689667    0.88000000    2.64000010
   18.69055557   76.80960083    1.26999998    2.64000010
   18.69277763   82.12000275    0.89999998    2.64000010
   18.69416618   86.63839722    1.23000002    2.64000010
   18.69749832   78.39340210    1.19000006    2.64000010
   18.70083427   75.80159760    1.11000001    2.64000010
   18.70388985   77.31430054    1.14999998    2.64000010
   18.70722389   79.80670166    0.95999998    2.64000010
   18.71055603   80.14340210    0.95999998    2.64000010
   18.71361160   84.67729950    0.83999997    2.64000010
   18.71694565   75.44120026    1.50000000    2.64000010
   18.72277832   75.44120026    0.73000002    2.64000010
   18.72694588   82.49790192    0.73000002    2.64000010
   18.73000145   80.19159698    0.73000002    2.64000010
   18.73333359   78.43509674    0.70999998    2.64000010
   18.73666763   78.81079865    0.69000000    2.64000010
   18.73972321   83.47709656    0.79000002    2.64000010
   18.74305534   83.12940216    0.75000000    2.64000010
   18.74638939   81.37550354    0.88000000    2.64000010
   18.74944496   83.01830292    0.86000001    2.64000010
   18.75277710   83.72760010    0.86000001    2.64000010
   18.75583267   82.09470367    0.88000000    2.64000010
   18.75916672   85.49289703    0.88000000    2.64000010
   18.75972176   83.49759674    0.88000000    2.64000010
   18.76555634   83.49759674    0.95999998    2.64000010
   18.76972198   77.97450256    0.89999998    2.64000010
   18.77305603   88.40979767    0.64999998    2.64000010
   18.77611160   82.04920197    0.61000001    2.64000010
   18.77944374   80.87480164    0.52999997    2.64000010
   18.78277779   80.70159912    0.51999998    2.64000010
   18.78583336   83.21179962    0.55000001    2.64000010
   18.78916550   86.94570160    0.51999998    2.64000010
   18.79222107   86.37259674    0.55000001    2.64000010
   18.79305458   88.75370026    0.55000001    2.64000010
   18.79611015   83.65619659    0.73000002    2.64000010
   18.79916573   90.11679840    0.75000000    2.64000010
   18.80249977   83.32740021    0.75000000    2.64000010
   18.80833244   83.32740021    0.76999998    2.64000010
   18.81250000   88.77729797    0.76999998    2.64000010
   18.81583214   86.35099792    0.64999998    2.64000010
   18.81916809   80.51860046    0.63000000    2.64000010
   18.82222366   81.81800079    0.58999997    2.64000010
   18.82555580   79.60040283    0.50000000    2.64000010
   18.82638931   79.37120056    0.61000001    2.64000010
   18.82916832   87.30210114    0.67000002    2.64000010
   18.83222389   85.44799805    0.61000001    2.64000010
   18.83555603   81.68090057    0.58999997    2.64000010
   18.83861160   80.92030334    0.58999997    2.64000010
   18.84194565   96.17729950    0.56999999    2.64000010
   18.84527779   84.45469666    0.63000000    2.64000010
   18.85138893   84.45469666    0.63000000    2.64000010
   18.85555649   80.52510071    0.58999997    2.64000010
   18.85861206   80.73220062    0.63000000    2.64000010
   18.85972214   79.43039703    0.69000000    2.64000010
   18.86250114   81.89990234    0.69000000    2.64000010
   18.86555672   80.84529877    0.73000002    2.64000010
   18.86888885   85.97399902    0.61000001    2.64000010
   18.87194443   81.05740356    0.52999997    2.64000010
   18.87527847   83.93659973    0.55000001    2.64000010
   18.87861061   86.63819885    0.56999999    2.64000010
   18.88166618   82.68479919    0.81999999    2.64000010
   18.88500023   90.37190247    0.86000001    2.61999989
   18.88833237   87.02500153    0.86000001    2.64000010
   18.89416695   87.02500153    0.76999998    2.64000010
   18.89833260   90.14389801    0.73000002    2.64000010
   18.90138817   85.50640106    0.70999998    2.64000010
   18.90472221   86.05190277    0.70999998    2.64000010
   18.90805435   80.73269653    0.63000000    2.64000010
   18.91110992   80.50920105    0.64999998    2.64000010
   18.91444397   80.67369843    0.64999998    2.64000010
   18.91777802   88.73210144    0.56999999    2.61999989
   18.92083359   89.90650177    0.58999997    2.61999989
   18.92416573   86.72720337    0.63000000    2.61999989
   18.92638779   84.95020294    0.63000000    2.61999989
   18.92777634   82.94129944    0.58999997    2.64000010
   18.93083191   82.92819977    0.58999997    2.61999989
   18.93694305   82.92819977    0.67000002    2.61999989
   18.94111061   82.89080048    0.64999998    2.61999989
   18.94444275   80.71939850    0.63000000    2.64000010
   18.94749832   83.85079956    0.52999997    2.64000010
   18.95083427   81.75070190    0.51999998    2.61999989
   18.95416832   78.67690277    0.47999999    2.64000010
   18.95722389   77.47769928    0.50000000    2.64000010
   18.95972252   80.17030334    0.47999999    2.64000010
   18.96111107   87.90579987    0.46000001    2.61999989
   18.96416664   75.24749756    0.46000001    2.64000010
   18.96750069   83.60130310    0.47999999    2.64000010
   18.97083473   83.61440277    0.46000001    2.64000010
   18.97416687   79.68190002    0.47999999    2.64000010
   18.97972298   79.68190002    0.69000000    2.61999989
   18.98388863   79.75650024    0.75000000    2.61999989
   18.98722267   79.11000061    0.76999998    2.61999989
   18.99027824   80.69159698    0.67000002    2.61999989
   18.99305534   77.75379944    0.70999998    2.61999989
   18.99416733   81.83399963    0.70999998    2.61999989
   18.99722290   78.29660034    0.61000001    2.61999989
   19.00055504   80.65190125    0.61000001    2.61999989
   19.00388908   83.33090210    0.70999998    2.61999989
   19.00694466   79.47100067    0.70999998    2.61999989
   19.01027870   82.88819885    0.51999998    2.61999989
   19.01333427   85.31159973    0.50000000    2.61999989
   19.01666641   81.11260223    0.47999999    2.64000010
   19.02277756   81.11260223    0.41999999    2.61999989
   19.02666664   87.08429718    0.46000001    2.61999989
   19.03000069   82.91049957    0.46000001    2.61999989
   19.03333282   88.50939941    0.47999999    2.61999989
   19.03638840   87.47019958    0.58999997    2.61999989
   19.03972244   80.66249847    0.56999999    2.61999989
   19.04305458   82.75090027    0.55000001    2.61999989
   19.04611015   76.60600281    0.55000001    2.64000010
   19.04944420   82.58439636    0.61000001    2.61999989
   19.05249977   79.16739655    0.56999999    2.61999989
   19.05583191   86.57929993    0.52999997    2.61999989
   19.05916595   81.78820038    0.67000002    2.61999989
   19.05972099   81.89820099    0.67000002    2.61999989
   19.06555557   81.89820099    0.80000001    2.59999990
   19.06972313  102.89700317    0.80000001    2.61999989
   19.07277870   97.68060303    0.75000000    2.61999989
   19.07611275  131.86999512    0.76999998    2.61999989
   19.07944489   94.37779999    0.79000002    2.61999989
   19.08250046  100.16999817    0.79000002    2.61999989
   19.08583450  117.10500336    0.73000002    2.61999989
   19.08889008   96.41040039    0.76999998    2.59999990
   19.09222221   98.42690277    0.75000000    2.61999989
   19.09305573  112.10600281    0.75000000    2.61999989
   19.09583473   79.55750275    0.73000002    2.59999990
   19.09889030   88.23290253    0.61000001    2.59999990
   19.10222244  104.03900146    0.67000002    2.61999989
   19.10833359  104.03900146    0.76999998    2.59999990
   19.11250114   89.17330170    0.83999997    2.59999990
   19.11583328  102.24099731    0.88000000    2.59999990
   19.11888885   84.98380280    0.89999998    2.59999990
   19.12222290  111.34600067    0.86000001    2.61999989
   19.12527847  100.43000031    0.88000000    2.59999990
   19.12638855   85.61370087    0.80000001    2.59999990
   19.12916756   83.24019623    0.79000002    2.59999990
   19.13222313   81.85489655    0.73000002    2.59999990
   19.13555527   80.00140381    0.73000002    2.59999990
   19.13888931   84.51349640    0.63000000    2.59999990
   19.14194489   94.65270233    0.63000000    2.61999989
   19.14527702   81.36270142    0.58999997    2.61999989
   19.15111160   81.36270142    0.61000001    2.59999990
   19.15527725   82.17980194    0.61000001    2.59999990
   19.15861130   86.05449677    0.61000001    2.59999990
   19.15972137   79.31150055    0.61000001    2.59999990
   19.16222191   83.84839630    0.61000001    2.59999990
   19.16527748   79.95379639    0.47999999    2.61999989
   19.16860962   81.06909943    0.46000001    2.59999990
   19.17194366   88.87550354    0.46000001    2.61999989
   19.17499924   79.80549622    0.47999999    2.59999990
   19.17833328   78.10140228    0.52999997    2.61999989
   19.18138885   78.90679932    0.55000001    2.61999989
   19.18472099   83.89369965    0.51999998    2.59999990
   19.18805504   78.89880371    0.50000000    2.59999990
   19.19416618   78.89880371    0.44000000    2.59999990
   19.19805527   80.80310059    0.47999999    2.59999990
   19.20138931   83.55039978    0.55000001    2.59999990
   19.20472336   80.56639862    0.56999999    2.59999990
   19.20777893   84.99949646    0.67000002    2.59999990
   19.21111107   82.52940369    0.61000001    2.61999989
   19.21444511   82.07520294    0.56999999    2.59999990
   19.21777916   79.32749939    0.56999999    2.61999989
   19.22083473   78.44680023    0.55000001    2.59999990
   19.22416687   79.39620209    0.55000001    2.59999990
   19.22638893   76.55220032    0.50000000    2.59999990
   19.22777748   79.63639832    0.50000000    2.59999990
   19.23083305   82.65209961    0.50000000    2.59999990
   19.23694420   82.65209961    0.52999997    2.59999990
   19.24111176   80.28430176    0.51999998    2.59999990
   19.24416733   86.48190308    0.51999998    2.59999990
   19.24749947   81.97959900    0.51999998    2.59999990
   19.25083351   83.34619904    0.52999997    2.59999990
   19.25388908   88.35410309    0.52999997    2.59999990
   19.25722313   85.66790009    0.51999998    2.59999990
   19.26000023   86.16639709    0.51999998    2.59999990
   19.26111031   89.25499725    0.51999998    2.59999990
   19.26444435   79.60350037    0.50000000    2.59999990
   19.26749992   89.53880310    0.51999998    2.59999990
   19.27083397   86.43620300    0.46000001    2.59999990
   19.27388954   81.04730225    0.46000001    2.59999990
   19.27972221   81.04730225    0.46000001    2.59999990
   19.28388786   89.80539703    0.46000001    2.59999990
   19.28694344   84.33409882    0.47999999    2.59999990
   19.29027748   84.71499634    0.47999999    2.59999990
   19.29305458   78.90920258    0.47999999    2.59999990
   19.29388809   84.36470032    0.47999999    2.59999990
   19.29722214   79.35820007    0.47999999    2.59999990
   19.30027771   84.71980286    0.51999998    2.59999990
   19.30360985   78.09519958    0.51999998    2.59999990
   19.30666542   79.65160370    0.50000000    2.59999990
   19.30999947   83.41169739    0.50000000    2.57999992
   19.31333351   79.78140259    0.51999998    2.59999990
   19.31638718   87.90650177    0.52999997    2.59999990
   19.32250023   87.90650177    0.52999997    2.59999990
   19.32666779   87.26840210    0.55000001    2.59999990
   19.33000183   84.68859863    0.55000001    2.59999990
   19.33305550   82.46430206    0.55000001    2.59999990
   19.33638954   85.52079773    0.61000001    2.57999992
   19.33972359   75.94170380    0.61000001    2.59999990
   19.34277916   79.19480133    0.61000001    2.57999992
   19.34611130   83.61450195    0.63000000    2.57999992
   19.34916687   77.92199707    0.69000000    2.59999990
   19.35250092   81.59490204    0.69000000    2.59999990
   19.35583305   86.46790314    0.70999998    2.59999990
   19.35888863   80.71450043    0.67000002    2.57999992
   19.35972214   83.63490295    0.64999998    2.57999992
   19.36527824   83.63490295    0.63000000    2.57999992
   19.36944389   80.95310211    0.63000000    2.57999992
   19.37277794   81.79850006    0.61000001    2.57999992
   19.37611198   82.21910095    0.61000001    2.57999992
   19.37916756   85.38469696    0.61000001    2.57999992
   19.38249969   87.03260040    0.61000001    2.59999990
   19.38583374   91.75879669    0.61000001    2.57999992
   19.38888931   83.23400116    0.61000001    2.57999992
   19.39222145   81.86060333    0.61000001    2.59999990
   19.39305496   84.16329956    0.61000001    2.59999990
   19.39583397   87.65740204    0.61000001    2.57999992
   19.39888954   83.98549652    0.63000000    2.57999992
   19.40222168   86.76760101    0.63000000    2.57999992
   19.40833282   86.76760101    0.63000000    2.57999992
   19.41250038   85.75869751    0.63000000    2.57999992
   19.41555595   82.18060303    0.63000000    2.57999992
   19.41888809   80.75409698    0.61000001    2.57999992
   19.42194366   80.88619995    0.63000000    2.57999992
   19.42527771   87.19309998    0.61000001    2.57999992
   19.42638779   86.27929688    0.61000001    2.57999992
   19.42888832   79.00589752    0.61000001    2.57999992
   19.43194389   82.57379913    0.64999998    2.57999992
   19.43527603   89.05460358    0.64999998    2.55999994
   19.43861008   76.66380310    0.70999998    2.55999994
   19.44166565   90.16680145    0.67000002    2.57999992
   19.44499969   83.09069824    0.67000002    2.57999992
   19.45111275   83.09069824    0.63000000    2.57999992
   19.45527840   78.20179749    0.63000000    2.57999992
   19.45861244   80.23300171    0.64999998    2.57999992
   19.45972252   78.81279755    0.64999998    2.55999994
   19.46222305   87.41030121    0.64999998    2.57999992
   19.46527863   78.89710236    0.67000002    2.57999992
   19.46861076   89.12290192    0.67000002    2.55999994
   19.47194481   81.01999664    0.67000002    2.55999994
   19.47500038   81.22699738    0.67000002    2.55999994
   19.47833443   86.64260101    0.69000000    2.55999994
   19.48166656   81.40959930    0.70999998    2.55999994
   19.48472214   85.47509766    0.70999998    2.55999994
   19.48805618   83.88680267    0.69000000    2.55999994
   19.49388885   83.88680267    0.81999999    2.55999994
   19.49805641   92.36450195    0.86000001    2.55999994
   19.50138855   87.13480377    0.88000000    2.55999994
   19.50444412   89.79329681    0.88000000    2.55999994
   19.50777817   84.77929688    0.89999998    2.55999994
   19.51111031   81.21170044    0.92000002    2.55999994
   19.51416588   89.40709686    0.89999998    2.55999994
   19.51749992   80.47080231    0.89999998    2.55999994
   19.52055550   81.59919739    0.95999998    2.53999996
   19.52388954   78.17990112    1.01999998    2.55999994
   19.52638817   81.85720062    1.01999998    2.53999996
   19.52750015   74.70690155    1.01999998    2.53999996
   19.53055573   81.14260101    1.00000000    2.55999994
   19.53666687   81.14260101    0.94000000    2.55999994
   19.54083252   80.94439697    1.09000003    2.55999994
   19.54416656   81.61730194    1.09000003    2.55999994
   19.54749870   80.49729919    1.01999998    2.55999994
   19.55055428   79.51640320    1.01999998    2.53999996
   19.55388832   77.71309662    1.03999996    2.53999996
   19.55722237   80.52330017    1.01999998    2.53999996
   19.55972099   81.66500092    1.01999998    2.53999996
   19.56083298   85.58039856    1.01999998    2.53999996
   19.56416512   81.47329712    1.03999996    2.55999994
   19.56722260   85.05629730    1.03999996    2.55999994
   19.57055664   85.27249908    1.01999998    2.55999994
   19.57361221   90.45860291    1.01999998    2.53999996
   19.57972336   90.45860291    1.01999998    2.53999996
   19.58388901   88.94619751    1.01999998    2.53999996
   19.58694458   81.73780060    1.01999998    2.53999996
   19.59027863   90.72869873    1.01999998    2.53999996
   19.59305573   80.50009918    1.01999998    2.55999994
   19.59388924   82.14820099    1.01999998    2.55999994
   19.59722328   79.87419891    1.01999998    2.55999994
   19.60027885   86.66249847    1.03999996    2.55999994
   19.60361099   84.09290314    1.03999996    2.53999996
   19.60666656   80.31900024    1.03999996    2.53999996
   19.61000061   77.17320251    1.03999996    2.55999994
   19.61333466   81.92769623    1.05999994    2.53999996
   19.61638832   85.74210358    1.01999998    2.53999996
   19.62249947   85.74210358    1.16999996    2.53999996
   19.62666702   82.83950043    1.05999994    2.53999996
   19.62972260   83.03040314    1.19000006    2.53999996
   19.63305473   85.57219696    1.19000006    2.53999996
   19.63638878   82.78910065    1.16999996    2.53999996
   19.63944435   85.59770203    1.07000005    2.53999996
   19.64277840   90.49490356    1.07000005    2.53999996
   19.64611053   86.45220184    1.07000005    2.53999996
   19.64916611   89.56800079    1.07000005    2.53999996
   19.65250015   89.45850372    1.09000003    2.53999996
   19.65555573   86.10330200    1.09000003    2.53999996
   19.65888786   87.59339905    1.07000005    2.53999996
   19.65972137   92.13749695    1.07000005    2.53999996
   19.66527748   92.13749695    1.09000003    2.53999996
   19.66944313   84.26170349    1.07000005    2.53999996
   19.67277718   79.35260010    1.07000005    2.53999996
   19.67583275   81.04190063    1.13000000    2.53999996
   19.69333267   88.53119659    1.09000003    2.53999996
   19.69583321   82.56199646    1.09000003    2.53999996
   19.69916534   85.79650116    1.13000000    2.51999998
   19.70222282   86.95020294    1.16999996    2.51999998
   19.70833397   86.95020294    1.28999996    2.51999998
   19.71250153   85.94750214    1.33000004    2.51999998
   19.71583366   83.93139648    1.25000000    2.51999998
   19.71888924   84.41629791    1.23000002    2.51999998
   19.72222328   83.24530029    1.23000002    2.51999998
   19.72527885   81.41249847    1.19000006    2.51999998
   19.72666740   90.08450317    1.19000006    2.51999998
   19.72916794   83.25129700    1.19000006    2.51999998
   19.73250008   87.27390289    1.19000006    2.51999998
   19.73555565   82.43869781    1.16999996    2.53999996
   19.73888969   81.01460266    1.19000006    2.51999998
   19.74194527   84.90769958    1.19000006    2.51999998
   19.74527740   86.11170197    1.19000006    2.51999998
   19.75111198   86.11170197    1.26999998    2.51999998
   19.75527763   89.42939758    1.33000004    2.51999998
   19.75861168   82.61049652    1.33000004    2.51999998
   19.76000023   80.25360107    1.38000000    2.51999998
   19.76222229   92.71379852    1.38000000    2.51999998
   19.76555634   82.37370300    1.39999998    2.50000000
   19.76861000   81.06179810    1.48000002    2.51999998
   19.77194405   86.04129791    1.48000002    2.51999998
   19.77499962   81.60929871    1.48000002    2.51999998
   19.77833366   88.89640045    1.48000002    2.50000000
   19.78166580   78.11730194    1.41999996    2.51999998
   19.78472137   87.66940308    1.41999996    2.50000000
   19.78805542   81.85430145    1.44000006    2.51999998
   19.79416656   81.85430145    1.46000004    2.50000000
   19.79805565   83.71900177    1.46000004    2.50000000
   19.80138779   89.16079712    1.46000004    2.51999998
   19.80472183   80.37380219    1.46000004    2.50000000
   19.80777740   89.08249664    1.46000004    2.50000000
   19.81110954   93.37090302    1.46000004    2.50000000
   19.81444359   92.16100311    1.46000004    2.51999998
   19.81750107  117.77999878    1.46000004    2.51999998
   19.82083511  133.21299744    1.46000004    2.51999998
   19.82416725  148.33399963    1.44000006    2.51999998
   19.82666779  165.61399841    1.41999996    2.50000000
   19.82777786  167.45100403    1.41999996    2.50000000
   19.83111191  206.99800110    1.44000006    2.50000000
   19.83694458  206.99800110    1.46000004    2.51999998
   19.84111214  266.15100098    1.46000004    2.51999998
   19.84416771  128.63099670    1.46000004    2.50000000
   19.84749985   97.24320221    1.50000000    2.50000000
   19.85083389   -1.00000000    1.51999998    2.50000000
   19.85388947   -1.00000000    1.51999998    2.50000000
   19.85722351   -1.00000000    1.53999996    2.50000000
   19.86055565   -1.00000000    1.53999996    2.50000000
   19.86388969   -1.00000000    1.51999998    2.50000000
   19.86722183   -1.00000000    1.51999998    2.50000000
   19.87027740   -1.00000000    1.50000000    2.50000000
   19.87361145   -1.00000000    1.50000000    2.48000002
   19.88388824   -1.00000000    1.48000002    2.48000002
   19.88694382   -1.00000000    1.48000002    2.48000002
   19.89027786   -1.00000000    1.46000004    2.50000000
   19.89388847   -1.00000000    1.46000004    2.50000000
   19.89694405   -1.00000000    1.39999998    2.50000000
   19.90027809   -1.00000000    1.38000000    2.50000000
   19.90333366   -1.00000000    1.39999998    2.50000000
   19.90666580   -1.00000000    1.39999998    2.50000000
   19.90999985   -1.00000000    1.39999998    2.50000000
   19.91305542   -1.00000000    1.38000000    2.48000002
   19.91638756   -1.00000000    1.38000000    2.50000000
   19.92694473   -1.00000000    1.39999998    2.48000002
   19.93027687   -1.00000000    1.41999996    2.48000002
   19.93361092   -1.00000000    1.41999996    2.48000002
   19.93666649   -1.00000000    1.41999996    2.48000002
   19.93999863   -1.00000000    1.39999998    2.48000002
   19.94333267   -1.00000000    1.39999998    2.48000002
   19.94638824   -1.00000000    1.39999998    2.48000002
   19.94972038   -1.00000000    1.39999998    2.48000002
   19.95277786   -1.00000000    1.39999998    2.48000002
   19.95611191   -1.00000000    1.39999998    2.48000002
   19.95944595   -1.00000000    1.39999998    2.48000002
   19.96944427   -1.00000000    1.34000003    2.48000002
