    HOUR (UT)   FLARE FACTOR    SKY TESTER    SUN TESTER
   11.68277836   -1.00000000   -1.00000000   -1.00000000
   11.72916603  140.80299377    2.09999990    2.57999992
   11.73249912  131.83599854    2.07999992    2.55999994
   11.73583317  130.35899353    2.07999992    2.55999994
   11.73916721  132.82499695    2.07999992    2.55999994
   11.74222279  135.37899780    2.07999992    2.57999992
   11.74555588  138.45300293    2.05999994    2.57999992
   11.74972248  138.45300293    2.05999994    2.55999994
   11.75388908  123.07700348    2.05999994    2.57999992
   11.75694466  117.85800171    2.05999994    2.57999992
   11.76027775  108.93099976    2.05999994    2.59999990
   11.76249981  111.95800018    2.05999994    2.57999992
   11.76388931  113.28600311    2.05999994    2.55999994
   11.76722240  110.30100250    2.05999994    2.57999992
   11.77027798  116.69699860    2.03999996    2.57999992
   11.77361107  112.05000305    2.03999996    2.59999990
   11.77694416  107.82299805    2.03999996    2.57999992
   11.77999973  113.19200134    2.03999996    2.57999992
   11.78333378  110.21700287    2.01999998    2.57999992
   11.78666687  108.70899963    2.01999998    2.57999992
   11.79250050  108.70899963    2.01999998    2.59999990
   11.79666710  100.83200073    2.00000000    2.57999992
   11.80000019  101.38500214    2.00000000    2.59999990
   11.80305576  106.94799805    1.98000002    2.57999992
   11.80638885  101.25700378    1.98000002    2.59999990
   11.80944443  102.09899902    1.98000002    2.57999992
   11.81277752  102.38999939    1.98000002    2.59999990
   11.81611156  102.85500336    1.98000002    2.57999992
   11.81916618   88.20890045    1.98000002    2.59999990
   11.82250023  102.70400238    1.98000002    2.57999992
   11.82583332  103.38300323    1.98000002    2.59999990
   11.82888889  109.94699860    1.98000002    2.59999990
   11.82944393  101.16799927    1.98000002    2.59999990
   11.83527756  101.16799927    1.96000004    2.59999990
   11.83944416  103.51300049    1.91999996    2.61999989
   11.84277725   98.92359924    1.94000006    2.59999990
   11.84583282  104.63300323    1.91999996    2.59999990
   11.84916592  103.67500305    1.94000006    2.59999990
   11.85249996   92.01450348    1.89999998    2.59999990
   11.85555553   99.14469910    1.89999998    2.59999990
   11.85888958   95.85070038    1.91999996    2.59999990
   11.86222267   96.23919678    1.89999998    2.59999990
   11.86277771  105.35800171    1.89999998    2.59999990
   11.86583328   97.92749786    1.89999998    2.61999989
   11.86888885  105.87000275    1.89999998    2.59999990
   11.87222195  105.81900024    1.88000000    2.59999990
   11.87833309  105.81900024    1.86000001    2.61999989
   11.88249969  102.50800323    1.86000001    2.61999989
   11.88555527   90.90119934    1.86000001    2.61999989
   11.88888836  100.77100372    1.85000002    2.61999989
   11.89222240   96.27880096    1.85000002    2.61999989
   11.89527798  101.77300262    1.83000004    2.59999990
   11.89611053  101.53700256    1.83000004    2.59999990
   11.89916611   98.96749878    1.83000004    2.61999989
   11.90222168  101.68099976    1.83000004    2.61999989
   11.90555477  103.40699768    1.83000004    2.61999989
   11.90888882   94.00340271    1.83000004    2.61999989
   11.91194439   99.43620300    1.80999994    2.61999989
   11.91527748   89.90630341    1.80999994    2.61999989
   11.92111111   89.90630341    1.83000004    2.61999989
   11.92527771  102.10600281    1.80999994    2.61999989
   11.92833328  106.87400055    1.78999996    2.64000010
   11.92944431   97.60289764    1.78999996    2.61999989
   11.93222237   95.23390198    1.76999998    2.64000010
   11.93527794   98.02809906    1.78999996    2.64000010
   11.93861103  104.59500122    1.76999998    2.64000010
   11.94194412   92.57050323    1.78999996    2.61999989
   11.94499969   93.38320160    1.76999998    2.61999989
   11.94833374   94.93080139    1.76999998    2.61999989
   11.95166683   99.32869720    1.76999998    2.61999989
   11.95472240  102.27999878    1.76999998    2.61999989
   11.95805550   92.77619934    1.78999996    2.64000010
   11.96388912   92.77619934    1.78999996    2.64000010
   11.96805477   87.21910095    1.78999996    2.64000010
   11.97138882  104.02600098    1.78999996    2.64000010
   11.97444439   89.42289734    1.80999994    2.61999989
   11.97777748   88.52480316    1.80999994    2.61999989
   11.98111057   84.74160004    1.80999994    2.61999989
   11.98416710   80.74310303    1.80999994    2.61999989
   11.98750019   84.79429626    1.80999994    2.64000010
   11.99055576   87.06849670    1.80999994    2.64000010
   11.99388885   91.94329834    1.80999994    2.64000010
   11.99611092   97.48870087    1.80999994    2.64000010
   11.99750042   84.90740204    1.80999994    2.64000010
   12.00083351   87.01309967    1.80999994    2.64000010
   12.00666714   87.01309967    1.80999994    2.64000010
   12.01083374   85.13050079    1.80999994    2.64000010
   12.01416683   88.00489807    1.80999994    2.64000010
   12.01722240   85.88120270    1.80999994    2.64000010
   12.02055550   91.69529724    1.78999996    2.64000010
   12.02388859   93.90750122    1.78999996    2.64000010
   12.02694416   86.66369629    1.78999996    2.64000010
   12.02944374   98.17569733    1.78999996    2.64000010
   12.03083324   89.31379700    1.78999996    2.64000010
   12.03416729   98.98120117    1.78999996    2.64000010
   12.03722286   92.69080353    1.78999996    2.66000009
   12.04055595   82.89360046    1.76999998    2.64000010
   12.04361153   90.73650360    1.76999998    2.64000010
   12.04972267   90.73650360    1.75000000    2.66000009
   12.05361176   83.62500000    1.75000000    2.64000010
   12.05694485   88.60679626    1.75000000    2.66000009
   12.06027794   84.52279663    1.75000000    2.66000009
   12.06277752   85.11769867    1.75000000    2.66000009
   12.06388950   88.06469727    1.75000000    2.66000009
   12.06722260   82.57550049    1.75000000    2.66000009
   12.07027817   94.23870087    1.75000000    2.66000009
   12.07361126   86.10070038    1.75000000    2.64000010
   12.07666683   85.98049927    1.75000000    2.66000009
   12.07999992   81.64710236    1.75000000    2.64000010
   12.08333302   85.35910034    1.75000000    2.64000010
   12.08638859   85.32039642    1.75000000    2.66000009
   12.09249973   85.32039642    1.75000000    2.66000009
   12.09666634   91.22380066    1.71000004    2.66000009
   12.09972191   93.18080139    1.71000004    2.66000009
   12.10305595   84.20249939    1.71000004    2.66000009
   12.10638905   85.51570129    1.69000006    2.66000009
   12.10944462   86.57019806    1.66999996    2.66000009
   12.11277771   85.01170349    1.64999998    2.67000008
   12.11583328   85.92530060    1.64999998    2.66000009
   12.11916637   83.49749756    1.64999998    2.67000008
   12.12250042   85.73480225    1.64999998    2.67000008
   12.12555599   88.78540039    1.64999998    2.66000009
   12.12888908   84.77149963    1.64999998    2.67000008
   12.12944412   84.59120178    1.64999998    2.67000008
   12.13527775   84.59120178    1.63000000    2.66000009
   12.13944435   84.34670258    1.63000000    2.66000009
   12.14277744   84.92769623    1.63000000    2.67000008
   12.14583302   80.72509766    1.63000000    2.67000008
   12.14916611   91.80519867    1.63000000    2.67000008
   12.15222168   84.12930298    1.63000000    2.67000008
   12.15555477   83.18009949    1.64999998    2.66000009
   12.15888882   84.88849640    1.64999998    2.66000009
   12.16194439   81.73549652    1.64999998    2.66000009
   12.16277695   77.98680115    1.64999998    2.66000009
   12.16555500   82.94619751    1.63000000    2.67000008
   12.16888905   80.73280334    1.63000000    2.67000008
   12.17194462   82.32199860    1.61000001    2.67000008
   12.17805576   82.32199860    1.61000001    2.67000008
   12.18222237   81.67949677    1.61000001    2.67000008
   12.18555546   88.66909790    1.61000001    2.67000008
   12.18888855   85.14779663    1.60000002    2.67000008
   12.19222260   84.00610352    1.60000002    2.67000008
   12.19527817   83.68270111    1.60000002    2.67000008
   12.19611073   84.69529724    1.60000002    2.67000008
   12.19888878   82.40619659    1.60000002    2.67000008
   12.20222187   84.85829926    1.60000002    2.67000008
   12.20527744   82.02359772    1.58000004    2.66000009
   12.20861053   80.94249725    1.58000004    2.69000006
   12.21166611   84.24289703    1.60000002    2.67000008
   12.21500015   83.08580017    1.60000002    2.69000006
   12.22111034   83.08580017    1.58000004    2.67000008
   12.22499943   84.12310028    1.58000004    2.67000008
   12.22833252   84.83229828    1.58000004    2.67000008
   12.22944355   85.79540253    1.58000004    2.67000008
   12.23194408   87.01439667    1.58000004    2.67000008
   12.23527813   86.02950287    1.58000004    2.67000008
   12.23833370   88.63040161    1.55999994    2.69000006
   12.24166679   96.25019836    1.55999994    2.67000008
   12.24472237   89.34819794    1.55999994    2.67000008
   12.24805546   90.55539703    1.55999994    2.69000006
   12.25138855   85.10890198    1.55999994    2.69000006
   12.25444412   82.42459869    1.55999994    2.69000006
   12.25777817   79.34590149    1.55999994    2.67000008
   12.26388931   79.34590149    1.55999994    2.69000006
   12.26805496   78.52970123    1.55999994    2.69000006
   12.27111053   78.27739716    1.58000004    2.69000006
   12.27444458   79.03530121    1.58000004    2.67000008
   12.27777767   85.66030121    1.58000004    2.69000006
   12.28083324   84.65440369    1.58000004    2.69000006
   12.28416729   84.01129913    1.58000004    2.69000006
   12.28722286   83.70939636    1.58000004    2.69000006
   12.29055595   87.88760376    1.58000004    2.69000006
   12.29388905   84.01570129    1.60000002    2.69000006
   12.29611111   85.27159882    1.60000002    2.69000006
   12.29750061   81.70719910    1.60000002    2.69000006
   12.30083370   86.77539825    1.58000004    2.67000008
   12.30666733   86.77539825    1.58000004    2.69000006
   12.31083393   81.91899872    1.58000004    2.69000006
   12.31416702   81.50219727    1.58000004    2.69000006
   12.31722260   78.29910278    1.58000004    2.69000006
   12.32055569   86.86830139    1.58000004    2.69000006
   12.32361126   84.38430023    1.58000004    2.71000004
   12.32694435   77.07340240    1.58000004    2.69000006
   12.32944393   86.49559784    1.58000004    2.69000006
   12.33055592   83.60289764    1.58000004    2.69000006
   12.33388901   80.10790253    1.55999994    2.69000006
   12.33694458   82.07900238    1.58000004    2.69000006
   12.34027767   84.08139801    1.58000004    2.69000006
   12.34333324   79.69860077    1.58000004    2.69000006
   12.34944439   79.69860077    1.58000004    2.69000006
   12.35361195   90.76370239    1.58000004    2.69000006
   12.35694504   84.79000092    1.58000004    2.69000006
   12.36000061   83.78890228    1.58000004    2.69000006
   12.36277771   85.43000031    1.55999994    2.69000006
   12.36388969   84.84700012    1.58000004    2.69000006
   12.36722279   82.39409637    1.55999994    2.69000006
   12.37027836   82.24220276    1.55999994    2.69000006
   12.37361145   81.58519745    1.55999994    2.71000004
   12.37694454   83.85310364    1.55999994    2.69000006
   12.38000011   76.98780060    1.55999994    2.71000004
   12.38333321   80.96910095    1.55999994    2.69000006
   12.38638878   79.59279633    1.55999994    2.69000006
   12.39249992   79.59279633    1.55999994    2.71000004
   12.39638901   90.61740112    1.55999994    2.71000004
   12.39972210   82.75810242    1.55999994    2.69000006
   12.40305519   83.68920135    1.55999994    2.69000006
   12.40611076   87.31020355    1.55999994    2.69000006
   12.40944386   79.69439697    1.55999994    2.71000004
   12.41277695   87.89140320    1.55999994    2.71000004
   12.41583252   96.19159698    1.55999994    2.69000006
   12.41916656   89.48840332    1.55999994    2.69000006
   12.42222214   87.93699646    1.55999994    2.71000004
   12.42555618   87.77290344    1.53999996    2.71000004
   12.42888927   86.03389740    1.55999994    2.71000004
   12.42944431   89.58439636    1.55999994    2.71000004
   12.43527794   89.58439636    1.55999994    2.71000004
   12.43944454   97.88770294    1.53999996    2.71000004
   12.44250011   86.01210022    1.53999996    2.71000004
   12.44583321   82.76380157    1.53999996    2.69000006
   12.44916630   84.60720062    1.53999996    2.71000004
   12.45222187   88.92479706    1.51999998    2.71000004
   12.45555496   87.59739685    1.51999998    2.71000004
   12.45888901   83.87760162    1.51999998    2.71000004
   12.46194458   86.01830292    1.51999998    2.71000004
   12.46277714   82.23729706    1.51999998    2.71000004
   12.46555519   92.53309631    1.51999998    2.71000004
   12.46888828   88.16510010    1.51999998    2.71000004
   12.47194386   87.62500000    1.51999998    2.71000004
   12.47805500   87.62500000    1.51999998    2.71000004
   12.48222160   84.03820038    1.51999998    2.71000004
   12.48527813   87.03060150    1.51999998    2.71000004
   12.48861122   87.78959656    1.51999998    2.69000006
   12.49194431   90.80010223    1.51999998    2.71000004
   12.49499989   91.37640381    1.51999998    2.71000004
   12.49611092   92.57369995    1.51999998    2.71000004
   12.49861145   79.62799835    1.51999998    2.71000004
   12.50194454   78.36039734    1.50000000    2.71000004
   12.50500011   85.40049744    1.50000000    2.71000004
   12.50833321   87.59390259    1.50000000    2.71000004
   12.51166630   85.19550323    1.48000002    2.71000004
   12.51472187   82.66539764    1.48000002    2.71000004
   12.52083302   82.66539764    1.46000004    2.73000002
   12.52499962   88.97650146    1.48000002    2.71000004
   12.52833271   87.17240143    1.48000002    2.71000004
   12.52972221   88.71610260    1.48000002    2.73000002
   12.53194427   84.87709808    1.46000004    2.73000002
   12.53527832   81.05889893    1.48000002    2.71000004
   12.53833389   79.56790161    1.48000002    2.71000004
   12.54166698   79.00270081    1.46000004    2.73000002
   12.54500008   81.55829620    1.46000004    2.73000002
   12.54805565   89.46350098    1.46000004    2.71000004
   12.55138874   83.48229980    1.44000006    2.73000002
   12.55472279   87.30449677    1.46000004    2.73000002
   12.55777836   84.85299683    1.44000006    2.73000002
   12.56388950   84.85299683    1.46000004    2.71000004
   12.56777763   86.20390320    1.44000006    2.75000000
   12.57111073   84.86250305    1.44000006    2.73000002
   12.57444477   80.01730347    1.44000006    2.75000000
   12.57750034   82.11660004    1.44000006    2.73000002
   12.58083344   88.18440247    1.44000006    2.73000002
   12.58416653   86.99890137    1.44000006    2.73000002
   12.58722210   84.88919830    1.44000006    2.73000002
   12.59055519   79.52709961    1.46000004    2.73000002
   12.59361076   86.56140137    1.44000006    2.73000002
   12.59611034   85.64800262    1.44000006    2.73000002
   12.59722233   91.86489868    1.46000004    2.73000002
   12.60055637   82.10630035    1.46000004    2.73000002
   12.60666752   82.10630035    1.44000006    2.73000002
   12.61083412   85.58840179    1.44000006    2.73000002
   12.61388969   80.01529694    1.41999996    2.75000000
   12.61722279   84.86779785    1.41999996    2.75000000
   12.62055588   92.58399963    1.41999996    2.75000000
   12.62361145   77.76210022    1.41999996    2.73000002
   12.62694454   79.11029816    1.41999996    2.73000002
   12.62972260   89.17130280    1.44000006    2.73000002
   12.63055611   84.08280182    1.41999996    2.73000002
   12.63388920   87.18810272    1.41999996    2.73000002
   12.63694477   86.42369843    1.41999996    2.73000002
   12.64027786   87.05529785    1.41999996    2.75000000
   12.64361095   81.63189697    1.41999996    2.73000002
   12.64944458   81.63189697    1.44000006    2.75000000
   12.65361118   76.96869659    1.41999996    2.73000002
   12.65694427   85.99539948    1.41999996    2.75000000
   12.65999985   80.54029846    1.41999996    2.73000002
   12.66305542   86.87290192    1.44000006    2.73000002
   12.66361046   88.22319794    1.44000006    2.73000002
   12.66694450   77.82180023    1.44000006    2.73000002
   12.67000008   86.01879883    1.44000006    2.73000002
   12.67333412   73.36000061    1.44000006    2.73000002
   12.67666721   84.64270020    1.44000006    2.75000000
   12.67972279   83.19370270    1.44000006    2.75000000
   12.68305588   84.44239807    1.44000006    2.75000000
   12.68638897   80.86969757    1.41999996    2.75000000
   12.69222260   80.86969757    1.44000006    2.73000002
   12.69638920   89.53150177    1.44000006    2.75000000
   12.69972229   86.93509674    1.44000006    2.75000000
   12.70305538   93.51879883    1.44000006    2.75000000
   12.70611095   79.91850281    1.44000006    2.75000000
   12.70944405   84.89230347    1.44000006    2.75000000
   12.71277714   84.52870178    1.44000006    2.75000000
   12.71583271   84.54080200    1.44000006    2.75000000
   12.71916580   82.40840149    1.44000006    2.75000000
   12.72249985   84.71980286    1.44000006    2.73000002
   12.72555542   86.32330322    1.41999996    2.75000000
   12.72888851   77.65540314    1.41999996    2.75000000
   12.72972202   80.21389771    1.41999996    2.75000000
   12.75027752   80.21389771    1.41999996    2.75000000
   12.75444412   86.38079834    1.44000006    2.76999998
   12.75749969   91.82319641    1.46000004    2.75000000
   12.76083374   91.30509949    1.44000006    2.75000000
   12.76305580   94.66400146    1.44000006    2.75000000
   12.76444435   94.96610260    1.46000004    2.75000000
   12.76777744   90.90579987    1.46000004    2.75000000
   12.77083302   96.98860168    1.44000006    2.75000000
   12.77416611   98.99069977    1.44000006    2.75000000
   12.77750015   86.12359619    1.44000006    2.75000000
   12.78055573   94.51480103    1.44000006    2.76999998
   12.78388977   93.17040253    1.46000004    2.75000000
   12.78722286   90.29769897    1.44000006    2.76999998
   12.79305553   90.29769897    1.41999996    2.75000000
   12.79722309   87.26779938    1.38000000    2.75000000
   12.80027771   98.30560303    1.38000000    2.76999998
   12.80361176   94.60099792    1.38000000    2.76999998
   12.80694485   94.72480011    1.38000000    2.75000000
   12.81000042   97.75720215    1.38000000    2.76999998
   12.81333351   97.35019684    1.36000001    2.75000000
   12.81638908   84.74720001    1.36000001    2.75000000
   12.81972218   94.06410217    1.36000001    2.78999996
   12.82305527   91.90650177    1.36000001    2.76999998
   12.82611084   99.11260223    1.36000001    2.75000000
   12.82944393   95.18910217    1.36000001    2.75000000
   12.82999992   96.13849640    1.36000001    2.75000000
   12.83583260   96.13849640    1.36000001    2.76999998
   12.84000015   98.22779846    1.34000003    2.76999998
   12.84305477   89.23410034    1.34000003    2.76999998
   12.84638882   88.98010254    1.34000003    2.75000000
   12.84972191   98.83059692    1.34000003    2.78999996
   12.85277843   99.57859802    1.33000004    2.76999998
   12.85611153   99.12519836    1.33000004    2.75000000
   12.85944462   97.68250275    1.33000004    2.76999998
   12.86250019  100.88600159    1.33000004    2.76999998
   12.86333370   90.67649841    1.33000004    2.76999998
   12.86638927   96.10530090    1.33000004    2.76999998
   12.86944485   89.05319977    1.30999994    2.75000000
   12.87277794   97.18430328    1.30999994    2.75000000
   12.87861156   97.18430328    1.30999994    2.76999998
   12.88277817   98.59410095    1.30999994    2.76999998
   12.88611126   93.55780029    1.30999994    2.76999998
   12.88916683   98.34539795    1.30999994    2.75000000
   12.89249992   86.62090302    1.30999994    2.76999998
   12.89583302   94.10399628    1.28999996    2.76999998
   12.89666653   99.44889832    1.28999996    2.76999998
   12.89944458  101.71600342    1.28999996    2.76999998
   12.90249920  101.24800110    1.28999996    2.78999996
   12.90583324   96.21949768    1.28999996    2.76999998
   12.90916634   94.94429779    1.30999994    2.76999998
   12.91222191  103.74600220    1.30999994    2.76999998
   12.91555500   98.04930115    1.30999994    2.76999998
   12.92138958   98.04930115    1.30999994    2.78999996
   12.92555618  106.97299957    1.33000004    2.78999996
   12.92888927  100.69400024    1.33000004    2.78999996
   12.93000031   98.89730072    1.30999994    2.76999998
   12.93249989  108.67700195    1.30999994    2.76999998
   12.93555546   94.96269989    1.33000004    2.76999998
   12.93888855  103.92400360    1.33000004    2.75000000
   12.94194412  104.20899963    1.33000004    2.78999996
   12.94527817   91.00260162    1.33000004    2.76999998
   12.94861126   88.52989960    1.33000004    2.76999998
   12.95166683   95.17150116    1.33000004    2.75000000
   12.95499992   97.77570343    1.30999994    2.80999994
   12.95833302   86.63240051    1.30999994    2.76999998
   12.96444416   86.63240051    1.30999994    2.76999998
   12.96861076   95.59639740    1.28999996    2.76999998
   12.97166634   92.32689667    1.28999996    2.78999996
   12.97499943  101.49900055    1.30999994    2.76999998
   12.97805500  100.48899841    1.28999996    2.78999996
   12.98138809   97.72669983    1.28999996    2.76999998
   12.98472214  104.87899780    1.28999996    2.78999996
   12.98777771  104.69400024    1.28999996    2.78999996
   12.99111176   95.40720367    1.28999996    2.76999998
   12.99444485   95.06340027    1.28999996    2.78999996
   12.99666691   95.97370148    1.28999996    2.78999996
   12.99805546   97.02120209    1.28999996    2.78999996
   13.00111103  103.58999634    1.30999994    2.76999998
   13.00722218  103.58999634    1.28999996    2.78999996
   13.01138878  101.81999969    1.28999996    2.78999996
   13.01444435  104.71499634    1.26999998    2.78999996
   13.01777744   98.25299835    1.26999998    2.78999996
   13.02111053  102.08699799    1.26999998    2.78999996
   13.02416611  112.43299866    1.26999998    2.78999996
   13.02750015   89.97309875    1.26999998    2.78999996
   13.02999973  102.33399963    1.26999998    2.78999996
   13.03111076  101.60099792    1.26999998    2.78999996
   13.03416729  101.99900055    1.26999998    2.78999996
   13.03750038   94.05419922    1.26999998    2.76999998
   13.04055595  102.57499695    1.26999998    2.78999996
   13.04416752   94.12789917    1.25000000    2.78999996
   13.05000019   94.12789917    1.25000000    2.78999996
   13.05416679   92.06359863    1.25000000    2.76999998
   13.05749989  101.89499664    1.25000000    2.78999996
   13.06055546   94.34950256    1.25000000    2.78999996
   13.06333351   93.96250153    1.25000000    2.78999996
   13.06444454   93.41560364    1.25000000    2.78999996
   13.06750011   93.42340088    1.25000000    2.80999994
   13.07083321   95.45870209    1.25000000    2.80999994
   13.07388878  103.43299866    1.25000000    2.78999996
   13.07722187   98.74549866    1.25000000    2.78999996
   13.08055592   96.81539917    1.25000000    2.78999996
   13.08361053   94.34089661    1.25000000    2.76999998
   13.08694458  103.27400208    1.25000000    2.76999998
   13.09277725  103.27400208    1.25000000    2.78999996
   13.09694386  105.86100006    1.25000000    2.78999996
   13.10027790   99.19920349    1.23000002    2.78999996
   13.10361195  107.96099854    1.25000000    2.78999996
   13.10666752  104.11299896    1.23000002    2.80999994
   13.11000061  101.88999939    1.23000002    2.78999996
   13.11305618   93.11119843    1.23000002    2.78999996
   13.11638927  107.54599762    1.21000004    2.78999996
   13.11972237  111.73799896    1.21000004    2.78999996
   13.12277794  104.47000122    1.21000004    2.78999996
   13.12611103  104.16500092    1.19000006    2.80999994
   13.12944412  104.61699677    1.19000006    2.80999994
   13.13000011  105.31999969    1.19000006    2.80999994
   13.13583279  105.31999969    1.16999996    2.80999994
   13.14000034  105.22399902    1.16999996    2.78999996
   13.14305496  102.92800140    1.14999998    2.78999996
   13.14638901   99.56179810    1.14999998    2.80999994
   13.14972210  101.03500366    1.14999998    2.80999994
   13.15277767  104.36499786    1.14999998    2.80999994
   13.15611076  106.18599701    1.13000000    2.78999996
   13.15944386  104.34400177    1.13000000    2.80999994
   13.16249943  108.47000122    1.13000000    2.80999994
   13.16333294  116.63300323    1.13000000    2.80999994
   13.16638851  107.66799927    1.11000001    2.80999994
   13.16944504  107.34600067    1.11000001    2.80999994
   13.17277813   99.33730316    1.11000001    2.80999994
   13.17861176   99.33730316    1.11000001    2.82999992
   13.18277836  100.76799774    1.09000003    2.80999994
   13.18583298   97.45629883    1.09000003    2.80999994
   13.18916702   96.96350098    1.11000001    2.80999994
   13.19250011  102.02300262    1.09000003    2.80999994
   13.19555569  107.20300293    1.11000001    2.80999994
   13.19666672  112.02799988    1.11000001    2.80999994
   13.19944477   99.83630371    1.11000001    2.80999994
   13.20249939  117.88300323    1.11000001    2.80999994
   13.20583344   96.61699677    1.11000001    2.78999996
   13.20916653   96.75039673    1.09000003    2.80999994
   13.21222210   95.07830048    1.09000003    2.82999992
   13.21555519  100.23899841    1.09000003    2.80999994
   13.22138882  100.23899841    1.09000003    2.80999994
   13.22555542   97.12640381    1.07000005    2.82999992
   13.22888851  107.88999939    1.07000005    2.80999994
   13.22999954  111.16699982    1.07000005    2.82999992
   13.23249912  103.17900085    1.07000005    2.82999992
   13.23583317  113.35299683    1.07000005    2.82999992
   13.23888874  103.29699707    1.07000005    2.80999994
   13.24222279  111.31300354    1.07000005    2.82999992
   13.24555588  101.00099945    1.09000003    2.82999992
   13.24861145   97.47859955    1.07000005    2.82999992
   13.25194454  102.10800171    1.09000003    2.82999992
   13.25500011  100.26100159    1.09000003    2.82999992
   13.25833321   99.56829834    1.09000003    2.82999992
   13.26416683   99.56829834    1.11000001    2.80999994
   13.26833344  123.20300293    1.11000001    2.80999994
   13.27166653  108.53700256    1.11000001    2.80999994
   13.27499962  106.60600281    1.11000001    2.80999994
   13.27805519  107.44499969    1.11000001    2.80999994
   13.28138828   99.52390289    1.11000001    2.82999992
   13.28444481  110.72899628    1.13000000    2.80999994
   13.28777790  116.06800079    1.13000000    2.82999992
   13.29111195  109.69699860    1.11000001    2.80999994
   13.29416752  105.53299713    1.13000000    2.82999992
   13.29666710  104.05699921    1.13000000    2.80999994
   13.29805565  109.90799713    1.13000000    2.80999994
   13.30111122  107.54499817    1.13000000    2.80999994
   13.30722237  107.54499817    1.13000000    2.82999992
   13.31138897   99.15029907    1.13000000    2.80999994
   13.31444454  101.82299805    1.13000000    2.80999994
   13.31777763  112.52100372    1.13000000    2.80999994
   13.32083321  104.79100037    1.13000000    2.82999992
   13.32416630  106.39700317    1.13000000    2.80999994
   13.32750034  105.80500031    1.13000000    2.80999994
   13.32999992  129.31100464    1.11000001    2.80999994
   13.33111095  122.22699738    1.13000000    2.80999994
   13.33416653  106.16000366    1.13000000    2.82999992
   13.33749962  114.95300293    1.11000001    2.80999994
   13.34083271  111.94300079    1.11000001    2.82999992
   13.34388828  103.47899628    1.11000001    2.82999992
   13.35000038  103.47899628    1.11000001    2.82999992
   13.35416698  109.71700287    1.11000001    2.80999994
   13.35722256  108.20899963    1.11000001    2.80999994
   13.36055565  103.10199738    1.11000001    2.82999992
   13.36333370  104.64299774    1.09000003    2.82999992
   13.36416721  116.37400055    1.11000001    2.82999992
   13.36722279  122.60800171    1.11000001    2.80999994
   13.37055588  116.79699707    1.09000003    2.82999992
   13.37388897  122.24400330    1.09000003    2.80999994
   13.37694454  108.55899811    1.09000003    2.82999992
   13.38027763  127.28600311    1.09000003    2.82999992
   13.38333321  116.14600372    1.11000001    2.82999992
   13.38666630  113.69899750    1.11000001    2.82999992
   13.39305496  113.69899750    1.25000000    2.82999992
   13.39722252  120.56300354    1.19000006    2.80999994
   13.40027714  122.50199890    1.19000006    2.80999994
   13.40361118  120.75700378    1.19000006    2.80999994
   13.40694427  121.02999878    1.19000006    2.80999994
   13.40999985  127.75900269    1.16999996    2.80999994
   13.41333294  116.84300232    1.16999996    2.80999994
   13.41638851  114.99500275    1.16999996    2.80999994
   13.41972256  119.81999969    1.16999996    2.82999992
   13.42305565  114.03099823    1.16999996    2.82999992
   13.42611122  125.07199860    1.16999996    2.80999994
   13.42944431  106.70800018    1.16999996    2.80999994
   13.43000031  114.63200378    1.16999996    2.80999994
   13.43583298  114.63200378    1.19000006    2.80999994
   13.43972206  111.31800079    1.19000006    2.80999994
   13.44305515  122.17700195    1.19000006    2.80999994
   13.44638920  123.96099854    1.21000004    2.80999994
   13.44944477  112.44699860    1.21000004    2.80999994
   13.45277786  114.19699860    1.19000006    2.82999992
   13.45611095  110.69000244    1.19000006    2.80999994
   13.45916653  117.80500031    1.19000006    2.82999992
   13.46249962  115.28600311    1.19000006    2.82999992
   13.46333313  125.51699829    1.16999996    2.80999994
   13.46611118  114.76899719    1.16999996    2.80999994
   13.46916580  114.44400024    1.16999996    2.82999992
   13.47249985  125.62799835    1.16999996    2.80999994
   13.47861099  125.62799835    1.14999998    2.80999994
   13.48277760  127.97100067    1.13000000    2.82999992
   13.48583317  139.21099854    1.13000000    2.80999994
   13.48916721  117.93299866    1.13000000    2.80999994
   13.49222279  118.19799805    1.11000001    2.82999992
   13.49555588  141.20700073    1.11000001    2.82999992
   13.49666691  131.61399841    1.13000000    2.82999992
   13.49916649  133.24699402    1.11000001    2.84999990
   13.50222206  116.92199707    1.13000000    2.82999992
   13.50555515  129.14199829    1.14999998    2.80999994
   13.50888920  129.42700195    1.13000000    2.80999994
   13.51194477  120.23000336    1.14999998    2.82999992
   13.51527786  128.44599915    1.14999998    2.82999992
   13.52138901  128.44599915    1.16999996    2.80999994
   13.52555561  127.27200317    1.16999996    2.80999994
   13.52861118  133.24600220    1.16999996    2.82999992
   13.52999973  125.41100311    1.14999998    2.82999992
   13.53249931  117.72799683    1.14999998    2.82999992
   13.53555584  119.19999695    1.14999998    2.82999992
   13.53888893  130.75000000    1.13000000    2.82999992
   13.54222298  118.97699738    1.13000000    2.82999992
   13.54527855  124.84400177    1.13000000    2.82999992
   13.54861164  129.53300476    1.13000000    2.80999994
   13.55194473  111.26300049    1.14999998    2.82999992
   13.55500031  122.87000275    1.13000000    2.82999992
   13.55833340  127.23200226    1.13000000    2.82999992
   13.56416702  127.23200226    1.13000000    2.82999992
   13.56833363  123.69599915    1.13000000    2.82999992
   13.57166672  123.51699829    1.13000000    2.82999992
   13.57472229  118.04100037    1.13000000    2.82999992
   13.57805538  119.98200226    1.11000001    2.82999992
   13.58138847  133.22300720    1.11000001    2.82999992
   13.58444405  128.64999390    1.11000001    2.82999992
   13.58777714  121.85900116    1.09000003    2.82999992
   13.59083271  117.43499756    1.09000003    2.82999992
   13.59416676  116.52799988    1.07000005    2.82999992
   13.59666634  115.42400360    1.09000003    2.84999990
   13.59777737  133.17799377    1.07000005    2.82999992
   13.60083389  140.11399841    1.07000005    2.84999990
   13.60694504  140.11399841    1.05999994    2.82999992
   13.61111164  107.88899994    1.03999996    2.82999992
   13.61444473  118.43199921    1.03999996    2.84999990
   13.61777782  109.95899963    1.01999998    2.84999990
   13.62083340  111.48799896    1.01999998    2.82999992
   13.62416649  114.47000122    1.01999998    2.84999990
   13.62722206  118.33999634    1.01999998    2.84999990
   13.63000011  103.28299713    1.01999998    2.82999992
   13.63111115  104.03099823    1.01999998    2.84999990
   13.63444424  113.13600159    1.01999998    2.86999989
   13.63749981  112.44400024    1.00000000    2.84999990
   13.64083290  104.97499847    1.00000000    2.82999992
   13.64388847  121.16500092    1.00000000    2.84999990
   13.64999962  121.16500092    1.00000000    2.84999990
   13.65416622  118.46099854    1.00000000    2.84999990
   13.65722179  118.48999786    1.00000000    2.84999990
   13.66055489  107.56900024    1.00000000    2.84999990
   13.66333294  119.74299622    1.00000000    2.84999990
   13.66416645  112.27700043    1.00000000    2.84999990
   13.66750050  108.28099823    0.98000002    2.84999990
   13.67055607  117.81700134    0.98000002    2.84999990
   13.67388916  112.95999908    0.98000002    2.86999989
   13.67694473  109.29499817    0.98000002    2.84999990
   13.68027782  111.13400269    0.95999998    2.84999990
   13.68361092  100.48799896    0.94000000    2.86999989
   13.68666649  119.09100342    0.94000000    2.84999990
   13.69277763  119.09100342    0.94000000    2.84999990
   13.69694424  112.25099945    0.94000000    2.84999990
   13.69999981  110.82700348    0.94000000    2.84999990
   13.70333290  114.90499878    0.95999998    2.84999990
   13.70666695  114.96299744    0.98000002    2.84999990
   13.70972157  124.98000336    0.98000002    2.84999990
   13.71305561  104.39600372    0.98000002    2.84999990
   13.71638870  120.39700317    1.00000000    2.84999990
   13.71944427  113.07299805    0.98000002    2.84999990
   13.72277737  109.56500244    1.00000000    2.84999990
   13.72583294  112.03700256    1.00000000    2.84999990
   13.72916603  112.83300018    1.00000000    2.84999990
   13.72999954  114.26300049    1.01999998    2.82999992
   13.73555565  114.26300049    1.00000000    2.84999990
   13.73972225  112.79399872    1.00000000    2.86999989
   13.74305534  118.36399841    1.01999998    2.84999990
   13.74611092  112.38700104    1.01999998    2.84999990
   13.76388931   99.89459991    0.98000002    2.84999990
   13.76611137  107.44999695    0.98000002    2.84999990
   13.76944447  115.61499786    0.98000002    2.84999990
   13.77277756  116.04100037    0.98000002    2.84999990
   13.77861118  116.04100037    0.98000002    2.86999989
   13.78277779  112.06300354    0.98000002    2.86999989
   13.78611183  115.75499725    0.98000002    2.86999989
   13.78916740  120.38999939    0.98000002    2.86999989
   13.79250050  112.31400299    0.98000002    2.86999989
   13.79583359  111.36399841    0.98000002    2.84999990
   13.79694462  115.31400299    0.98000002    2.86999989
   13.79944515  115.25700378    1.00000000    2.84999990
   13.80277824  109.10600281    1.00000000    2.84999990
   13.80583382  117.00399780    1.00000000    2.86999989
   13.80916691  100.19699860    0.98000002    2.89000010
   13.81222248  123.48799896    0.98000002    2.86999989
   13.81555557  116.13300323    0.98000002    2.84999990
   13.82138920  116.13300323    0.98000002    2.84999990
   13.82555580  131.13699341    0.98000002    2.86999989
   13.82888889  123.65399933    0.98000002    2.84999990
   13.83027744  110.71499634    0.98000002    2.86999989
   13.83249950  118.88400269    0.98000002    2.84999990
   13.83583260  112.76799774    1.00000000    2.84999990
   13.83888817  109.59799957    0.98000002    2.84999990
   13.84222221  117.48000336    0.98000002    2.86999989
   13.84555531  117.44400024    0.98000002    2.84999990
   13.84861088  110.35299683    0.98000002    2.86999989
   13.85194492  108.88800049    1.00000000    2.86999989
   13.85527802  103.04599762    1.00000000    2.84999990
   13.85833359  104.52700043    1.01999998    2.86999989
   13.86444473  104.52700043    1.00000000    2.86999989
   13.86833382  102.19799805    1.00000000    2.84999990
   13.87166691  113.33300018    1.00000000    2.86999989
   13.87500000  115.51899719    1.00000000    2.84999990
   13.87805557  114.55899811    0.98000002    2.86999989
   13.88138866  106.49900055    1.00000000    2.86999989
   13.88472176  109.06900024    1.00000000    2.82999992
   13.88777733  112.65299988    1.00000000    2.86999989
   13.89111137  115.53099823    1.01999998    2.86999989
   13.89416695  106.56400299    1.01999998    2.86999989
   13.89694405  114.02100372    1.03999996    2.84999990
   13.89805508  109.59799957    1.03999996    2.84999990
   13.90138817  113.99900055    1.03999996    2.84999990
   13.90722179  113.99900055    1.00000000    2.84999990
   13.91138840   99.88590240    1.00000000    2.86999989
   13.91444397  105.79199982    1.00000000    2.84999990
   13.91777802  101.80899811    1.01999998    2.86999989
   13.92111111  126.13899994    1.01999998    2.84999990
   13.92416668  114.90399933    1.01999998    2.86999989
   13.92750072  107.91600037    1.01999998    2.86999989
   13.93027782  101.22000122    0.98000002    2.86999989
   13.93111134  102.29000092    0.98000002    2.86999989
   13.93444443  109.96199799    0.98000002    2.86999989
   13.93750000  112.27600098    0.94000000    2.84999990
   13.94083309  109.85700226    0.94000000    2.86999989
   13.94416714  118.05999756    0.94000000    2.89000010
   13.94999981  118.05999756    0.92000002    2.86999989
   13.95416641  111.72000122    0.94000000    2.86999989
   13.95749950  107.53900146    0.94000000    2.86999989
   13.96055508  129.88999939    0.94000000    2.86999989
   13.96361065  109.26300049    0.95999998    2.86999989
   13.96416664  118.89399719    0.95999998    2.89000010
   13.96749973  117.30799866    0.98000002    2.86999989
   13.97055531  120.67099762    1.00000000    2.86999989
   13.97388840  122.67099762    1.01999998    2.86999989
   13.97722149  110.51699829    1.01999998    2.86999989
   13.98027706  117.13400269    1.01999998    2.86999989
   13.98361111  122.82499695    1.03999996    2.86999989
   13.98666668  132.57800293    1.03999996    2.86999989
   13.99277782  132.57800293    1.03999996    2.86999989
   13.99694443  109.94400024    1.07000005    2.86999989
   13.99750042  107.67299652    1.07000005    2.86999989
   14.00083351  126.26200104    1.07000005    2.84999990
   14.00388908  121.20700073    1.07000005    2.84999990
   14.00722218  123.95800018    1.03999996    2.86999989
   14.01055527  116.42099762    1.03999996    2.86999989
   14.01361084  119.83999634    1.00000000    2.84999990
   14.01694393  112.38200378    0.98000002    2.86999989
   14.02027798  108.06500244    1.00000000    2.84999990
   14.02333355  107.48400116    1.00000000    2.86999989
   14.02666664  113.93199921    1.00000000    2.86999989
   14.02972221   97.49849701    1.00000000    2.86999989
   14.03055573   91.21189880    1.00000000    2.86999989
   14.03555584   91.21189880    1.00000000    2.86999989
   14.03972244  117.40000153    0.95999998    2.86999989
   14.04305553  123.08000183    0.95999998    2.86999989
   14.04638958   95.85140228    0.95999998    2.86999989
   14.04944515  107.07499695    0.95999998    2.86999989
   14.05277824  112.88600159    0.89999998    2.89000010
   14.05611134  112.68699646    0.86000001    2.86999989
   14.05916691  108.09700012    0.86000001    2.89000010
   14.06250000  109.04000092    0.86000001    2.89000010
   14.06361103  110.89600372    0.86000001    2.86999989
   14.06611156  110.47899628    0.86000001    2.89000010
   14.06944466  102.96199799    0.86000001    2.91000009
   14.07250023  101.36900330    0.86000001    2.86999989
   14.07861137  101.36900330    0.86000001    2.86999989
   14.08277798   88.75640106    0.88000000    2.89000010
   14.08583260  105.35900116    0.92000002    2.86999989
   14.08916664  108.36599731    0.92000002    2.89000010
   14.09249973  104.81099701    0.94000000    2.86999989
   14.09555531   97.97560120    0.92000002    2.86999989
   14.09694386  118.90000153    0.92000002    2.86999989
   14.09916592  115.33899689    0.92000002    2.86999989
   14.10249996  103.97799683    0.92000002    2.91000009
   14.10555553  110.08200073    0.89999998    2.89000010
   14.10888958  108.88999939    0.86000001    2.89000010
   14.11222267  108.03199768    0.86000001    2.89000010
   14.11527824  104.95400238    0.86000001    2.89000010
   14.12138939  104.95400238    0.86000001    2.89000010
   14.12555599  102.83899689    0.86000001    2.89000010
   14.12861156   95.37069702    0.86000001    2.89000010
   14.13027763  108.81199646    0.83999997    2.89000010
   14.13249969  106.05599976    0.81999999    2.89000010
   14.13583279  116.67199707    0.83999997    2.89000010
   14.13888836  105.12799835    0.81999999    2.86999989
   14.14222240  111.32299805    0.81999999    2.89000010
   14.14555550  108.97399902    0.80000001    2.89000010
   14.14861107  118.68000031    0.80000001    2.89000010
   14.15194416  109.19200134    0.80000001    2.89000010
   14.15499973  108.54499817    0.81999999    2.89000010
   14.15833282  112.86900330    0.80000001    2.89000010
   14.16416645  112.86900330    0.83999997    2.89000010
   14.16833401  101.84400177    0.88000000    2.91000009
   14.17166710  106.30300140    0.86000001    2.89000010
   14.17472267  117.66100311    0.86000001    2.89000010
   14.17805576  102.60299683    0.86000001    2.89000010
   14.18138885  105.68699646    0.86000001    2.89000010
   14.18444443  112.20999908    0.83999997    2.89000010
   14.18777752  103.80500031    0.83999997    2.89000010
   14.19111156   97.51730347    0.83999997    2.89000010
   14.19416714   98.80180359    0.81999999    2.89000010
   14.19694424  107.28600311    0.81999999    2.89000010
   14.19777775  114.54699707    0.81999999    2.89000010
   14.20111084  123.32199860    0.81999999    2.89000010
   14.20694447  123.32199860    0.80000001    2.91000009
   14.21111107   98.16269684    0.79000002    2.91000009
   14.21444416  100.21600342    0.80000001    2.91000009
   14.21777725  101.28900146    0.80000001    2.91000009
   14.22083282  109.29699707    0.80000001    2.91000009
   14.22416592  102.83000183    0.80000001    2.89000010
   14.22722149  116.71199799    0.81999999    2.89000010
   14.23027706  100.44000244    0.83999997    2.91000009
   14.23083305  107.26000214    0.83999997    2.89000010
   14.23416710  100.40200043    0.83999997    2.89000010
   14.23722267  102.88899994    0.86000001    2.89000010
   14.24055576  107.59799957    0.86000001    2.89000010
   14.24388885  110.71800232    0.86000001    2.89000010
   14.25000000  110.71800232    0.88000000    2.89000010
   14.25416660  103.93699646    0.88000000    2.89000010
   14.25722218  108.74900055    0.86000001    2.89000010
   14.26055527  106.60299683    0.86000001    2.89000010
   14.26361084   99.49040222    0.83999997    2.91000009
   14.26416683  110.46600342    0.83999997    2.89000010
   14.26749992  100.25700378    0.83999997    2.89000010
   14.27055550  106.88999939    0.83999997    2.91000009
   14.27388859  110.40899658    0.83999997    2.89000010
   14.27722168  111.17500305    0.83999997    2.89000010
   14.28027725  112.59799957    0.83999997    2.91000009
   14.28361130  118.91699982    0.83999997    2.91000009
   14.28666687  115.69100189    0.83999997    2.91000009
   14.29277802  115.69100189    0.81999999    2.89000010
   14.29694462  106.55000305    0.81999999    2.91000009
   14.29750061  115.50199890    0.81999999    2.91000009
   14.30055618  121.65799713    0.81999999    2.91000009
   14.30388927   99.70339966    0.83999997    2.89000010
   14.30722237  106.61299896    0.81999999    2.89000010
   14.31027794  110.35700226    0.83999997    2.89000010
   14.31388950  114.23600006    0.81999999    2.91000009
   14.31694412  113.95500183    0.83999997    2.91000009
   14.32027817  120.91500092    0.81999999    2.91000009
   14.32333374  108.74400330    0.81999999    2.91000009
   14.32666683  115.25700378    0.81999999    2.89000010
   14.32999992  116.25199890    0.81999999    2.91000009
   14.33083344  121.97100067    0.81999999    2.91000009
   14.33555508  121.97100067    0.81999999    2.91000009
   14.33972168  115.24800110    0.83999997    2.91000009
   14.34305477  113.76300049    0.81999999    2.89000010
   14.34611034  123.85299683    0.81999999    2.93000007
   14.34944439  103.65699768    0.83999997    2.91000009
   14.35277843  123.67500305    0.81999999    2.89000010
   14.35583401  108.45899963    0.81999999    2.89000010
   14.35916710  119.68199921    0.81999999    2.91000009
   14.36250019  103.39399719    0.81999999    2.91000009
   14.36416721  108.38999939    0.81999999    2.91000009
   14.36583328  115.35099792    0.83999997    2.91000009
   14.36916637  115.34700012    0.86000001    2.91000009
   14.37250042  110.25900269    0.86000001    2.91000009
   14.37861156  110.25900269    0.86000001    2.89000010
   14.38249969  104.43199921    0.89999998    2.89000010
   14.38583279  111.50099945    0.92000002    2.89000010
   14.38916683  122.86699677    0.94000000    2.89000010
   14.39222240  111.75299835    0.94000000    2.89000010
   14.39555550  101.19699860    0.92000002    2.91000009
   14.39750004  117.57900238    0.92000002    2.89000010
   14.39916611  109.31600189    0.92000002    2.89000010
   14.40249920  117.56500244    0.94000000    2.89000010
   14.40583324  106.50800323    0.95999998    2.91000009
   14.40888882  111.58300018    0.95999998    2.89000010
   14.41222191  113.06800079    1.00000000    2.89000010
   14.41555500  105.94200134    1.03999996    2.89000010
   14.42138958  105.94200134    4.13999987    2.93000007
   14.42555618  116.49199677    4.44999981    2.93000007
   14.42861176  120.49099731    4.90999985    2.96000004
   14.43083382  148.80900574    4.90999985    2.86999989
   14.43222237   -1.00000000    4.90999985    2.48000002
   14.43555546   -1.00000000    4.90999985    0.25000000
   14.43888855   -1.00000000    4.90999985    0.34000000
   14.44194412   -1.00000000    4.90999985    0.64999998
   14.44527817   -1.00000000    4.90999985    1.83000004
   14.44861126   -1.00000000    4.90999985    1.63000000
   14.45166683  117.19300079    4.90999985    0.98000002
   14.45499992  125.20500183    4.80999994    2.94000006
   14.45805550  134.16700745    2.91000009    2.86999989
   14.46416664  134.16700745    1.01999998    2.89000010
   14.46833324  119.54699707    1.00000000    2.86999989
   14.47138882  106.97000122    0.98000002    2.86999989
   14.47472191  117.90299988    0.98000002    2.89000010
   14.47805500  131.47700500    0.98000002    2.89000010
   14.48111057  128.66700745    0.98000002    2.89000010
   14.48444462  120.02700043    0.98000002    2.91000009
   14.48777771  123.10500336    0.98000002    2.89000010
   14.49083328  113.58999634    0.94000000    2.91000009
   14.49416733  114.12100220    0.92000002    2.91000009
   14.49722290  122.57900238    0.94000000    2.89000010
   14.49777794  124.29399872    0.94000000    2.89000010
   14.50111103  119.72799683    0.94000000    2.89000010
   14.50694466  119.72799683    0.94000000    2.86999989
   14.51111126  120.97799683    0.94000000    2.89000010
   14.51444435  130.21200562    0.94000000    2.89000010
   14.51749992  110.92099762    0.92000002    2.91000009
   14.52083302  112.38099670    0.92000002    2.89000010
   14.52416611  119.37300110    0.94000000    2.89000010
   14.52722168  123.70700073    0.92000002    2.89000010
   14.53055573  121.83300018    0.94000000    2.89000010
   14.53138828  127.14399719    0.94000000    2.89000010
   14.53416729  115.72200012    0.95999998    2.89000010
   14.53750038  124.45500183    0.95999998    2.86999989
   14.54055595  120.89900208    1.00000000    2.86999989
   14.54388905  131.16600037    0.98000002    2.89000010
   14.54972267  131.16600037    0.95999998    2.89000010
   14.55388927  117.64199829    0.95999998    2.89000010
   14.55722237  101.86000061    0.94000000    2.91000009
   14.56055546  123.27999878    0.94000000    2.91000009
   14.56361103  102.13800049    0.94000000    2.91000009
   14.56444454  108.77200317    0.94000000    2.91000009
   14.56722260  108.17800140    0.94000000    2.89000010
   14.57055569  123.40399933    0.92000002    2.89000010
   14.57361126  121.87200165    0.92000002    2.89000010
   14.57694435  110.81300354    0.92000002    2.91000009
   14.58027744  117.80300140    0.92000002    2.89000010
   14.58333302  117.29799652    0.92000002    2.91000009
   14.58666611  109.30699921    0.92000002    2.91000009
   14.59277725  109.30699921    0.89999998    2.91000009
   14.59694386  114.46399689    0.92000002    2.91000009
   14.59777737   99.98999786    0.94000000    2.91000009
   14.60055637  106.23600006    0.94000000    2.91000009
   14.60388947  115.74700165    0.95999998    2.89000010
   14.60694504  115.79599762    0.95999998    2.89000010
   14.61027813  109.07599640    0.95999998    2.89000010
   14.61361122  107.70200348    1.00000000    2.89000010
   14.61666679  108.76000214    1.00000000    2.91000009
   14.61999989  122.17600250    1.23000002    2.91000009
   14.62305546   84.09619904    4.90999985    2.91000009
   14.62638855  127.28500366    4.90999985    2.84999990
   14.62972260  103.75000000    2.15000010    2.91000009
   14.63111115  117.18800354    1.07000005    2.91000009
   14.63555527  117.18800354    1.01999998    2.89000010
   14.63972187  123.79499817    1.00000000    2.86999989
   14.64277744  113.86299896    0.98000002    2.86999989
   14.64611053  117.12899780    1.00000000    2.89000010
   14.64944458  128.42700195    1.00000000    2.89000010
   14.65249920  114.00299835    0.98000002    2.89000010
   14.65583324  120.17800140    1.00000000    2.89000010
   14.65916634  118.44400024    0.98000002    2.89000010
   14.66222191  114.17800140    0.89999998    2.91000009
   14.66444397  110.92299652    0.89999998    2.89000010
   14.66583252  127.54100037    0.89999998    2.91000009
   14.66916656  110.83599854    0.89999998    2.91000009
   14.67222214  109.75900269    0.89999998    2.91000009
   14.67833328  109.75900269    0.89999998    2.89000010
   14.68249989  112.87100220    0.92000002    2.89000010
   14.68583298  106.11100006    0.92000002    2.89000010
   14.68888855  109.06700134    0.94000000    2.89000010
   14.69222260  114.51399994    0.94000000    2.91000009
   14.69555569  117.65599823    0.94000000    2.91000009
   14.69777775  109.67199707    0.95999998    2.89000010
   14.69916630  108.19599915    0.95999998    2.89000010
   14.70249939  101.18399811    0.95999998    2.86999989
   14.70555496  106.02100372    0.98000002    2.91000009
   14.70888901  101.13800049    0.98000002    2.86999989
   14.71222210  106.48500061    1.01999998    2.86999989
   14.71527767  114.54100037    1.01999998    2.86999989
   14.72111034  114.54100037    1.03999996    2.89000010
   14.72527695  111.52700043    1.03999996    2.89000010
   14.72861099  102.35500336    1.16999996    2.91000009
   14.73111057   96.77729797    2.71000004    2.91000009
   14.73222160   85.16760254    4.61999989    2.93000007
   14.73555565   -1.00000000    4.90999985    0.46000001
   14.73861122   -1.00000000    4.90999985    0.13000000
   14.74194431   -1.00000000    4.90999985    0.69000000
   14.74527836   -1.00000000    4.90999985    2.26999998
   14.84888840   99.22350311    0.95999998    2.93000007
   14.85222244  106.83100128    0.92000002    2.91000009
   14.85527802  107.12699890    0.88000000    2.89000010
   14.85861111   96.59449768    0.88000000    2.89000010
   14.86166668   87.86940002    0.86000001    2.93000007
   14.86500072   99.59750366    0.88000000    2.91000009
   14.86916637   99.59750366    0.88000000    2.91000009
   14.87333393  107.01200104    0.88000000    2.91000009
   14.87638855  101.79599762    0.86000001    2.91000009
   14.87972260  107.86799622    0.83999997    2.91000009
   14.88222218   97.97789764    0.83999997    2.91000009
   14.88361073  103.87000275    0.83999997    2.91000009
   14.88666630  107.35800171    0.83999997    2.91000009
   14.89000034  108.34500122    0.81999999    2.91000009
   14.89305496  110.59899902    0.81999999    2.91000009
   14.89638901  105.73100281    0.81999999    2.91000009
   14.89972210  110.81199646    0.83999997    2.91000009
   14.90277767  114.49900055    0.81999999    2.91000009
   14.90611076  107.85099792    0.81999999    2.91000009
   14.91194439  107.85099792    0.80000001    2.93000007
   14.91611099  110.29199982    0.80000001    2.93000007
   14.91944504  114.55300140    0.80000001    2.91000009
   14.92250061  120.09700012    0.80000001    2.93000007
   14.92583370  113.33799744    0.80000001    2.91000009
   14.92916679  116.91999817    0.81999999    2.91000009
   14.93222237  114.57800293    0.81999999    2.91000009
   14.93555546  109.19100189    0.83999997    2.91000009
   14.93861103  110.67299652    0.83999997    2.91000009
   14.94194412   99.55280304    0.86000001    2.91000009
   14.94527817  116.36299896    0.86000001    2.91000009
   14.94833374   97.78530121    0.88000000    2.91000009
   14.94888878  106.68099976    0.88000000    2.91000009
   14.95472240  106.68099976    0.86000001    2.91000009
   14.95888901  108.48100281    0.86000001    2.89000010
   14.96222210  112.01799774    0.86000001    2.91000009
   14.96555519  120.57399750    0.83999997    2.91000009
   14.96861076  118.47200012    0.83999997    2.91000009
   14.97194386  107.06099701    0.83999997    2.91000009
   14.97499943  114.08799744    0.83999997    2.91000009
   14.97833252  122.17800140    0.83999997    2.91000009
   14.98166656  120.76100159    0.86000001    2.91000009
   14.98222160  113.91699982    0.86000001    2.91000009
   14.98527813  103.09200287    0.86000001    2.91000009
   14.98861122  111.78099823    0.88000000    2.91000009
   14.99166679  107.48000336    0.89999998    2.91000009
   14.99777794  107.48000336    0.94000000    2.91000009
   15.00194454  109.03700256    0.94000000    2.91000009
   15.00500011  110.60600281    0.92000002    2.91000009
   15.00833321  113.38999939    0.92000002    2.89000010
   15.01138878  110.01499939    0.92000002    2.89000010
   15.01472187  111.10600281    0.92000002    2.91000009
   15.01555538  107.24299622    0.92000002    2.91000009
   15.01833344  117.19799805    0.92000002    2.91000009
   15.02166653  105.20400238    0.94000000    2.91000009
   15.02472210  113.48500061    0.94000000    2.91000009
   15.02805519  113.05500031    0.95999998    2.89000010
   15.03111076  115.91799927    0.95999998    2.89000010
   15.03444481  115.98500061    0.98000002    2.89000010
   15.04055595  115.98500061    0.98000002    2.91000009
   15.04472256  103.21199799    0.95999998    2.89000010
   15.04777813  107.00000000    0.95999998    2.89000010
   15.04888916  102.15200043    0.95999998    2.89000010
   15.05166721   95.59729767    0.98000002    2.89000010
   15.05500031  106.64900208    0.98000002    2.91000009
   15.05805588  113.19400024    1.00000000    2.91000009
   15.06138897  101.95500183    1.00000000    2.91000009
   15.06444454  109.62699890    1.01999998    2.89000010
   15.06777763  115.36699677    1.00000000    2.91000009
   15.07111073  114.32299805    1.00000000    2.89000010
   15.07416630  111.31099701    0.98000002    2.89000010
   15.07750034  104.20600128    0.98000002    2.91000009
   15.08333302  104.20600128    0.95999998    2.91000009
   15.08749962  101.20200348    0.89999998    2.91000009
   15.09083271  102.42800140    0.88000000    2.93000007
   15.09388828  106.89900208    0.88000000    2.91000009
   15.09722233   95.10279846    0.86000001    2.93000007
   15.10055637   99.10910034    0.86000001    2.93000007
   15.10361195  109.26399994    0.81999999    2.93000007
   15.10694504  102.30300140    0.81999999    2.91000009
   15.11027813  109.96499634    0.83999997    2.91000009
   15.11333370  100.03099823    0.83999997    2.91000009
   15.11555576  104.05200195    0.81999999    2.93000007
   15.11694431   98.74030304    0.83999997    2.93000007
   15.12027836  104.05899811    0.81999999    2.93000007
   15.12611103  104.05899811    0.81999999    2.93000007
   15.13027763  110.88200378    0.83999997    2.93000007
   15.13361073  115.60199738    0.86000001    2.91000009
   15.13694477  106.17800140    0.86000001    2.91000009
   15.14000034  106.68699646    0.88000000    2.91000009
   15.14333344  118.21399689    0.89999998    2.93000007
   15.14666653  107.76499939    0.88000000    2.91000009
   15.14888859  103.48500061    0.92000002    2.91000009
   15.15027714  109.37300110    0.92000002    2.91000009
   15.15361118  109.14700317    0.92000002    2.89000010
   15.15666676  104.75299835    0.95999998    2.89000010
   15.15999985  106.47399902    0.98000002    2.91000009
   15.16305542  107.79100037    0.98000002    2.91000009
   15.16916656  107.79100037    1.00000000    2.91000009
   15.17333412  104.07299805    1.01999998    2.89000010
   15.17638874  102.33999634    1.01999998    2.89000010
   15.17972279  113.95099640    1.01999998    2.89000010
   15.18222237  111.59500122    1.01999998    2.89000010
   15.18333340  107.36599731    1.01999998    2.89000010
   15.18666649  105.85700226    1.00000000    2.89000010
   15.18972206  102.46299744    0.88000000    2.91000009
   15.19305515  110.73100281    0.86000001    2.91000009
   15.19611073  111.80999756    0.83999997    2.93000007
   15.19944477  112.08200073    0.83999997    2.91000009
   15.20277786  106.19100189    0.81999999    2.93000007
   15.20583344  116.25800323    0.81999999    2.93000007
   15.21194458  116.25800323    0.81999999    2.93000007
   15.21611118  114.46700287    0.79000002    2.91000009
   15.21916580  110.31700134    0.79000002    2.91000009
   15.22249985  109.76200104    0.79000002    2.91000009
   15.22583294  109.87300110    0.79000002    2.93000007
   15.22888851  116.30000305    0.79000002    2.91000009
   15.23222160  112.21600342    0.79000002    2.93000007
   15.23555565  104.96399689    0.79000002    2.93000007
   15.23861122  109.29499817    0.76999998    2.93000007
   15.24194431  111.33399963    0.76999998    2.93000007
   15.24499989  109.35399628    0.75000000    2.93000007
   15.24833393  115.85900116    0.75000000    2.93000007
   15.24888897  109.04599762    0.75000000    2.93000007
   15.25472260  109.04599762    0.69000000    2.93000007
   15.25888920  115.23999786    0.69000000    2.94000006
   15.26222229  108.70600128    0.70999998    2.93000007
   15.26527786  115.58499908    0.67000002    2.94000006
   15.26861095  103.43000031    0.67000002    2.94000006
   15.27166653  112.50000000    0.67000002    2.93000007
   15.27499962  105.69899750    0.67000002    2.94000006
   15.27833271  108.75199890    0.67000002    2.93000007
   15.28138828  120.70800018    0.69000000    2.93000007
   15.28222179  120.23600006    0.70999998    2.93000007
   15.28500080  105.33799744    0.73000002    2.93000007
   15.28833389  110.23699951    0.70999998    2.93000007
   15.29138947  107.94699860    0.73000002    2.93000007
   15.29777813  107.94699860    0.69000000    2.93000007
   15.30166721  110.54100037    0.69000000    2.94000006
   15.30500031  118.78199768    0.69000000    2.94000006
   15.30833340  104.87500000    0.69000000    2.93000007
   15.31138897  114.76699829    0.69000000    2.93000007
   15.31472206  114.16799927    0.69000000    2.94000006
   15.31555557  111.62000275    0.70999998    2.93000007
   15.31833363  111.90200043    0.73000002    2.93000007
   15.32166672  105.84100342    0.70999998    2.93000007
   15.32472229  111.86199951    0.73000002    2.93000007
   15.32805538  113.82399750    0.73000002    2.93000007
   15.33138847  120.15699768    0.73000002    2.93000007
   15.33444405  108.46499634    0.73000002    2.93000007
   15.43861103   -1.00000000   -1.00000000   -1.00000000
   15.56805515   -1.00000000   -1.00000000   -1.00000000
   15.68166733   -1.00000000   -1.00000000   -1.00000000
   15.71361065   70.01409912    0.80000001    2.93000007
   15.71722221  105.24199677    0.80000001    2.93000007
   15.72027779  110.84899902    0.79000002    2.93000007
   15.72361088  107.13700104    0.79000002    2.94000006
   15.72666645  105.07299805    0.79000002    2.93000007
   15.72999954   98.13649750    0.79000002    2.93000007
   15.73416710   98.13649750    0.79000002    2.94000006
   15.73833370  100.92900085    0.79000002    2.94000006
   15.74138927   99.18920135    0.79000002    2.94000006
   15.74472237  116.15399933    0.79000002    2.94000006
   15.74694443   99.18119812    0.79000002    2.94000006
   15.74833393  104.90499878    0.79000002    2.94000006
   15.75166702   99.66169739    0.76999998    2.93000007
   15.75472260  110.70600128    0.75000000    2.93000007
   15.75805569  108.64600372    0.75000000    2.94000006
   15.76138878  103.12699890    0.75000000    2.93000007
   15.76444435  110.95300293    0.75000000    2.94000006
   15.76777744  107.95099640    0.75000000    2.94000006
   15.77083302  109.39900208    0.76999998    2.94000006
   15.77694416  109.39900208    0.75000000    2.94000006
   15.78111076  113.51499939    0.75000000    2.94000006
   15.78444481   97.82540131    0.75000000    2.93000007
   15.78750038  106.99299622    0.79000002    2.94000006
   15.79083347  102.05000305    0.79000002    2.94000006
   15.79416752  102.49800110    0.79000002    2.94000006
   15.79722309  106.55500031    0.79000002    2.93000007
   15.80055618   94.80549622    0.76999998    2.94000006
   15.80361176  108.94899750    0.76999998    2.94000006
   15.80694485  111.54199982    0.73000002    2.94000006
   15.81027794  113.07900238    0.70999998    2.93000007
   15.81333351  110.15599823    0.70999998    2.94000006
   15.81388950  104.34100342    0.70999998    2.94000006
   15.81972218  104.34100342    0.73000002    2.94000006
   15.82388878  104.85600281    0.73000002    2.94000006
   15.82722187  112.47499847    0.73000002    2.94000006
   15.83055592  103.60399628    0.73000002    2.94000006
   15.83361053  108.67400360    0.73000002    2.94000006
   15.83694458  111.22799683    0.73000002    2.94000006
   15.84027767  108.11299896    0.70999998    2.94000006
   15.84361076  113.99299622    0.70999998    2.94000006
   15.84666634  108.89700317    0.70999998    2.94000006
   15.84722233  114.14800262    0.70999998    2.94000006
   15.85027790  113.14800262    0.73000002    2.94000006
   15.85361195  107.47699738    0.73000002    2.94000006
   15.85666752  109.10500336    0.70999998    2.94000006
   15.86277771  109.10500336    0.70999998    2.94000006
   15.86694431  111.06900024    0.70999998    2.94000006
   15.86999989  107.91699982    0.70999998    2.94000006
   15.87333393  114.75499725    0.70999998    2.94000006
   15.87638855  108.76000214    0.70999998    2.94000006
   15.87972260  109.51300049    0.70999998    2.94000006
   15.88055611  107.23999786    0.69000000    2.94000006
   15.88333321  107.16000366    0.69000000    2.94000006
   15.88666630  101.51100159    0.69000000    2.94000006
   15.88972187  104.09999847    0.70999998    2.94000006
   15.89305496  107.61000061    0.70999998    2.94000006
   15.89638901   97.99700165    0.70999998    2.94000006
   15.89944458  102.54699707    0.70999998    2.94000006
   15.90555477  102.54699707    0.67000002    2.94000006
   15.90972137  103.48999786    0.67000002    2.94000006
   15.91277695  104.61900330    0.64999998    2.94000006
   15.91388893  105.61599731    0.64999998    2.94000006
   15.91638851  105.21900177    0.64999998    2.94000006
   15.91972256  108.58999634    0.64999998    2.94000006
   15.92277813  107.66600037    0.64999998    2.94000006
   15.92611122  101.48300171    0.64999998    2.94000006
   15.92944431  112.93699646    0.64999998    2.94000006
   15.93249989  108.85399628    0.64999998    2.94000006
   15.93583298  114.33300018    0.67000002    2.94000006
   15.93888855  101.44300079    0.67000002    2.94000006
   15.94222260  100.43000031    0.69000000    2.94000006
   15.94833374  100.43000031    0.69000000    2.96000004
   15.95249939  100.65499878    0.69000000    2.94000006
   15.95583344  108.01899719    0.70999998    2.94000006
   15.95888901  104.91799927    0.70999998    2.94000006
   15.96222210  101.78900146    0.70999998    2.94000006
   15.96555519  103.83100128    0.73000002    2.93000007
   15.96861076  103.73699951    0.73000002    2.94000006
   15.97194386  102.08799744    0.73000002    2.93000007
   15.97527695  103.48699951    0.73000002    2.94000006
   15.97861099  103.15100098    0.73000002    2.94000006
   15.98055553  103.26699829    0.73000002    2.93000007
   15.98222160  106.98200226    0.73000002    2.94000006
   15.98555565  104.39499664    0.75000000    2.94000006
   15.99138927  104.39499664    0.75000000    2.94000006
   15.99527836  102.48600006    0.75000000    2.94000006
   15.99861145  111.14399719    0.75000000    2.94000006
   16.00194359  106.37400055    0.75000000    2.94000006
   16.00499916  123.24299622    0.75000000    2.94000006
   16.00833321  105.39499664    0.75000000    2.94000006
   16.01166725  105.27400208    0.75000000    2.94000006
   16.01416588  116.55200195    0.75000000    2.94000006
   16.01555634  104.64499664    0.75000000    2.94000006
   16.01861000  103.52600098    0.75000000    2.93000007
   16.02194405  102.15200043    0.75000000    2.94000006
   16.02527809  108.73100281    0.75000000    2.94000006
   16.02833366  107.30799866    0.75000000    2.93000007
   16.03416634  107.30799866    0.75000000    2.93000007
   16.03833199  105.83799744    0.75000000    2.94000006
   16.04138756   95.76740265    0.75000000    2.94000006
   16.04472160   98.01580048    0.73000002    2.94000006
   16.04722214  106.93599701    0.73000002    2.94000006
   16.04833221  115.80599976    0.73000002    2.94000006
   16.05166626  111.16200256    0.73000002    2.94000006
   16.05472183  110.38800049    0.73000002    2.93000007
   16.05805397  112.81300354    0.75000000    2.94000006
   16.06138802  111.47599792    0.73000002    2.94000006
   16.06444359  116.82599640    0.73000002    2.94000006
   16.06777954   97.93319702    0.70999998    2.94000006
   16.07111168  116.40799713    0.70999998    2.94000006
   16.07694626  116.40799713    0.70999998    2.94000006
   16.08111191  100.41000366    0.70999998    2.94000006
   16.08416748  107.72499847    0.70999998    2.94000006
   16.08750153  107.97200012    0.70999998    2.96000004
   16.09083366   99.88339996    0.70999998    2.94000006
   16.09388924  101.16899872    0.70999998    2.96000004
   16.09722328  107.12400055    0.70999998    2.94000006
   16.10055542  112.34799957    0.70999998    2.94000006
   16.10361099  102.23999786    0.73000002    2.94000006
   16.10694504  104.86399841    0.73000002    2.94000006
   16.11000061  110.11699677    0.70999998    2.94000006
   16.11333466  103.51899719    0.73000002    2.94000006
   16.11388969  114.77799988    0.73000002    2.94000006
   16.11972237  114.77799988    0.73000002    2.94000006
   16.12388992  102.51799774    0.70999998    2.94000006
   16.12722206  101.21800232    0.70999998    2.94000006
   16.13027763  103.80799866    0.70999998    2.94000006
   16.13361168  107.48100281    0.70999998    2.94000006
   16.13694382  102.77700043    0.73000002    2.94000006
   16.13999939  101.75499725    0.73000002    2.94000006
   16.14333344  100.57499695    0.73000002    2.94000006
   16.14666748  101.31800079    0.73000002    2.94000006
   16.14722252  105.86299896    0.73000002    2.94000006
   16.15027809  104.45300293    0.73000002    2.94000006
   16.15361023  110.52600098    0.73000002    2.94000006
   16.15666580  106.58000183    0.73000002    2.93000007
   16.16250038  106.58000183    0.73000002    2.94000006
   16.16666603  112.72699738    0.75000000    2.94000006
   16.17000008  106.05500031    0.75000000    2.93000007
   16.17333221  110.35500336    0.75000000    2.93000007
   16.17638779  109.78399658    0.75000000    2.93000007
   16.17972183  102.02899933    0.75000000    2.94000006
   16.18055534  104.63700104    0.75000000    2.93000007
   16.18333244  102.88500214    0.75000000    2.93000007
   16.18666649  101.31600189    0.75000000    2.93000007
   16.18972206  101.51899719    0.73000002    2.93000007
   16.19305420  100.71199799    0.73000002    2.94000006
   16.19638824  108.12999725    0.73000002    2.94000006
   16.19944382  109.87799835    0.75000000    2.94000006
   16.20555687  109.87799835    0.75000000    2.94000006
   16.20972252  106.84500122    0.73000002    2.94000006
   16.21277809  107.53600311    0.73000002    2.93000007
   16.21416664  107.40899658    0.73000002    2.94000006
   16.21638870  109.33899689    0.73000002    2.93000007
   16.21972275  101.25499725    0.73000002    2.94000006
   16.22277832  109.32199860    0.73000002    2.93000007
   16.22611237  105.75399780    0.73000002    2.94000006
   16.22944450  103.86399841    0.73000002    2.94000006
   16.23250008  102.13800049    0.73000002    2.94000006
   16.23583412  100.33599854    0.73000002    2.94000006
   16.23916626  104.00000000    0.73000002    2.94000006
   16.24222183  105.05599976    0.73000002    2.94000006
   16.24833298  105.05599976    0.73000002    2.94000006
   16.25250053  105.70300293    0.73000002    2.94000006
   16.25555611  106.23100281    0.73000002    2.93000007
   16.25888824  102.67500305    0.70999998    2.94000006
   16.26222229  104.68299866    0.73000002    2.94000006
   16.26527786  103.53600311    0.70999998    2.94000006
   16.26861000  106.34400177    0.73000002    2.94000006
   16.27194405  102.75099945    0.70999998    2.94000006
   16.27499962  107.03399658    0.70999998    2.94000006
   16.27833366  102.23200226    0.70999998    2.94000006
   16.28083229  105.29299927    0.70999998    2.94000006
   16.28194427  103.26300049    0.70999998    2.93000007
   16.28527641  104.51799774    0.70999998    2.94000006
   16.29111099  104.51799774    0.70999998    2.93000007
   16.29527664  105.09899902    0.70999998    2.94000006
   16.29861069  102.14299774    0.70999998    2.94000006
   16.30166626   97.18589783    0.70999998    2.94000006
   16.30499840  101.81600189    0.70999998    2.94000006
   16.30833244  105.70899963    0.70999998    2.94000006
   16.31138802  108.59500122    0.70999998    2.94000006
   16.31416512  105.09400177    0.70999998    2.94000006
   16.31499863  101.68599701    0.70999998    2.94000006
   16.31833458  101.36599731    0.70999998    2.94000006
   16.32139015  103.23600006    0.70999998    2.94000006
   16.32472229  100.54599762    0.70999998    2.94000006
   16.32805634  108.10399628    0.70999998    2.94000006
   16.33388901  108.10399628    0.70999998    2.94000006
   16.33805656  100.63200378    0.70999998    2.94000006
   16.34138870  101.40200043    0.70999998    2.94000006
   16.34472275  107.75099945    0.70999998    2.94000006
   16.34749985  102.77799988    0.70999998    2.96000004
   16.34805679   99.06120300    0.70999998    2.96000004
   16.35138893   99.44550323    0.69000000    2.94000006
   16.35444450  103.15399933    0.69000000    2.94000006
   16.35777855  100.24299622    0.69000000    2.94000006
   16.36111069  101.37500000    0.69000000    2.94000006
   16.36416626   97.38459778    0.69000000    2.94000006
   16.36750031  109.86900330    0.69000000    2.94000006
   16.37083435  109.78600311    0.69000000    2.94000006
   16.37694550  109.78600311    0.69000000    2.94000006
   16.38111115  103.46499634    0.69000000    2.94000006
   16.38416672  101.96900177    0.69000000    2.94000006
   16.38750076  114.24199677    0.69000000    2.94000006
   16.39055634  104.58599854    0.69000000    2.94000006
   16.39388847  101.91200256    0.69000000    2.94000006
   16.39722252  105.90899658    0.67000002    2.94000006
   16.40055466  100.86499786    4.90999985    3.00000000
   16.40361023  106.10299683    0.11000000    0.51999998
   16.40694427  104.28900146    0.07000000    0.28000000
   16.40999985  113.54499817    0.07000000    0.28000000
   16.41333389  107.62500000    0.07000000    0.28000000
   16.41416550  114.08799744    0.07000000    0.28000000
   16.41972160  114.08799744    0.07000000    0.28000000
   16.42388916  112.13200378    0.07000000    0.28000000
   16.42722130  112.31900024    0.07000000    0.28000000
   16.43027687  115.71499634    0.07000000    0.28000000
   16.43361092  100.76899719    0.07000000    0.28000000
   16.43666649  107.34100342    0.07000000    0.28000000
   16.43999863  103.95700073    0.07000000    0.28000000
   16.44333267  106.39700317    0.07000000    0.28000000
   16.44638824  106.43599701    0.07000000    0.28000000
   16.44749832  101.66200256    0.07000000    0.28000000
   16.45000076   99.03530121    0.07000000    0.28000000
   16.45333481  109.15799713    0.07000000    0.28000000
   16.45666695  109.93599701    0.07000000    0.28000000
   16.46250153  109.93599701    0.07000000    0.28000000
   16.46666718  103.28399658    0.07000000    0.28000000
   16.47000122  108.06099701    0.07000000    0.28000000
   16.47305679  103.36199951    0.07000000    0.28000000
   16.47638893  101.70500183    0.07000000    0.28000000
   16.47972298  101.61100006    0.07000000    0.28000000
   16.48083305   99.40509796    0.07000000    0.28000000
   16.48305511  101.20500183    0.07000000    0.28000000
   16.48638916  104.17500305    0.07000000    0.28000000
   16.48972321  100.48500061    0.07000000    0.28000000
   16.49277878  107.38999939    0.07000000    0.28000000
   16.49611092  103.29100037    0.07000000    0.28000000
   16.49916649  106.83799744    0.07000000    0.28000000
   16.50527763  106.83799744    0.07000000    0.28000000
   16.50944519  108.43499756    0.07000000    0.28000000
   16.51277733  107.01899719    0.07000000    0.28000000
   16.51416588  101.94999695    0.07000000    0.28000000
   16.51638794  114.04900360    0.07000000    0.28000000
   16.51972198  110.19799805    0.07000000    0.28000000
   16.52305603  108.33799744    0.07000000    0.28000000
   16.52611160  103.77899933    0.07000000    0.28000000
   16.52944374  103.61199951    0.07000000    0.28000000
   16.53249931  108.34600067    0.07000000    0.28000000
   16.53583336  102.25800323    0.07000000    0.28000000
   16.53916550  112.82099915    0.07000000    0.28000000
   16.54222107  102.41899872    0.07000000    0.28000000
   16.54833221  102.41899872    0.07000000    0.28000000
   16.55249977  108.30799866    0.07000000    0.28000000
   16.55555534  111.34600067    0.07000000    0.28000000
   16.55888748  110.14800262    0.07000000    0.28000000
   16.56194305  115.78700256    0.07000000    0.28000000
   16.56527710  104.59999847    0.07000000    0.28000000
   16.56861115  107.35900116    0.07000000    0.28000000
   16.57166672  109.08699799    0.07000000    0.28000000
   16.57500076  110.55000305    0.07000000    0.28000000
   16.57833481  111.08000183    0.07000000    0.28000000
   16.58083344  112.79799652    0.07000000    0.28000000
   16.58166695  102.10800171    0.07000000    0.28000000
   16.58500099  100.01499939    0.07000000    0.28000000
   16.59111214  100.01499939    0.07000000    0.28000000
   16.59527779  102.57099915    0.07000000    0.28000000
   16.59833336   98.11609650    0.07000000    0.28000000
   16.60166740  106.34200287    0.07000000    0.28000000
   16.60499954  104.52500153    0.07000000    0.28000000
   16.60805511  111.52600098    0.07000000    0.28000000
   16.61138916   98.26570129    0.07000000    0.28000000
   16.61416626  104.63200378    0.07000000    0.28000000
   16.61499977   96.93669891    0.07000000    0.28000000
   16.61833382  103.72200012    0.07000000    0.28000000
   16.62166595   99.78589630    0.07000000    0.28000000
   16.62472153  108.02799988    0.07000000    0.28000000
   16.62805557  102.68000031    0.07000000    0.28000000
   16.63388824  102.68000031    0.07000000    0.28000000
   16.63805580  108.37400055    0.07000000    0.28000000
   16.64138794   99.87409973    0.07000000    0.28000000
   16.64444351  103.80899811    0.07000000    0.28000000
   16.64749908   99.55000305    0.07000000    0.28000000
   16.64805603  107.05699921    0.07000000    0.28000000
   16.65138817  104.96299744    0.07000000    0.28000000
   16.65472221  104.30899811    0.07000000    0.28000000
   16.65777779  109.58499908    0.07000000    0.28000000
   16.66110992  109.45300293    0.07000000    0.28000000
   16.66444397  109.37799835    0.07000000    0.28000000
   16.66749954   99.19920349    0.07000000    0.28000000
   16.67083359  105.87899780    0.07000000    0.28000000
   16.67666626  105.87899780    0.07000000    0.28000000
   16.68083191  111.10900116    0.07000000    0.28000000
   16.68416595  104.37500000    0.07000000    0.28000000
   16.68750000  100.00399780    0.07000000    0.28000000
   16.69055557  113.88700104    0.07000000    0.28000000
   16.69388771  106.22200012    0.07000000    0.28000000
   16.69694328  113.27500153    0.07000000    0.28000000
   16.70027924  108.96099854    0.07000000    0.28000000
   16.70361137  103.08999634    0.07000000    0.28000000
   16.70666695  110.93099976    0.07000000    0.28000000
   16.71000099  108.03700256    0.07000000    0.28000000
   16.71333504  103.23100281    0.07000000    0.28000000
   16.71416664  105.62699890    0.07000000    0.28000000
   16.73472214  105.62699890    0.07000000    0.28000000
   16.73888969  102.68699646    0.07000000    0.28000000
   16.74222183  106.00399780    0.07000000    0.28000000
   16.74527740  103.96600342    0.07000000    0.28000000
   16.74749947  113.52600098    0.07000000    0.28000000
   16.74888992  112.03199768    0.07000000    0.28000000
   16.75222206  107.33000183    0.07000000    0.28000000
   16.75555611  102.21499634    0.07000000    0.28000000
   16.75861168  111.67600250    0.07000000    0.28000000
   16.76194382  108.37599945    0.07000000    0.28000000
   16.76527786  104.90599823    0.07000000    0.28000000
   16.76833344  112.00700378    0.07000000    0.28000000
   16.77166557  116.30599976    0.07000000    0.28000000
   16.77750015  116.30599976    0.07000000    0.28000000
   16.78166580  109.04599762    0.07000000    0.28000000
   16.78499985  111.12200165    0.07000000    0.28000000
   16.78805542  110.58000183    0.07000000    0.28000000
   16.79138756  110.55899811    0.07000000    0.28000000
   16.79472160  107.38899994    0.07000000    0.28000000
   16.79777718  110.08200073    0.07000000    0.28000000
   16.80111122  114.28099823    0.07000000    0.28000000
   16.80416679  108.73999786    0.07000000    0.28000000
   16.80749893  109.95800018    0.07000000    0.28000000
   16.81083298  112.69699860    0.07000000    0.28000000
   16.81388855  102.65799713    0.07000000    0.28000000
   16.81444359  103.84400177    0.07000000    0.28000000
   16.82027817  103.84400177    0.07000000    0.28000000
   16.82444572  104.61599731    0.07000000    0.28000000
   16.82777786  103.67900085    0.07000000    0.28000000
   16.83111191  102.76300049    0.07000000    0.28000000
   16.83416748  100.22699738    0.07000000    0.28000000
   16.83750153  111.04000092    0.07000000    0.28000000
   16.84055710  106.81999969    0.07000000    0.28000000
   16.84388924  109.90899658    0.07000000    0.28000000
   16.84722328  102.58200073    0.07000000    0.28000000
   16.84777832  106.04900360    0.07000000    0.28000000
   16.85083389  109.52600098    0.07000000    0.28000000
   16.85416794  108.12899780    0.07000000    0.28000000
   16.85722351  110.84899902    0.07000000    0.28000000
   16.86333466  110.84899902    0.07000000    0.28000000
   16.86750031  100.57800293    0.07000000    0.28000000
   16.87055588  112.99299622    0.07000000    0.28000000
   16.87388992  111.12400055    0.07000000    0.28000000
   16.87694550  112.01200104    0.07000000    0.28000000
   16.88027763  104.13300323    0.07000000    0.28000000
   16.88111115  110.86199951    0.07000000    0.28000000
   16.88388824  107.78299713    0.07000000    0.28000000
   16.88722229  111.91000366    0.07000000    0.28000000
   16.89027786  106.03099823    0.07000000    0.28000000
   16.89361191  108.03099823    0.07000000    0.28000000
   16.89666748  101.74500275    0.07000000    0.28000000
   16.89999962  106.84600067    0.07000000    0.28000000
   16.90611076  106.84600067    0.07000000    0.28000000
   16.91027832  112.08399963    0.07000000    0.28000000
   16.91333389  105.04900360    0.07000000    0.28000000
   16.91444397  104.58999634    0.07000000    0.28000000
   16.91722107  104.06199646    0.07000000    0.28000000
   16.92055511  103.06400299    0.07000000    0.28000000
   16.92361069  104.56999969    0.07000000    0.28000000
   16.92694473  106.24199677    0.07000000    0.28000000
   16.93000031  100.23799896    0.07000000    0.28000000
   16.93333244  111.86599731    0.07000000    0.28000000
   16.93666649  102.75599670    0.07000000    0.28000000
   16.93972206  103.51100159    0.07000000    0.28000000
   16.94305420  102.84999847    0.07000000    0.28000000
   16.94888878  102.84999847    0.07000000    0.28000000
   16.95305634  100.53900146    0.07000000    0.28000000
   16.95639038   99.62809753    0.07000000    0.28000000
   16.95944595  104.59999847    0.07000000    0.28000000
   16.96277809  104.09799957    0.07000000    0.28000000
   16.96611214   89.79270172    0.07000000    0.28000000
   16.96916771   95.92810059    0.07000000    0.28000000
   16.97249985  100.15200043    0.07000000    0.28000000
   16.97555542   98.96949768    0.07000000    0.28000000
   16.97888947  101.98300171    0.07000000    0.28000000
   16.98111153  111.02400208    0.07000000    0.28000000
   16.98250008  105.72899628    0.07000000    0.28000000
   16.98583412  108.55999756    0.07000000    0.28000000
   16.99166679  108.55999756    0.07000000    0.28000000
   16.99583435  108.71299744    0.07000000    0.28000000
   16.99916649  110.63999939    0.07000000    0.28000000
   17.00250053  104.57599640    0.07000000    0.28000000
   17.00555611  107.45999908    0.07000000    0.28000000
   17.00888824  110.84200287    0.07000000    0.28000000
   17.01194382  121.71399689    0.07000000    0.28000000
   17.01444435  111.00700378    0.07000000    0.28000000
   17.01583290  104.79199982    0.07000000    0.28000000
   17.01916695  114.81500244    0.07000000    0.28000000
   17.02222252   93.94159698    0.07000000    0.28000000
   17.02555466  110.33200073    0.07000000    0.28000000
   17.02861023  111.10600281    0.07000000    0.28000000
   17.03472137  111.10600281    0.07000000    0.28000000
   17.03888893  104.26300049    0.07000000    0.28000000
   17.04194450   93.79859924    0.07000000    0.28000000
   17.04527664  102.18800354    0.07000000    0.28000000
   17.04777718   96.91829681    0.07000000    0.28000000
   17.04888916  104.56500244    0.07000000    0.28000000
   17.05222130  101.53700256    0.07000000    0.28000000
   17.05527687  101.69899750    0.07000000    0.28000000
   17.05861092  100.21800232    0.07000000    0.28000000
   17.06166649  102.88400269    0.07000000    0.28000000
   17.06499863  115.73500061    0.07000000    0.28000000
   17.06833458   97.95549774    0.07000000    0.28000000
   17.07166672  100.03500366    0.07000000    0.28000000
   17.07750130  100.03500366    0.07000000    0.28000000
   17.08166695  103.94200134    0.07000000    0.28000000
   17.08472252  110.90000153    0.07000000    0.28000000
   17.08805656  104.40200043    0.07000000    0.28000000
   17.09138870  100.82199860    0.07000000    0.28000000
   17.09444427  102.96299744    0.07000000    0.28000000
   17.09777832  101.17600250    0.07000000    0.28000000
   17.10111237  103.12100220    0.07000000    0.28000000
   17.10416794  112.87899780    0.07000000    0.28000000
   17.10750008  109.07299805    0.07000000    0.28000000
   17.11055565  109.74500275    0.07000000    0.28000000
   17.11388969  109.34300232    0.07000000    0.28000000
   17.11444473  112.68900299    0.07000000    0.28000000
   17.12027740  112.68900299    0.07000000    0.28000000
   17.12444496  111.51399994    0.07000000    0.28000000
   17.12777710  110.63300323    0.07000000    0.28000000
   17.13083267  103.56400299    0.07000000    0.28000000
   17.13416672  109.69699860    0.07000000    0.28000000
   17.13750076  110.84899902    0.07000000    0.28000000
   17.14055634  115.08999634    0.07000000    0.28000000
   17.14388847  109.18599701    0.07000000    0.28000000
   17.14694405  115.16799927    0.07000000    0.28000000
   17.14777756  108.01699829    0.07000000    0.28000000
   17.15055466  107.06500244    0.07000000    0.28000000
   17.15388870  104.95400238    0.07000000    0.28000000
   17.15694427  104.23000336    0.07000000    0.28000000
   17.16305542  104.23000336    0.07000000    0.28000000
   17.16722107  112.33000183    0.07000000    0.28000000
   17.17055511  119.90899658    0.07000000    0.28000000
   17.17388916  108.18299866    0.07000000    0.28000000
   17.17694473  108.07700348    0.07000000    0.28000000
   17.18027687  103.21900177    0.07000000    0.28000000
   17.18111038  110.75199890    0.07000000    0.28000000
   17.18388748  105.48799896    0.07000000    0.28000000
   17.18722153  110.50900269    0.07000000    0.28000000
   17.19027710  104.17700195    0.07000000    0.28000000
   17.19361115  115.08599854    0.07000000    0.28000000
   17.19694328  110.26100159    0.07000000    0.28000000
   17.20000076  110.52500153    0.07000000    0.28000000
   17.20611191  110.52500153    0.07000000    0.28000000
   17.21027946  109.51599884    0.07000000    0.28000000
   17.21333504  104.28500366    0.07000000    0.28000000
   17.21444511  109.50599670    0.07000000    0.28000000
   17.21694565  110.97299957    0.07000000    0.28000000
   17.22027779  113.65899658    0.07000000    0.28000000
   17.22333336  107.47699738    0.07000000    0.28000000
   17.22666740  114.97899628    0.07000000    0.28000000
   17.23000145  116.62500000    0.07000000    0.28000000
   17.23305511  114.23600006    0.07000000    0.28000000
   17.23638916  109.40000153    0.07000000    0.28000000
   17.23972321  108.92199707    0.07000000    0.28000000
   17.24277878  111.57599640    0.07000000    0.28000000
   17.24888992  111.57599640    0.07000000    0.28000000
   17.25305557  108.12300110    0.07000000    0.28000000
   17.25611115  107.17400360    0.07000000    0.28000000
   17.25944519  107.07399750    0.07000000    0.28000000
   17.26277733  107.42800140    0.07000000    0.28000000
   17.26583290  103.26000214    0.07000000    0.28000000
   17.26916695  103.43099976    0.07000000    0.28000000
   17.27249908  114.06300354    0.07000000    0.28000000
   17.27555466  112.25499725    0.07000000    0.28000000
   17.27888870  112.96399689    0.07000000    0.28000000
   17.28111076  109.01799774    0.07000000    0.28000000
   17.28249931  103.03600311    0.07000000    0.28000000
   17.28583336  103.70099640    0.07000000    0.28000000
   17.29166603  103.70099640    0.07000000    0.28000000
   17.29583359  112.05400085    0.07000000    0.28000000
   17.29916573  113.74900055    0.07000000    0.28000000
   17.30222130  107.01399994    0.07000000    0.28000000
   17.30555534  106.41899872    0.07000000    0.28000000
   17.30888748  111.69599915    0.07000000    0.28000000
   17.31194305  110.25099945    0.07000000    0.28000000
   17.31444359  111.48400116    0.07000000    0.28000000
   17.31555557  102.08300018    0.07000000    0.28000000
   17.31888962  108.46800232    0.07000000    0.28000000
   17.32194519  111.20899963    0.07000000    0.28000000
   17.32527924  108.26399994    0.07000000    0.28000000
   17.32861137   99.19439697    0.07000000    0.28000000
   17.33444595   99.19439697    0.07000000    0.28000000
   17.33861160  104.86900330    0.07000000    0.28000000
   17.34194565  102.79900360    0.07000000    0.28000000
   17.34527779  108.69799805    0.07000000    0.28000000
   17.34777832  109.09700012    0.07000000    0.28000000
   17.34889030  107.55899811    0.07000000    0.28000000
   17.35222244  108.18800354    0.07000000    0.28000000
   17.35527802  106.02700043    0.07000000    0.28000000
   17.35861206  110.75199890    0.07000000    0.28000000
   17.36194420  115.05400085    0.07000000    0.28000000
   17.36499977  113.63700104    0.07000000    0.28000000
   17.36833382  118.47699738    0.07000000    0.28000000
   17.37138939  115.82099915    0.07000000    0.28000000
   17.37750053  115.82099915    0.07000000    0.28000000
   17.38166618  103.36000061    0.07000000    0.28000000
   17.38472176  107.21600342    0.07000000    0.28000000
   17.38805580  105.76799774    0.07000000    0.28000000
   17.39111137  114.90000153    0.07000000    0.28000000
   17.39444351  117.55500031    0.07000000    0.28000000
   17.39777756  108.31300354    0.07000000    0.28000000
   17.40083313  105.48899841    0.07000000    0.28000000
   17.40416718  102.09600067    0.07000000    0.28000000
   17.40749931  109.98400116    0.07000000    0.28000000
   17.41055489  105.96900177    0.07000000    0.28000000
   17.41388893  113.78099823    0.07000000    0.28000000
   17.41444397   98.25949860    0.07000000    0.28000000
   17.42027664   98.25949860    0.07000000    0.28000000
   17.42444420  110.72799683    0.07000000    0.28000000
   17.42749977  103.67600250    0.07000000    0.28000000
   17.43083191  112.90200043    0.07000000    0.28000000
   17.43416595  104.16600037    0.07000000    0.28000000
   17.43722153  116.47000122    0.07000000    0.28000000
   17.44055557  108.51300049    0.07000000    0.28000000
   17.44388771  104.95400238    0.07000000    0.28000000
   17.44694328  116.64499664    0.07000000    0.28000000
   17.44777679  102.93299866    0.07000000    0.28000000
   17.45055580  112.29399872    0.07000000    0.28000000
   17.45388985  104.58999634    0.07000000    0.28000000
   17.45694542  107.31099701    0.07000000    0.28000000
   17.46305656  107.31099701    0.07000000    0.28000000
   17.46722221  117.13300323    0.07000000    0.28000000
   17.47055626  108.92900085    0.07000000    0.28000000
   17.47361183  107.98600006    0.07000000    0.28000000
   17.47694588  105.13899994    0.07000000    0.28000000
   17.48000145  107.91300201    0.07000000    0.28000000
   17.48111153  116.56999969    0.07000000    0.28000000
   17.48361206  106.58399963    0.07000000    0.28000000
   17.48694420  115.28800201    0.07000000    0.28000000
   17.48999977  102.17099762    0.07000000    0.28000000
   17.49333382  109.85600281    0.07000000    0.28000000
   17.49666786  104.00499725    0.07000000    0.28000000
   17.49972153  108.88400269    0.07000000    0.28000000
   17.50583267  108.88400269    0.07000000    0.28000000
   17.51000023  113.54699707    0.07000000    0.28000000
   17.51333427  113.00399780    0.07000000    0.28000000
   17.51444435  111.11199951    0.07000000    0.28000000
   17.51694489  101.34500122    0.07000000    0.28000000
   17.52027702  102.83899689    0.07000000    0.28000000
   17.52333260  102.89600372    0.07000000    0.28000000
   17.52666664  100.40699768    0.07000000    0.28000000
   17.53000069  106.42199707    0.07000000    0.28000000
   17.53305435  108.43499756    0.07000000    0.28000000
   17.53638840  111.67800140    0.07000000    0.28000000
   17.53972244  113.06900024    0.07000000    0.28000000
   17.54277802  101.07599640    0.07000000    0.28000000
   17.54888916  101.07599640    0.07000000    0.28000000
   17.55277634   99.72329712    0.07000000    0.28000000
   17.55611038  100.08100128    0.07000000    0.28000000
   17.55944443  116.30300140    0.07000000    0.28000000
   17.56250000   99.66500092    0.07000000    0.28000000
   17.56583214  108.11000061    0.07000000    0.28000000
   17.56916809  108.98400116    0.07000000    0.28000000
   17.57222366  110.37999725    0.07000000    0.28000000
   17.57555580  102.07599640    0.07000000    0.28000000
   17.57888985   98.54920197    0.07000000    0.28000000
   17.58139038  108.19400024    0.07000000    0.28000000
   17.58250046  105.05500031    0.07000000    0.28000000
   17.58583450  106.66500092    0.07000000    0.28000000
   17.59166718  106.66500092    0.07000000    0.28000000
   17.59583473  121.78500366    0.07000000    0.28000000
   17.59889030  109.72100067    0.07000000    0.28000000
   17.60222244  111.62500000    0.07000000    0.28000000
   17.60555649  103.30999756    0.07000000    0.28000000
   17.60861206  112.24700165    0.07000000    0.28000000
   17.61194420  108.40599823    0.07000000    0.28000000
   17.61472321  111.78199768    0.07000000    0.28000000
   17.61555672  114.13400269    0.07000000    0.28000000
   17.61888885  113.64900208    0.07000000    0.28000000
   17.62194443  106.97399902    0.07000000    0.28000000
   17.62527847  111.59100342    0.07000000    0.28000000
   17.62861061  114.14700317    0.07000000    0.28000000
   17.63444519  114.14700317    0.07000000    0.28000000
   17.63861084  112.60399628    0.07000000    0.28000000
   17.64166641  108.80500031    0.07000000    0.28000000
   17.64500046  106.93099976    0.07000000    0.28000000
   17.64805603  115.09400177    0.07000000    0.28000000
   17.64861107  113.07599640    0.07000000    0.28000000
   17.65194321  107.39700317    0.07000000    0.28000000
   17.65499878  114.01399994    0.07000000    0.28000000
   17.65833282  110.09700012    0.07000000    0.28000000
   17.66166687  107.84300232    0.07000000    0.28000000
   17.66472244  107.76200104    0.07000000    0.28000000
   17.66805458  107.81400299    0.07000000    0.28000000
   17.67138863  115.79599762    0.07000000    0.28000000
   17.67722130  115.79599762    0.07000000    0.28000000
   17.68138885  108.88700104    0.07000000    0.28000000
   17.68472099  100.74199677    0.07000000    0.28000000
   17.68777657  103.55100250    0.07000000    0.28000000
   17.69111061  111.70800018    0.07000000    0.28000000
   17.69444275  105.83000183    0.07000000    0.28000000
   17.69749832  107.46600342    0.07000000    0.28000000
   17.70083427  107.91999817    0.07000000    0.28000000
   17.70416832  108.29199982    0.07000000    0.28000000
   17.70722389  110.61499786    0.07000000    0.28000000
   17.71055603  110.37500000    0.07000000    0.28000000
   17.71361160  107.83100128    0.07000000    0.28000000
   17.71472359  109.72799683    0.07000000    0.28000000
   17.72027779  109.72799683    0.07000000    0.28000000
   17.72416687  114.30200195    0.07000000    0.28000000
   17.72750092  108.50599670    0.07000000    0.28000000
   17.73083305  106.96900177    0.07000000    0.28000000
   17.74833298  106.36299896    0.07000000    0.28000000
   17.75083351  107.52200317    0.07000000    0.28000000
   17.75388908  108.44999695    0.07000000    0.28000000
   17.75722313  108.11399841    0.07000000    0.28000000
   17.76305580  108.11399841    0.07000000    0.28000000
   17.76722145  103.25599670    0.07000000    0.28000000
   17.77055550  106.05400085    0.07000000    0.28000000
   17.77361107  102.93399811    0.07000000    0.28000000
   17.77694511  103.05899811    0.07000000    0.28000000
   17.78027725  100.31600189    0.07000000    0.28000000
   17.78166580  103.88800049    0.07000000    0.28000000
   17.78361130  103.52799988    0.07000000    0.28000000
   17.78694344  104.06199646    0.07000000    0.28000000
   17.79027748  114.71499634    0.07000000    0.28000000
   17.79333305  105.92500305    0.07000000    0.28000000
   17.79666710  117.39600372    0.07000000    0.28000000
   17.79972076  112.67299652    0.07000000    0.28000000
   17.80611038  112.67299652    0.07000000    0.28000000
   17.80999947   96.65100098    0.07000000    0.28000000
   17.81333351  108.86499786    0.07000000    0.28000000
   17.81499863  109.29599762    0.07000000    0.28000000
   17.81694603  101.70999908    0.07000000    0.28000000
   17.82027817  100.84200287    0.07000000    0.28000000
   17.82361221  108.78500366    0.07000000    0.28000000
   17.82666779  104.83499908    0.07000000    0.28000000
   17.83000183  117.04799652    0.07000000    0.28000000
   17.83333397  106.54100037    0.07000000    0.28000000
   17.83638954  107.01100159    0.07000000    0.28000000
   17.83972359  111.07800293    0.07000000    0.28000000
   17.84277916  116.13500214    0.07000000    0.28000000
   17.84889030  116.13500214    0.07000000    0.28000000
   17.85305595  106.94400024    0.07000000    0.28000000
   17.85611153  109.72299957    0.07000000    0.28000000
   17.85944557  106.65000153    0.07000000    0.28000000
   17.86277771  109.94899750    0.07000000    0.28000000
   17.86583328  102.16999817    0.07000000    0.28000000
   17.86916733  108.80999756    0.07000000    0.28000000
   17.87222290  102.87899780    0.07000000    0.28000000
   17.87555504  113.64299774    0.07000000    0.28000000
   17.87888908  109.05699921    0.07000000    0.28000000
   17.88166618  108.81600189    0.07000000    0.28000000
   17.88222313  105.02600098    0.07000000    0.28000000
   17.88555527  103.65299988    0.07000000    0.28000000
   17.89166641  103.65299988    0.07000000    0.28000000
   17.89583397  196.58200073    0.07000000    0.28000000
   17.89916611  110.08699799    0.07000000    0.28000000
   17.90222168  111.45200348    0.07000000    0.28000000
   17.90555573  106.79900360    0.07000000    0.28000000
   17.90861130  110.68000031    0.07000000    0.28000000
   17.91194344  110.38899994    0.07000000    0.28000000
   17.91499901  108.90699768    0.07000000    0.28000000
   17.91555595  111.20600128    0.07000000    0.28000000
   17.91888809  110.32199860    0.07000000    0.28000000
   17.92222214  109.33000183    0.07000000    0.28000000
   17.92527771  110.88800049    0.07000000    0.28000000
   17.92860985  111.40899658    0.07000000    0.28000000
   17.93444443  111.40899658    0.07000000    0.28000000
   17.93861008  104.12200165    0.07000000    0.28000000
   17.94194412  104.59200287    0.07000000    0.28000000
   17.94499969  107.28399658    0.07000000    0.28000000
   17.94833183  106.39800262    0.07000000    0.28000000
   17.94861031  110.29499817    0.07000000    0.28000000
   17.95194435  103.71800232    0.07000000    0.28000000
   17.95527840  115.53600311    0.07000000    0.28000000
   17.95833397  111.31300354    0.07000000    0.28000000
   17.96166801  104.16200256    0.07000000    0.28000000
   17.96472359  104.76399994    0.07000000    0.28000000
   17.96805573  109.85900116    0.07000000    0.28000000
   17.97138977  104.41999817    0.07000000    0.28000000
   17.97750092  104.41999817    0.07000000    0.28000000
   17.98166656  107.82599640    0.07000000    0.28000000
   17.98194504  110.57499695    0.07000000    0.28000000
   17.98527718  112.69000244    0.07000000    0.28000000
   17.98861122  110.89700317    0.07000000    0.28000000
   17.99166679  110.45800018    0.07000000    0.28000000
   17.99500084  117.88500214    0.07000000    0.28000000
   17.99805641  111.36799622    0.07000000    0.28000000
   18.00138855  109.00700378    0.07000000    0.28000000
   18.00472260  113.58300018    0.07000000    0.28000000
   18.00777817  111.43499756    0.07000000    0.28000000
   18.01111031  116.13300323    0.07000000    0.28000000
   18.01444435  110.95999908    0.07000000    0.28000000
   18.01499939  116.28500366    0.07000000    0.28000000
   18.02027702  116.28500366    0.07000000    0.28000000
   18.02444458  121.07299805    0.07000000    0.28000000
   18.02750015  116.87699890    0.07000000    0.28000000
   18.03083229  111.18199921    0.07000000    0.28000000
   18.03416634  107.68299866    0.07000000    0.28000000
   18.03722191  102.14299774    0.07000000    0.28000000
   18.04055595  108.40399933    0.07000000    0.28000000
   18.04361153  107.22000122    0.07000000    0.28000000
   18.04694366  111.09500122    0.07000000    0.28000000
   18.04833221  113.90599823    0.07000000    0.28000000
   18.05055428  107.43199921    0.07000000    0.28000000
   18.05388832  102.65100098    0.07000000    0.28000000
   18.05722237  115.41400146    0.07000000    0.28000000
   18.06305504  115.41400146    0.07000000    0.28000000
   18.06722260  113.55999756    0.07000000    0.28000000
   18.07055664  110.15100098    0.07000000    0.28000000
   18.07361221  100.22699738    0.07000000    0.28000000
   18.07694626  112.83899689    0.07000000    0.28000000
   18.08000183  111.94300079    0.07000000    0.28000000
   18.08166695  103.40200043    0.07000000    0.28000000
   18.08361244  105.35099792    0.07000000    0.28000000
   18.08694458  105.41200256    0.07000000    0.28000000
   18.09027863  104.21399689    0.07000000    0.28000000
   18.09333420  113.02700043    0.07000000    0.28000000
   18.09666824  113.69499969    0.07000000    0.28000000
   18.10000038  111.97299957    0.07000000    0.28000000
   18.10583305  111.97299957    0.07000000    0.28000000
   18.11000061  107.93800354    0.07000000    0.28000000
   18.11333466  112.31800079    0.07000000    0.28000000
   18.11499977  109.27400208    0.07000000    0.28000000
   18.11666679  105.59500122    0.07000000    0.28000000
   18.12000084  113.41200256    0.07000000    0.28000000
   18.12333298  105.27799988    0.07000000    0.28000000
   18.12638855  107.98000336    0.07000000    0.28000000
   18.12972260  108.95999908    0.07000000    0.28000000
   18.13305473  117.52300262    0.07000000    0.28000000
   18.13611031  102.51899719    0.07000000    0.28000000
   18.13944435  109.00700378    0.07000000    0.28000000
   18.14249992  104.18499756    0.07000000    0.28000000
   18.14888954  104.18499756    0.07000000    0.28000000
   18.15277672  120.27899933    0.07000000    0.28000000
   18.15611076  110.64499664    0.07000000    0.28000000
   18.15944481   99.28450012    0.07000000    0.28000000
   18.16250038  106.53500366    0.07000000    0.28000000
   18.16583252  107.59600067    0.07000000    0.28000000
   18.16916656  108.43000031    0.07000000    0.28000000
   18.17222214  113.89700317    0.07000000    0.28000000
   18.17555428  109.74500275    0.07000000    0.28000000
   18.17888832  102.69300079    0.07000000    0.28000000
   18.18166542  111.35700226    0.07000000    0.28000000
   18.18222237  110.08999634    0.07000000    0.28000000
   18.18555450  114.81400299    0.07000000    0.28000000
   18.19166565  114.81400299    0.07000000    0.28000000
   18.19583321  114.67500305    0.07000000    0.28000000
   18.19888878  107.56700134    0.07000000    0.28000000
   18.20222282  107.04599762    0.07000000    0.28000000
   18.20555687  111.80899811    0.07000000    0.28000000
   18.20861244  114.27200317    0.07000000    0.28000000
   18.21194458  110.05799866    0.07000000    0.28000000
   18.21500015  116.45300293    0.07000000    0.28000000
   18.21527863  111.57700348    0.07000000    0.28000000
   18.21861076  118.61000061    0.07000000    0.28000000
   18.22194481  109.52100372    0.07000000    0.28000000
   18.22500038  104.74700165    0.07000000    0.28000000
   18.22833443  114.05699921    0.07000000    0.28000000
   18.23444557  114.05699921    0.07000000    0.28000000
   18.23861122  110.32299805    0.07000000    0.28000000
   18.24194527  114.84999847    0.07000000    0.28000000
   18.24500084  115.05799866    0.07000000    0.28000000
   18.24833298  106.38899994    0.07000000    0.28000000
   18.24861145  103.41999817    0.07000000    0.28000000
   18.25194359  110.22100067    0.07000000    0.28000000
   18.25527763  109.59400177    0.07000000    0.28000000
   18.25833321  108.01100159    0.07000000    0.28000000
   18.26166725  107.84999847    0.07000000    0.28000000
   18.26499939  108.28900146    0.07000000    0.28000000
   18.26805496  100.07599640    0.07000000    0.28000000
   18.27138901  112.80400085    0.07000000    0.28000000
   18.27722168  112.80400085    0.07000000    0.28000000
   18.28138924  106.22200012    0.07000000    0.28000000
   18.28194427  100.25700378    0.07000000    0.28000000
   18.28527641  111.27100372    0.07000000    0.28000000
   18.28833199  111.55300140    0.07000000    0.28000000
   18.29166603  105.17299652    0.07000000    0.28000000
   18.29500008  109.77700043    0.07000000    0.28000000
   18.29805565  111.06400299    0.07000000    0.28000000
   18.30138779  114.49700165    0.07000000    0.28000000
   18.30472183  112.84600067    0.07000000    0.28000000
   18.30777740  107.60700226    0.07000000    0.28000000
   18.31110954  109.58100128    0.07000000    0.28000000
   18.31416512  111.96700287    0.07000000    0.28000000
   18.31527710  113.00099945    0.07000000    0.28000000
   18.32027817  113.00099945    0.07000000    0.28000000
   18.32416725  108.80300140    0.07000000    0.28000000
   18.32750130  105.10500336    0.07000000    0.28000000
   18.33083344  101.02300262    0.07000000    0.28000000
   18.33388901  102.59899902    0.07000000    0.28000000
   18.33722305  108.17500305    0.07000000    0.28000000
   18.34055710  104.92199707    0.07000000    0.28000000
   18.34361267  108.60600281    0.07000000    0.28000000
   18.34694481  103.45700073    0.07000000    0.28000000
   18.34861183   96.36319733    0.07000000    0.28000000
   18.35055542  102.67400360    0.07000000    0.28000000
   18.35361099  107.72200012    0.07000000    0.28000000
   18.35694504  107.74299622    0.07000000    0.28000000
   18.36305618  107.74299622    0.07000000    0.28000000
   18.36722183  106.57199860    0.07000000    0.28000000
   18.37027740  116.55000305    0.07000000    0.28000000
   18.37361145  102.36399841    0.07000000    0.28000000
   18.37694550  112.51999664    0.07000000    0.28000000
   18.38000107  110.00299835    0.07000000    0.28000000
   18.38194466  105.84899902    0.07000000    0.28000000
   18.38361168  105.32900238    0.07000000    0.28000000
   18.38666725  110.45500183    0.07000000    0.28000000
   18.38999939  106.65399933    0.07000000    0.28000000
   18.39333344  103.73300171    0.07000000    0.28000000
   18.39638901  108.83300018    0.07000000    0.28000000
   18.39972115  111.52700043    0.07000000    0.28000000
   18.40583229  111.52700043    0.07000000    0.28000000
   18.40999985  107.22399902    0.07000000    0.28000000
   18.41333389  106.74199677    0.07000000    0.28000000
   18.41527748  108.53900146    0.07000000    0.28000000
   18.41694450  106.52799988    0.07000000    0.28000000
   18.42027664  113.53900146    0.07000000    0.28000000
   18.42333221  110.95300293    0.07000000    0.28000000
   18.42666626  107.74600220    0.07000000    0.28000000
   18.42972183  110.14600372    0.07000000    0.28000000
   18.43305397  101.86199951    0.07000000    0.28000000
   18.43638802  114.82900238    0.07000000    0.28000000
   18.43944359  107.72499847    0.07000000    0.28000000
   18.44277763  111.02500153    0.07000000    0.28000000
   18.44861031  111.02500153    0.07000000    0.28000000
   18.45277786  105.33300018    0.07000000    0.28000000
   18.45611191  110.07700348    0.07000000    0.28000000
   18.45916748  109.06099701    0.07000000    0.28000000
   18.46250153  106.40899658    0.07000000    0.28000000
   18.46583366  109.95800018    0.07000000    0.28000000
   18.46888924  108.14900208    0.07000000    0.28000000
   18.47222328  110.19999695    0.07000000    0.28000000
   18.47555542  109.11199951    0.07000000    0.28000000
   18.47861099  104.81099701    0.07000000    0.28000000
   18.48194504  104.01499939    0.07000000    0.28000000
   18.48388863  108.74199677    0.07000000    0.28000000
   18.48555565  105.78299713    0.07000000    0.28000000
   18.49166679  105.78299713    0.07000000    0.28000000
   18.49555588  111.83899689    0.07000000    0.28000000
   18.49888992  109.59999847    0.07000000    0.28000000
   18.50222206  108.06400299    0.07000000    0.28000000
   18.50527763  103.07900238    0.07000000    0.28000000
   18.50861168  112.10299683    0.07000000    0.28000000
   18.51194382  107.47200012    0.07000000    0.28000000
   18.51499939   94.25879669    0.07000000    0.28000000
   18.51722145  101.77200317    0.07000000    0.28000000
   18.51861000  101.76899719    0.07000000    0.28000000
   18.52194405  102.29599762    0.07000000    0.28000000
   18.52499962  107.94599915    0.07000000    0.28000000
   18.52833366  100.03600311    0.07000000    0.28000000
   18.53444481  100.03600311    0.07000000    0.28000000
   18.53861046  110.84400177    0.07000000    0.28000000
   18.54166603  113.12500000    0.07000000    0.28000000
   18.54500008  110.86299896    0.07000000    0.28000000
   18.54833221  105.05100250    0.07000000    0.28000000
   18.55055428  100.50599670    0.07000000    0.28000000
   18.55194283  106.36900330    0.07000000    0.28000000
   18.55527687  110.23799896    0.07000000    0.28000000
   18.55833244  106.97599792    0.07000000    0.28000000
   18.56166649  106.02500153    0.07000000    0.28000000
   18.56472206  106.42199707    0.07000000    0.28000000
   18.56805611  110.66899872    0.07000000    0.28000000
   18.57139015  113.82099915    0.07000000    0.28000000
   18.57722282  113.82099915    0.07000000    0.28000000
   18.58139038  105.06300354    0.07000000    0.28000000
   18.58388901  120.78700256    0.07000000    0.28000000
   18.58500099  108.85099792    0.07000000    0.28000000
   18.58833313  109.33100128    0.07000000    0.28000000
   18.59138870  111.52600098    0.07000000    0.28000000
   18.59472275  103.76300049    0.07000000    0.28000000
   18.59777832  103.58999634    0.07000000    0.28000000
   18.60111237  110.82099915    0.07000000    0.28000000
   18.60444450  111.87000275    0.07000000    0.28000000
   18.60750008  111.87999725    0.07000000    0.28000000
   18.61083412  106.21199799    0.07000000    0.28000000
   18.61416626  109.02999878    0.07000000    0.28000000
   18.62000084  109.02999878    0.07000000    0.28000000
   18.62416649  107.77799988    0.07000000    0.28000000
   18.62750053  112.42700195    0.07000000    0.28000000
   18.63055611  106.09700012    0.07000000    0.28000000
   18.63388824  102.31800079    0.07000000    0.28000000
   18.63722229  106.58200073    0.07000000    0.28000000
   18.64027786  110.31300354    0.07000000    0.28000000
   18.64361191  103.07099915    0.07000000    0.28000000
   18.64694405  107.53500366    0.07000000    0.28000000
   18.64999962  109.78299713    0.07000000    0.28000000
   18.65111160  110.44799805    0.07000000    0.28000000
   18.65361023  106.15499878    0.07000000    0.28000000
   18.65694427  110.59500122    0.07000000    0.28000000
   18.66305542  110.59500122    0.07000000    0.28000000
   18.66694450  110.01399994    0.07000000    0.28000000
   18.67027664  115.93299866    0.07000000    0.28000000
   18.67361069  116.37599945    0.07000000    0.28000000
   18.67666626  112.59300232    0.07000000    0.28000000
   18.68000031  116.62699890    0.07000000    0.28000000
   18.68333244  112.61599731    0.07000000    0.28000000
   18.68444443  116.23400116    0.07000000    0.28000000
   18.68694305  107.26599884    0.07000000    0.28000000
   18.69027710  110.33200073    0.07000000    0.28000000
   18.69333267  109.15000153    0.07000000    0.28000000
   18.69666672  103.74900055    0.07000000    0.28000000
   18.70000076  111.04499817    0.07000000    0.28000000
   18.70583344  111.04499817    0.07000000    0.28000000
   18.71000099  113.64800262    0.07000000    0.28000000
   18.71305656  112.48600006    0.07000000    0.28000000
   18.71638870  101.94400024    0.07000000    0.28000000
   18.71777916  109.69100189    0.07000000    0.28000000
   18.72000122  110.59200287    0.07000000    0.28000000
   18.72333336  106.51200104    0.07000000    0.28000000
   18.72638893  110.08000183    0.07000000    0.28000000
   18.72972298  108.71700287    0.07000000    0.28000000
   18.73277855  105.95999908    0.07000000    0.28000000
   18.73611069  105.50099945    0.07000000    0.28000000
   18.73944473  109.29299927    0.07000000    0.28000000
   18.74250031  112.79599762    0.07000000    0.28000000
   18.74861145  112.79599762    0.07000000    0.28000000
   18.76694489  116.99500275    0.07000000    0.28000000
   18.77027702  107.61299896    0.07000000    0.28000000
   18.77361107  110.29499817    0.07000000    0.28000000
   18.77666664  105.18499756    0.07000000    0.28000000
   18.78000069   98.82440186    0.07000000    0.28000000
   18.78305435  105.31300354    0.07000000    0.28000000
   18.78638840  103.20500183    0.07000000    0.28000000
   18.79166603  103.20500183    0.07000000    0.28000000
   18.79583359  103.97000122    0.07000000    0.28000000
   18.79916573   98.88700104    0.07000000    0.28000000
   18.79999924  106.85299683    0.07000000    0.28000000
   18.80277634  106.44100189    0.07000000    0.28000000
   18.80611038  109.11299896    0.07000000    0.28000000
   18.80916595  107.15200043    0.07000000    0.28000000
   18.81250000  110.45899963    0.07000000    0.28000000
   18.81555557  103.61199951    0.07000000    0.28000000
   18.81888962  106.31700134    0.07000000    0.28000000
   18.82222366  103.92800140    0.07000000    0.28000000
   18.82527924  110.71700287    0.07000000    0.28000000
   18.82861137  101.44799805    0.07000000    0.28000000
   18.83444595  101.44799805    0.07000000    0.28000000
   18.83861160  107.78399658    0.07000000    0.28000000
   18.84194565  109.28199768    0.07000000    0.28000000
   18.84527779  116.02200317    0.07000000    0.28000000
   18.84833336  116.43099976    0.07000000    0.28000000
   18.85166740  106.34400177    0.07000000    0.28000000
   18.85472298  100.40799713    0.07000000    0.28000000
   18.85805511  106.37799835    0.07000000    0.28000000
   18.86138916  107.49600220    0.07000000    0.28000000
   18.86444473  105.15899658    0.07000000    0.28000000
   18.86666679  114.51899719    0.07000000    0.28000000
   18.86833382  107.26100159    0.07000000    0.28000000
   18.87166595   98.35119629    0.07000000    0.28000000
   18.87750053   98.35119629    0.07000000    0.28000000
   18.88166618  104.00000000    0.07000000    0.28000000
   18.88472176  100.74800110    0.07000000    0.28000000
   18.88805580  112.55999756    0.07000000    0.28000000
   18.89111137  104.39199829    0.07000000    0.28000000
   18.89444351  115.26599884    0.07000000    0.28000000
   18.89777756  114.70400238    0.07000000    0.28000000
   18.89999962  114.79900360    0.07000000    0.28000000
   18.90138817  114.65599823    0.07000000    0.28000000
   18.90472221  116.73200226    0.07000000    0.28000000
   18.90777779  113.53399658    0.07000000    0.28000000
   18.91110992  109.23899841    0.07000000    0.28000000
   18.91416550  111.67600250    0.07000000    0.28000000
   18.92027664  111.67600250    0.07000000    0.28000000
   18.92444420  110.31999969    0.07000000    0.28000000
   18.92749977  109.43299866    0.07000000    0.28000000
   18.93083191  113.90699768    0.07000000    0.28000000
   18.93333244   95.72519684    0.07000000    0.28000000
   18.93444443  114.13999939    0.07000000    0.28000000
   18.93777657  106.22599792    0.07000000    0.28000000
   18.94083214  113.06700134    0.07000000    0.28000000
   18.94416618  116.69300079    0.07000000    0.28000000
   18.94749832  119.29299927    0.07000000    0.28000000
   18.95055580  107.27400208    0.07000000    0.28000000
   18.95388985  108.33999634    0.07000000    0.28000000
   18.95694542  111.90299988    0.07000000    0.28000000
   18.96305656  111.90299988    0.07000000    0.28000000
   18.96722221  113.40299988    0.07000000    0.28000000
   18.97055626  126.75599670    0.07000000    0.28000000
   18.97361183  112.57700348    0.07000000    0.28000000
   18.97694588  114.53700256    0.07000000    0.28000000
   18.98027802  104.38500214    0.07000000    0.28000000
   18.98333359  109.41400146    0.07000000    0.28000000
   18.98666763  111.40599823    0.07000000    0.28000000
   18.98972321  111.04499817    0.07000000    0.28000000
   18.99305534  111.99600220    0.07000000    0.28000000
   18.99638939  117.06600189    0.07000000    0.28000000
   18.99944496  110.78199768    0.07000000    0.28000000
   19.00000000  110.90599823    0.07000000    0.28000000
   19.00583267  110.90599823    0.07000000    0.28000000
   19.01000023  105.10800171    0.07000000    0.28000000
   19.01333427  114.48400116    0.07000000    0.28000000
   19.01666641  116.23000336    0.07000000    0.28000000
   19.01972198  111.10399628    0.07000000    0.28000000
   19.02305603  113.82499695    0.07000000    0.28000000
   19.02638817  111.06300354    0.07000000    0.28000000
   19.02944374  108.72000122    0.07000000    0.28000000
   19.03277779  108.09300232    0.07000000    0.28000000
   19.03333282  113.87500000    0.07000000    0.28000000
   19.03638840  110.50199890    0.07000000    0.28000000
   19.03972244  111.83599854    0.07000000    0.28000000
   19.04277802  114.27200317    0.07000000    0.28000000
   19.04888916  114.27200317    0.07000000    0.28000000
   19.05305481  108.33000183    0.07000000    0.28000000
   19.05611038  114.28600311    0.07000000    0.28000000
   19.05944443  111.90100098    0.07000000    0.28000000
   19.06250000  105.69599915    0.07000000    0.28000000
   19.06583214  115.18499756    0.07000000    0.28000000
   19.06666756  107.64099884    0.07000000    0.28000000
   19.06944466  111.22100067    0.07000000    0.28000000
   19.07277870  111.34700012    0.07000000    0.28000000
   19.07583427  120.56999969    0.07000000    0.28000000
   19.07916832  116.96499634    0.07000000    0.28000000
   19.08250046  108.01300049    0.07000000    0.28000000
   19.08555603  112.59799957    0.07000000    0.28000000
   19.09166718  112.59799957    0.07000000    0.28000000
   19.09583473  114.08200073    0.07000000    0.28000000
   19.09889030  116.28500366    0.07000000    0.28000000
   19.10000038  113.32700348    0.07000000    0.28000000
   19.10250092  113.81900024    0.07000000    0.28000000
   19.10583305  116.24099731    0.07000000    0.28000000
   19.10888863  117.58100128    0.07000000    0.28000000
   19.11222267  111.34899902    0.07000000    0.28000000
   19.11555672  115.84400177    0.07000000    0.28000000
   19.11861038  118.99500275    0.07000000    0.28000000
   19.12194443  112.59999847    0.07000000    0.28000000
   19.12500000  119.62699890    0.07000000    0.28000000
   19.12833405  116.15399933    0.07000000    0.28000000
   19.13444519  116.15399933    0.07000000    0.28000000
   19.13861084   99.23210144    0.07000000    0.28000000
   19.14194489  111.34600067    0.07000000    0.28000000
   19.14500046  109.73799896    0.07000000    0.28000000
   19.14833260  118.05300140    0.07000000    0.28000000
   19.15166664  108.44000244    0.07000000    0.28000000
   19.15472221  114.52899933    0.07000000    0.28000000
   19.15805435  110.26899719    0.07000000    0.28000000
   19.16138840  114.06500244    0.07000000    0.28000000
   19.16444397  109.34200287    0.07000000    0.28000000
   19.16666603  115.65399933    0.07000000    0.28000000
   19.16805458  107.97100067    0.07000000    0.28000000
   19.17138863  108.31700134    0.07000000    0.28000000
   19.17722130  108.31700134    0.07000000    0.28000000
   19.18138885  104.65100098    0.07000000    0.28000000
   19.18472099  102.91600037    0.07000000    0.28000000
   19.18805504  105.16799927    0.07000000    0.28000000
   19.19111061  108.98899841    0.07000000    0.28000000
   19.19444275  112.19400024    0.07000000    0.28000000
   19.19749832  110.94200134    0.07000000    0.28000000
   19.20000076  113.33200073    0.07000000    0.28000000
   19.20111275  115.58999634    0.07000000    0.28000000
   19.20444489  108.16100311    0.07000000    0.28000000
   19.20750046  115.96399689    0.07000000    0.28000000
   19.21083450  114.79499817    0.07000000    0.28000000
   19.21416664  110.57399750    0.07000000    0.28000000
   19.22027779  110.57399750    0.07000000    0.28000000
   19.22444534  116.06199646    0.07000000    0.28000000
   19.22750092  109.45400238    0.07000000    0.28000000
   19.23083305  118.98200226    0.07000000    0.28000000
   19.23333359  115.50900269    0.07000000    0.28000000
   19.23444557  115.48699951    0.07000000    0.28000000
   19.23777771  119.53199768    0.07000000    0.28000000
   19.24083328  111.91500092    0.07000000    0.28000000
   19.24416733  109.15599823    0.07000000    0.28000000
   19.24749947  112.92099762    0.07000000    0.28000000
   19.25055504  114.66400146    0.07000000    0.28000000
   19.25388908  115.91400146    0.07000000    0.28000000
   19.25694466  112.84100342    0.07000000    0.28000000
   19.26305580  112.84100342    0.07000000    0.28000000
   19.26722145  114.73899841    0.07000000    0.28000000
   19.27055550  115.11399841    0.07000000    0.28000000
   19.27361107  120.67700195    0.07000000    0.28000000
   19.27694511  118.47699738    0.07000000    0.28000000
   19.28027725  111.15399933    0.07000000    0.28000000
   19.28333282  116.24700165    0.07000000    0.28000000
   19.28666687  108.23200226    0.07000000    0.28000000
   19.28972244  122.54699707    0.07000000    0.28000000
   19.29305458  113.31300354    0.07000000    0.28000000
   19.29638863  111.15299988    0.07000000    0.28000000
   19.29944420  116.27500153    0.07000000    0.28000000
   19.29999924  113.30400085    0.07000000    0.28000000
   19.30583191  113.30400085    0.07000000    0.28000000
   19.30999947  109.55300140    0.07000000    0.28000000
   19.31333351  109.39199829    0.07000000    0.28000000
   19.31638718  105.73200226    0.07000000    0.28000000
   19.31972313  112.58699799    0.07000000    0.28000000
   19.32305717  108.85199738    0.07000000    0.28000000
   19.32611275  105.31800079    0.07000000    0.28000000
   19.32944489  109.12200165    0.07000000    0.28000000
   19.33250046  105.87300110    0.07000000    0.28000000
   19.33361244  105.33599854    0.07000000    0.28000000
   19.33611107  101.09899902    0.07000000    0.28000000
   19.33944511  110.13300323    0.07000000    0.28000000
   19.34250069  108.12699890    0.07000000    0.28000000
   19.34861183  108.12699890    0.07000000    0.28000000
   19.35277748  110.97799683    0.07000000    0.28000000
   19.35611153  112.58799744    0.07000000    0.28000000
   19.35944557  109.30500031    0.07000000    0.28000000
   19.36250114  109.23300171    0.07000000    0.28000000
   19.36583328  110.14700317    0.07000000    0.28000000
   19.36694527  109.93299866    0.07000000    0.28000000
   19.36944389  105.56300354    0.07000000    0.28000000
   19.37277794  113.55899811    0.07000000    0.28000000
   19.37583351  113.56400299    0.07000000    0.28000000
   19.37916756  103.13700104    0.07000000    0.28000000
   19.38249969  111.52400208    0.07000000    0.28000000
   19.38555527  107.70300293    0.07000000    0.28000000
   19.39166641  107.70300293    0.07000000    0.28000000
   19.39583397  105.77999878    0.07000000    0.28000000
   19.39888954  111.66699982    0.07000000    0.28000000
   19.40027809  114.75000000    0.07000000    0.28000000
   19.40250015  108.78399658    0.07000000    0.28000000
   19.40583229  110.41799927    0.07000000    0.28000000
   19.40888786  111.34300232    0.07000000    0.28000000
   19.41222191  113.06199646    0.07000000    0.28000000
   19.41555595  106.85900116    0.07000000    0.28000000
   19.41860962  114.27600098    0.07000000    0.28000000
   19.42194366  116.36799622    0.07000000    0.28000000
   19.42527771  105.47799683    0.07000000    0.28000000
   19.42833328  115.12500000    0.07000000    0.28000000
   19.43444443  115.12500000    0.07000000    0.28000000
   19.43861008  112.49099731    0.07000000    0.28000000
   19.44166565  113.00000000    0.07000000    0.28000000
   19.44499969  105.89499664    0.07000000    0.28000000
   19.44833183  112.30500031    0.07000000    0.28000000
   19.45138931  118.94899750    0.07000000    0.28000000
   19.45472336  117.04599762    0.07000000    0.28000000
   19.45805550  106.23400116    0.07000000    0.28000000
   19.46111107  111.98300171    0.07000000    0.28000000
   19.46444511  113.02400208    0.07000000    0.28000000
   19.46694565  113.75099945    0.07000000    0.28000000
   19.46805573  116.59100342    0.07000000    0.28000000
   19.47138977  112.77700043    0.07000000    0.28000000
   19.47722244  112.77700043    0.07000000    0.28000000
   19.48139000  114.15699768    0.07000000    0.28000000
   19.48472214  103.52300262    0.07000000    0.28000000
   19.48777771  112.71700287    0.07000000    0.28000000
   19.49111176  113.57299805    0.07000000    0.28000000
   19.49444389  113.18800354    0.07000000    0.28000000
   19.49749947  115.98000336    0.07000000    0.28000000
   19.50027847  118.66600037    0.07000000    0.28000000
   19.50111198  107.46499634    0.07000000    0.28000000
   19.50444412  117.37100220    0.07000000    0.28000000
   19.50749969  111.11199951    0.07000000    0.28000000
   19.51083374  115.16600037    0.07000000    0.28000000
   19.51416588  114.33999634    0.07000000    0.28000000
   19.52000046  114.33999634    0.07000000    0.28000000
   19.52416611  107.34500122    0.07000000    0.28000000
   19.52750015  115.51300049    0.07000000    0.28000000
   19.53083229  110.02400208    0.07000000    0.28000000
   19.53361130  119.80300140    0.07000000    0.28000000
   19.53416634  109.63200378    0.07000000    0.28000000
   19.53750038  112.25599670    0.07000000    0.28000000
   19.54055595  106.52400208    0.07000000    0.28000000
   19.54388809  106.64199829    0.07000000    0.28000000
   19.54722214  112.69599915    0.07000000    0.28000000
   19.55027771  110.07700348    0.07000000    0.28000000
   19.55360985  109.36100006    0.07000000    0.28000000
   19.55694389  108.97499847    0.07000000    0.28000000
   19.56305504  108.97499847    0.07000000    0.28000000
   19.56722260  113.97299957    0.07000000    0.28000000
   19.57027817  108.46499634    0.07000000    0.28000000
   19.57361221  108.76999664    0.07000000    0.28000000
   19.57694626  106.88300323    0.07000000    0.28000000
   19.58000183  116.43299866    0.07000000    0.28000000
   19.58333397  117.77200317    0.07000000    0.28000000
   19.58638954  113.53800201    0.07000000    0.28000000
   19.58972359  114.86299896    0.07000000    0.28000000
   19.59305573  113.68599701    0.07000000    0.28000000
   19.59611130  111.46800232    0.07000000    0.28000000
   19.59944534  113.23699951    0.07000000    0.28000000
   19.60027885  110.30599976    0.07000000    0.28000000
   19.60583305  110.30599976    0.07000000    0.28000000
   19.61000061  111.40000153    0.07000000    0.28000000
   19.61305618  110.36199951    0.07000000    0.28000000
   19.61638832  110.86699677    0.07000000    0.28000000
   19.61972237  112.41100311    0.07000000    0.28000000
   19.62305641  112.87200165    0.07000000    0.28000000
   19.62611198  114.81600189    0.07000000    0.28000000
   19.62944412  122.67700195    0.07000000    0.28000000
   19.63249969  110.59799957    0.07000000    0.28000000
   19.63361168  111.91200256    0.07000000    0.28000000
   19.63611031  123.03700256    0.07000000    0.28000000
   19.63944435  109.44000244    0.07000000    0.28000000
   19.64277840  115.36699677    0.07000000    0.28000000
   19.64861107  115.36699677    0.07000000    0.28000000
   19.65277672  113.65100098    0.07000000    0.28000000
   19.65611076  116.77300262    0.07000000    0.28000000
   19.65916634  118.29499817    0.07000000    0.28000000
   19.66250038  116.72200012    0.07000000    0.28000000
   19.66583252  111.05799866    0.07000000    0.28000000
   19.66694450  110.88700104    0.07000000    0.28000000
   19.66916656  111.42099762    0.07000000    0.28000000
   19.67249870  105.31900024    0.07000000    0.28000000
   19.67583275  105.43800354    0.07000000    0.28000000
   19.67888832  112.45200348    0.07000000    0.28000000
   19.68222237  117.62799835    0.07000000    0.28000000
   19.68527603  108.37300110    0.07000000    0.28000000
   19.69138718  108.37300110    0.07000000    0.28000000
   19.69555473  115.91200256    0.07000000    0.28000000
   19.69888878  120.87699890    0.07000000    0.28000000
   19.70027924  118.71900177    0.07000000    0.28000000
   19.70250130  115.43800354    0.07000000    0.28000000
   19.70583344  108.42199707    0.07000000    0.28000000
   19.70916748  113.32099915    0.07000000    0.28000000
   19.71222305  114.59300232    0.07000000    0.28000000
   19.71555710  124.11599731    0.07000000    0.28000000
   19.71861076  116.40899658    0.07000000    0.28000000
   19.72194481  112.75800323    0.07000000    0.28000000
   19.72527885  111.47200012    0.07000000    0.28000000
   19.72833443  114.13999939    0.07000000    0.28000000
   19.73444557  114.13999939    0.07000000    0.28000000
   19.73861122  114.21399689    0.07000000    0.28000000
   19.74166679  113.69599915    0.07000000    0.28000000
   19.74500084  115.02200317    0.07000000    0.28000000
   19.74805641  116.47100067    0.07000000    0.28000000
   19.75138855  118.83799744    0.07000000    0.28000000
   19.75472260  117.16500092    0.07000000    0.28000000
   19.75777817  117.23999786    0.07000000    0.28000000
   19.76111031  110.31099701    0.07000000    0.28000000
   19.76444435  119.15499878    0.07000000    0.28000000
   19.76694489  116.86900330    0.07000000    0.28000000
   19.78750038  116.86900330    0.07000000    0.28000000
   19.79166603  120.96299744    0.07000000    0.28000000
   19.79500008  122.98999786    0.07000000    0.28000000
   19.79805565  124.42199707    0.07000000    0.28000000
   19.80027771  118.04900360    0.07000000    0.28000000
   19.80194283  114.12899780    0.07000000    0.28000000
   19.80499840  122.78800201    0.07000000    0.28000000
   19.80833244  121.05500031    0.07000000    0.28000000
   19.81138802  126.24900055    0.07000000    0.28000000
   19.81472206  129.70899963    0.07000000    0.28000000
   19.81805611  125.92600250    0.07000000    0.28000000
   19.82111168  115.68299866    0.07000000    0.28000000
   19.82444572  118.48200226    0.07000000    0.28000000
   19.83027840  118.48200226    0.07000000    0.28000000
   19.83444595  121.13600159    0.07000000    0.28000000
   19.83750153  114.75000000    0.07000000    0.28000000
   19.84083366  120.40000153    0.07000000    0.28000000
   19.84416771  122.92400360    0.07000000    0.28000000
   19.84722328  114.23899841    0.07000000    0.28000000
   19.85055542  121.78900146    0.07000000    0.28000000
   19.85361099  126.07499695    0.07000000    0.28000000
   19.85694504  118.56800079    0.07000000    0.28000000
   19.86027908  123.13800049    0.07000000    0.28000000
   19.86333466  121.78700256    0.07000000    0.28000000
   19.86666679  120.23000336    0.07000000    0.28000000
   19.86722183  119.47799683    0.07000000    0.28000000
   19.87305641  119.47799683    0.07000000    0.28000000
   19.87722206  119.41100311    0.07000000    0.28000000
   19.88055611  121.65299988    0.07000000    0.28000000
   19.88361168  117.34799957    0.07000000    0.28000000
   19.88694382  116.32700348    0.07000000    0.28000000
   19.88999939  117.69999695    0.07000000    0.28000000
   19.89333344  112.33699799    0.07000000    0.28000000
   19.89666748  124.18299866    0.07000000    0.28000000
   19.89972115  117.73100281    0.07000000    0.28000000
   19.90055466  121.54499817    0.07000000    0.28000000
   19.90361023  115.63800049    0.07000000    0.28000000
   19.90666580  110.99500275    0.07000000    0.28000000
   19.90999985  111.16300201    0.07000000    0.28000000
   19.91583252  111.16300201    0.07000000    0.28000000
   19.92000008  125.94599915    0.07000000    0.28000000
   19.92333221  125.11699677    0.07000000    0.28000000
   19.92638779  130.74400330    0.07000000    0.28000000
   19.92972183  119.40899658    0.07000000    0.28000000
   19.93305397  120.23799896    0.07000000    0.28000000
   19.93388748  119.44899750    0.07000000    0.28000000
   19.93666649  122.97699738    0.07000000    0.28000000
   19.93972206  119.77500153    0.07000000    0.28000000
   19.94305420  118.72899628    0.07000000    0.28000000
   19.94610977  112.17400360    0.07000000    0.28000000
   19.94944382  121.19699860    0.07000000    0.28000000
   19.95277786  115.61399841    0.07000000    0.28000000
   19.95888901  115.61399841    0.07000000    0.28000000
   19.96277809  116.66200256    0.07000000    0.28000000
   19.96611214  118.77100372    0.07000000    0.28000000
   19.96722221  117.07299805    0.07000000    0.28000000
   19.97000122  107.72799683    0.07000000    0.28000000
   19.97305679  111.47000122    0.07000000    0.28000000
   19.97638893  123.32900238    0.07000000    0.28000000
   19.97944450  116.41500092    0.07000000    0.28000000
   19.98277855  120.60199738    0.07000000    0.28000000
   19.98611069  119.32800293    0.07000000    0.28000000
   19.98916626  125.09500122    0.07000000    0.28000000
   19.99250031  118.97100067    0.07000000    0.28000000
   19.99583435  118.97100067    0.07000000    0.28000000
   20.00166702  118.97100067    0.07000000    0.28000000
   20.00583267  121.30599976    0.07000000    0.28000000
   20.00888824  118.01999664    0.07000000    0.28000000
   20.01222229  113.13300323    0.07000000    0.28000000
   20.01555634  112.47000122    0.07000000    0.28000000
   20.01861000  119.92700195    0.07000000    0.28000000
   20.02194405  121.58699799    0.07000000    0.28000000
   20.02499962  114.36499786    0.07000000    0.28000000
   20.02833366  116.41400146    0.07000000    0.28000000
   20.03166580  124.22799683    0.07000000    0.28000000
   20.03388786  114.30500031    0.07000000    0.28000000
   20.03527641  118.75700378    0.07000000    0.28000000
   20.03833199  121.47899628    0.07000000    0.28000000
   20.04444313  121.47899628    0.07000000    0.28000000
   20.04861069  124.24900055    0.07000000    0.28000000
   20.05194283  122.94999695    0.07000000    0.28000000
   20.05499840  121.40899658    0.07000000    0.28000000
   20.05833244  117.53800201    0.07000000    0.28000000
   20.06138802  120.91400146    0.07000000    0.28000000
   20.06472206  121.89399719    0.07000000    0.28000000
   20.06722260  131.17700195    0.07000000    0.28000000
   20.06861115  124.69599915    0.07000000    0.28000000
   20.07166672  125.54799652    0.07000000    0.28000000
   20.07500076  127.06400299    0.07000000    0.28000000
   20.07805634  129.33599854    0.07000000    0.28000000
   20.08139038  125.05000305    0.07000000    0.28000000
   20.08722305  125.05000305    0.07000000    0.28000000
   20.09138870  133.03999329    0.07000000    0.28000000
   20.09472275  132.22200012    0.07000000    0.28000000
   20.09777832  128.51800537    0.07000000    0.28000000
   20.10055542  130.25799561    0.07000000    0.28000000
   20.10166740  129.13900757    0.07000000    0.28000000
   20.10472298  126.50199890    0.07000000    0.28000000
   20.10805511  124.99299622    0.07000000    0.28000000
   20.11111069  119.29000092    0.07000000    0.28000000
   20.11444473  128.80999756    0.07000000    0.28000000
   20.11777878  125.85900116    0.07000000    0.28000000
   20.12083435  120.16400146    0.07000000    0.28000000
   20.12416649  121.76499939    0.07000000    0.28000000
   20.13027763  121.76499939    0.07000000    0.28000000
   20.13416672  118.90000153    0.07000000    0.28000000
   20.13750076  128.57600403    0.07000000    0.28000000
   20.14083290  117.46600342    0.07000000    0.28000000
   20.14388847  123.90100098    0.07000000    0.28000000
   20.14722252  129.03300476    0.07000000    0.28000000
   20.15055466  119.30200195    0.07000000    0.28000000
   20.15361023  130.58200073    0.07000000    0.28000000
   20.15694427  132.91299438    0.07000000    0.28000000
   20.15999985  125.10199738    0.07000000    0.28000000
   20.16333389  132.19400024    0.07000000    0.28000000
   20.16666603  121.39900208    0.07000000    0.28000000
   20.16722107  120.13800049    0.07000000    0.28000000
   20.17305565  120.13800049    0.07000000    0.28000000
   20.17722130  126.20800018    0.07000000    0.28000000
   20.18027687  125.16400146    0.07000000    0.28000000
   20.18361092  123.30500031    0.07000000    0.28000000
   20.18694305  129.53300476    0.07000000    0.28000000
   20.18999863  128.34500122    0.07000000    0.28000000
   20.19333267  128.61799622    0.07000000    0.28000000
   20.19638824  125.96399689    0.07000000    0.28000000
   20.19972038  131.30200195    0.07000000    0.28000000
   20.20055580  111.97499847    0.07000000    0.28000000
   20.20333481  130.63200378    0.07000000    0.28000000
   20.20639038  131.30700684    0.07000000    0.28000000
   20.20972252  145.19900513    0.07000000    0.28000000
   20.21583366  145.19900513    0.07000000    0.28000000
   20.22000122  133.85499573    0.07000000    0.28000000
   20.22333336  130.28799438    0.07000000    0.28000000
   20.22638893  128.11300659    0.07000000    0.28000000
   20.22972298  125.02200317    0.07000000    0.28000000
   20.23277855  118.70999908    0.07000000    0.28000000
   20.23388863  127.25000000    0.07000000    0.28000000
   20.23666763  122.72899628    0.07000000    0.28000000
   20.23972321  124.98300171    0.07000000    0.28000000
   20.24305534  112.57499695    0.07000000    0.28000000
   20.24638939  128.31700134    0.07000000    0.28000000
   20.24944496  125.02999878    0.07000000    0.28000000
   20.25277710  129.74800110    0.07000000    0.28000000
   20.25861168  129.74800110    0.07000000    0.28000000
   20.26277733  131.97300720    0.07000000    0.28000000
   20.26611137  124.37699890    0.07000000    0.28000000
   20.26722145  136.51699829    0.07000000    0.28000000
   20.26972198  138.50399780    0.07000000    0.28000000
   20.27277756  137.12300110    0.07000000    0.28000000
   20.27611160  131.43200684    0.07000000    0.28000000
   20.27944374  133.77400208    0.07000000    0.28000000
   20.28249931  141.53199768    0.07000000    0.28000000
   20.28583336  145.56799316    0.07000000    0.28000000
   20.28888893  144.17700195    0.07000000    0.28000000
   20.29222107  137.79800415    0.07000000    0.28000000
   20.29555511  140.41200256    0.07000000    0.28000000
   20.30166626  140.41200256    0.07000000    0.28000000
   20.30555534  127.72899628    0.07000000    0.28000000
   20.30888748  140.74000549    0.07000000    0.28000000
   20.31222153  143.35099792    0.07000000    0.28000000
   20.31527710  140.01499939    0.07000000    0.28000000
   20.31861115  129.61799622    0.07000000    0.28000000
   20.32194519  153.71400452    0.07000000    0.28000000
   20.32500076  130.55799866    0.07000000    0.28000000
   20.32833481  139.37899780    0.07000000    0.28000000
   20.33139038  145.41400146    0.07000000    0.28000000
   20.33388901  143.19000244    0.07000000    0.28000000
   20.33527756  141.89999390    0.07000000    0.28000000
   20.33833313  129.20700073    0.07000000    0.28000000
   20.34444427  129.20700073    0.07000000    0.28000000
   20.34861183  142.58700562    0.07000000    0.28000000
   20.35166740  125.89800262    0.07000000    0.28000000
   20.35499954  134.42799377    0.07000000    0.28000000
   20.35833359  133.71800232    0.07000000    0.28000000
   20.36138916  142.73899841    0.07000000    0.28000000
   20.36472321  136.65400696    0.07000000    0.28000000
   20.36722183  137.87199402    0.07000000    0.28000000
   20.36833382  135.15800476    0.07000000    0.28000000
   20.37138939  143.81599426    0.07000000    0.28000000
   20.37472153  140.68499756    0.07000000    0.28000000
   20.37805557  146.47999573    0.07000000    0.28000000
   20.38111115  137.79200745    0.07000000    0.28000000
   20.38722229  137.79200745    0.07000000    0.28000000
   20.39138794  144.69299316    0.07000000    0.28000000
   20.39472198  141.48100281    0.07000000    0.28000000
   20.39777756  147.46600342    0.07000000    0.28000000
   20.40055466  141.51300049    0.07000000    0.28000000
   20.40166664  146.09199524    0.07000000    0.28000000
   20.40472221  144.58700562    0.07000000    0.28000000
   20.40805435  136.14700317    0.07000000    0.28000000
   20.41138840  119.73100281    0.07000000    0.28000000
   20.41444397  134.74000549    0.07000000    0.28000000
   20.41777802  131.34800720    0.07000000    0.28000000
   20.42083359  137.87600708    0.07000000    0.28000000
   20.42416573  137.49600220    0.07000000    0.28000000
   20.43000031  137.49600220    0.07000000    0.28000000
   20.43416595  140.63400269    0.07000000    0.28000000
   20.43750000  139.63000488    0.07000000    0.28000000
   20.44055557  140.86999512    0.07000000    0.28000000
   20.44388771  135.54899597    0.07000000    0.28000000
   20.44722176  144.88299561    0.07000000    0.28000000
   20.45027924  144.80000305    0.07000000    0.28000000
   20.45361137  139.76499939    0.07000000    0.28000000
   20.45694542  146.59100342    0.07000000    0.28000000
   20.46000099  136.18899536    0.07000000    0.28000000
   20.46333504  143.05700684    0.07000000    0.28000000
   20.46638870  139.90600586    0.07000000    0.28000000
   20.46722221  140.06300354    0.07000000    0.28000000
   20.47694588  136.19799805    0.07000000    0.28000000
   20.48027802  144.59700012    0.07000000    0.28000000
   20.48333359  140.02499390    0.07000000    0.28000000
   20.48666763  109.13600159    0.07000000    0.28000000
   20.48999977  174.94999695    0.07000000    0.28000000
   20.49305534  144.31300354    0.07000000    0.28000000
   20.49638939  148.10299683    0.07000000    0.28000000
   20.49972153  130.35299683    0.07000000    0.28000000
   20.50055504  145.30099487    0.07000000    0.28000000
   20.50333405  150.23599243    0.07000000    0.28000000
   20.50638962  148.39599609    0.07000000    0.28000000
   20.50972176  145.61099243    0.07000000    0.28000000
   20.51583290  145.61099243    0.07000000    0.28000000
   20.52000046  148.90699768    0.07000000    0.28000000
   20.52305603  142.95199585    0.07000000    0.28000000
   20.52638817  144.58900452    0.07000000    0.28000000
   20.52972221  142.73800659    0.07000000    0.28000000
   20.53277779  148.58299255    0.07000000    0.28000000
   20.53388786  145.71200562    0.07000000    0.28000000
   20.53638840  137.98199463    0.07000000    0.28000000
   20.53944397  143.96800232    0.07000000    0.28000000
   20.54277802  142.56399536    0.07000000    0.28000000
   20.54611015  143.72799683    0.07000000    0.28000000
   20.54916573  139.51300049    0.07000000    0.28000000
   20.55249977  142.19799805    0.07000000    0.28000000
   20.55861092  142.19799805    0.07000000    0.28000000
   20.56277657  155.00900269    0.07000000    0.28000000
   20.56611061  153.18299866    0.07000000    0.28000000
   20.56722260  144.43600464    0.07000000    0.28000000
   20.56972313  146.21299744    0.07000000    0.28000000
   20.57277870  139.04200745    0.07000000    0.28000000
   20.57611275  144.40499878    0.07000000    0.28000000
   20.57944489  147.82699585    0.07000000    0.28000000
   20.58250046  144.94599915    0.07000000    0.28000000
   20.58583450  140.46299744    0.07000000    0.28000000
   20.58916664  133.82099915    0.07000000    0.28000000
   20.59222221  128.84800720    0.07000000    0.28000000
   20.59555626  144.58799744    0.07000000    0.28000000
   20.60138893  144.58799744    0.07000000    0.28000000
   20.60555649  136.99800110    0.07000000    0.28000000
   20.60888863  139.22799683    0.07000000    0.28000000
   20.61194420  137.50399780    0.07000000    0.28000000
   20.61527824  143.67999268    0.07000000    0.28000000
   20.61861038  148.96400452    0.07000000    0.28000000
   20.62166595  140.80000305    0.07000000    0.28000000
   20.62500000  140.10699463    0.07000000    0.28000000
   20.62833405  144.18499756    0.07000000    0.28000000
   20.63138962  146.81500244    0.07000000    0.28000000
   20.63388824  140.19299316    0.07000000    0.28000000
   20.63500023  145.35899353    0.07000000    0.28000000
   20.67888832  115.64199829    0.07000000    0.28000000
   20.68222237  121.09799957    0.07000000    0.28000000
   20.68555450  130.82099915    0.07000000    0.28000000
   20.68888855  120.69499969    0.07000000    0.28000000
   20.69222069  122.39399719    0.07000000    0.28000000
   20.69527626  121.12000275    0.07000000    0.28000000
   20.69944382  121.12000275    0.07000000    0.28000000
   20.70361137  121.14800262    0.07000000    0.28000000
   20.70694542  124.89900208    0.07000000    0.28000000
   20.71027946  118.25099945    0.07000000    0.28000000
   20.71222305  124.59500122    0.07000000    0.28000000
   20.71389008  121.03299713    0.07000000    0.28000000
   20.71722221  119.63899994    0.07000000    0.28000000
   20.72027779  122.95400238    0.07000000    0.28000000
   20.72361183  122.95200348    0.07000000    0.28000000
   20.72666740  123.16300201    0.07000000    0.28000000
   20.73000145  127.17500305    0.07000000    0.28000000
   20.73333359  124.22100067    0.07000000    0.28000000
   20.73638916  122.62599945    0.07000000    0.28000000
   20.74222183  122.62599945    0.07000000    0.28000000
   20.74638939  122.60800171    0.07000000    0.28000000
   20.74972153  119.41500092    0.07000000    0.28000000
   20.75277710  124.13200378    0.07000000    0.28000000
   20.75611115  129.22599792    0.07000000    0.28000000
   20.75944519  124.21700287    0.07000000    0.28000000
   20.76250076  115.55599976    0.07000000    0.28000000
   20.76583290  111.31199646    0.07000000    0.28000000
   20.76916695  115.24500275    0.07000000    0.28000000
   20.77222252  122.91699982    0.07000000    0.28000000
   20.77555466  114.91200256    0.07000000    0.28000000
   20.77861023  109.97599792    0.07000000    0.28000000
   20.77916718  108.44999695    0.07000000    0.28000000
   20.78527641  108.44999695    0.07000000    0.28000000
   20.78916550  123.47699738    0.07000000    0.28000000
   20.79249954  130.14199829    0.07000000    0.28000000
   20.79583359  118.83300018    0.07000000    0.28000000
   20.79888916  122.09300232    0.07000000    0.28000000
   20.80222130  116.47599792    0.07000000    0.28000000
   20.80555534  117.73300171    0.07000000    0.28000000
   20.80861092  116.67800140    0.07000000    0.28000000
   20.81194305  108.98200226    0.07000000    0.28000000
   20.81250000  122.57399750    0.07000000    0.28000000
   20.81555557  121.95899963    0.07000000    0.28000000
   20.81888962  113.47399902    0.07000000    0.28000000
   20.82194519  120.18199921    0.07000000    0.28000000
   20.82805634  120.18199921    0.07000000    0.28000000
   20.83222389  106.76999664    0.07000000    0.28000000
   20.83527756  116.59200287    0.07000000    0.28000000
   20.83861160  119.54100037    0.07000000    0.28000000
   20.84194565  112.69999695    0.07000000    0.28000000
   20.84500122  116.22399902    0.07000000    0.28000000
   20.84583473  111.08100128    0.07000000    0.28000000
   20.84861183  117.17900085    0.07000000    0.28000000
   20.85194397  117.16699982    0.07000000    0.28000000
   20.85499954  117.54100037    0.07000000    0.28000000
   20.85833359  120.89800262    0.07000000    0.28000000
   20.86166763  119.10600281    0.07000000    0.28000000
   20.86472321  114.89499664    0.07000000    0.28000000
   20.87083435  114.89499664    0.07000000    0.28000000
   20.87500000  117.02700043    0.07000000    0.28000000
   20.87833405  117.00399780    0.07000000    0.28000000
   20.87916756  115.36199951    0.07000000    0.28000000
   20.88194466  122.41699982    0.07000000    0.28000000
   20.88527679  113.82800293    0.07000000    0.28000000
   20.88833237  125.53700256    0.07000000    0.28000000
   20.89166641  115.30500031    0.07000000    0.28000000
   20.89500046  121.61599731    0.07000000    0.28000000
   20.89805603  131.23399353    0.07000000    0.28000000
   20.90138817  124.36900330    0.07000000    0.28000000
   20.90444374  127.27200317    0.07000000    0.28000000
   20.90777779  120.31700134    0.07000000    0.28000000
   20.91361046  120.31700134    0.07000000    0.28000000
   20.91777802  122.27100372    0.07000000    0.28000000
   20.92111015  130.42399597    0.07000000    0.28000000
   20.92416573  126.10299683    0.07000000    0.28000000
   20.92749977  128.66099548    0.07000000    0.28000000
   20.93083191  115.47200012    0.07000000    0.28000000
   20.93388748  118.19200134    0.07000000    0.28000000
   20.93722153  120.37599945    0.07000000    0.28000000
   20.94055557  125.64199829    0.07000000    0.28000000
   20.94361115  117.87999725    0.07000000    0.28000000
   20.94583321  122.66899872    0.07000000    0.28000000
   20.94722176  111.89099884    0.07000000    0.28000000
   20.95055580  121.95800018    0.07000000    0.28000000
   20.95639038  121.95800018    0.07000000    0.28000000
   20.96055603  117.87899780    0.07000000    0.28000000
   20.96389008  124.59700012    0.07000000    0.28000000
   20.96722221  122.97799683    0.07000000    0.28000000
   20.97027779  130.84500122    0.07000000    0.28000000
   20.97361183  132.56199646    0.07000000    0.28000000
   20.97694588  128.71699524    0.07000000    0.28000000
   20.97916794  123.27400208    0.07000000    0.28000000
   20.98055649  120.29000092    0.07000000    0.28000000
   20.98388863  124.64900208    0.07000000    0.28000000
   20.98694420  122.34799957    0.07000000    0.28000000
   20.99027824  129.97099304    0.07000000    0.28000000
   20.99361229  131.36599731    0.07000000    0.28000000
   20.99944496  131.36599731    0.07000000    0.28000000
   21.00361061   -1.00000000    0.07000000    0.28000000
   21.00666618  129.58299255    0.07000000    0.28000000
   21.01000023   -1.00000000    0.07000000    0.28000000
   21.01361084   -1.00000000    0.07000000    0.28000000
   21.01666641   91.10870361    0.07000000    0.28000000
   21.02000046   -1.00000000    0.07000000    0.28000000
   21.02305603   -1.00000000    0.07000000    0.28000000
   21.02638817   -1.00000000    0.07000000    0.28000000
   21.02972221   -1.00000000    0.07000000    0.28000000
   21.03277779   -1.00000000    0.07000000    0.28000000
   21.03610992   -1.00000000    0.07000000    0.28000000
   21.04611015   -1.00000000    0.07000000    0.28000000
   21.04944420   -1.00000000    0.07000000    0.28000000
   21.05277634   -1.00000000    0.07000000    0.28000000
   21.05583191   96.81030273    0.07000000    0.28000000
   21.05916595  183.36000061    0.07000000    0.28000000
   21.06250000  129.82299805    0.07000000    0.28000000
   21.06555557  130.74600220    0.07000000    0.28000000
   21.06888962  126.43900299    0.07000000    0.28000000
   21.07222366  134.95500183    0.07000000    0.28000000
   21.07527924  132.97200012    0.07000000    0.28000000
   21.07861137  127.76100159    0.07000000    0.28000000
   21.07916832  130.43600464    0.07000000    0.28000000
   21.08500099  130.43600464    0.07000000    0.28000000
   21.08916664  123.05100250    0.07000000    0.28000000
   21.09250069  122.89900208    0.07000000    0.28000000
   21.09555626  132.11300659    0.07000000    0.28000000
   21.09889030  123.96499634    0.07000000    0.28000000
   21.10222244  133.42799377    0.07000000    0.28000000
   21.10527802  120.96800232    0.07000000    0.28000000
   21.10861206  123.85600281    0.07000000    0.28000000
   21.11194420  122.36399841    0.07000000    0.28000000
   21.11250114  119.71299744    0.07000000    0.28000000
   21.11527824  129.56700134    0.07000000    0.28000000
   21.11861038  123.03700256    0.07000000    0.28000000
   21.12166595  126.73300171    0.07000000    0.28000000
   21.12805557  126.73300171    0.07000000    0.28000000
   21.13194466  122.65699768    0.07000000    0.28000000
   21.13527679  111.95800018    0.07000000    0.28000000
   21.13861084  115.31700134    0.07000000    0.28000000
   21.14166641  122.19799805    0.07000000    0.28000000
   21.14500046  120.67299652    0.07000000    0.28000000
   21.14583397  132.20199585    0.07000000    0.28000000
   21.14861107  106.61299896    0.07000000    0.28000000
   21.15194321   -1.00000000    0.07000000    0.28000000
   21.15499878   -1.00000000    0.07000000    0.28000000
   21.15833282   94.76349640    0.07000000    0.28000000
   21.16166687  130.35600281    0.07000000    0.28000000
   21.16472244   -1.00000000    0.07000000    0.28000000
   21.17472076   -1.00000000    0.07000000    0.28000000
   21.17805481   -1.00000000    0.07000000    0.28000000
   21.18166542   -1.00000000    0.07000000    0.28000000
   21.18472099   -1.00000000    0.07000000    0.28000000
   21.59055710  130.90199280    0.07000000    0.28000000
   21.59361267  132.43099976    0.07000000    0.28000000
   21.59694481  123.72799683    0.07000000    0.28000000
   21.60000038  125.95999908    0.07000000    0.28000000
   21.60333443  131.37300110    0.07000000    0.28000000
   21.60666656  120.45899963    0.07000000    0.28000000
   21.61083412  120.45899963    0.07000000    0.28000000
   21.61472321  134.95300293    0.07000000    0.28000000
   21.61805534  121.61599731    0.07000000    0.28000000
   21.62138939  139.48699951    0.07000000    0.28000000
   21.62388992  128.60000610    0.07000000    0.28000000
   21.62500000  132.95899963    0.07000000    0.28000000
   21.62833405  127.20999908    0.07000000    0.28000000
   21.63138962  128.82099915    0.07000000    0.28000000
   21.63472176  131.13900757    0.07000000    0.28000000
   21.63805580  129.26699829    0.07000000    0.28000000
   21.64111137  132.56500244    0.07000000    0.28000000
   21.64444351  137.90800476    0.07000000    0.28000000
   21.64777756  136.50700378    0.07000000    0.28000000
   21.65361023  136.50700378    0.07000000    0.28000000
   21.65777779  143.36599731    0.07000000    0.28000000
   21.66083336  135.81799316    0.07000000    0.28000000
   21.66416550  143.69000244    0.07000000    0.28000000
   21.66749954  144.82099915    0.07000000    0.28000000
   21.67055511  127.86100006    0.07000000    0.28000000
   21.67388916  137.15299988    0.07000000    0.28000000
   21.67722130  152.78399658    0.07000000    0.28000000
   21.68027687  142.10299683    0.07000000    0.28000000
   21.68361092  141.57299805    0.07000000    0.28000000
   21.68694305  127.70300293    0.07000000    0.28000000
   21.68999863  132.85000610    0.07000000    0.28000000
   21.69055557  131.59599304    0.07000000    0.28000000
   21.69638824  131.59599304    0.07000000    0.28000000
   21.70055580  137.41600037    0.07000000    0.28000000
   21.70388985  133.89100647    0.07000000    0.28000000
   21.70694542  144.61199951    0.07000000    0.28000000
   21.71027946  128.41400146    0.07000000    0.28000000
   21.71333504  134.56300354    0.07000000    0.28000000
   21.71666718  128.36799622    0.07000000    0.28000000
   21.72000122  121.12500000    0.07000000    0.28000000
   21.72305679  133.53399658    0.07000000    0.28000000
   21.72389030  131.42500305    0.07000000    0.28000000
   21.72694588  129.00300598    0.07000000    0.28000000
   21.73000145  125.64600372    0.07000000    0.28000000
   21.73333359  128.70899963    0.07000000    0.28000000
   21.73916626  128.70899963    0.07000000    0.28000000
   21.74333382  287.76599121    0.07000000    0.28000000
   21.74666786  144.04899597    0.07000000    0.28000000
   21.74972153  139.95300293    0.07000000    0.28000000
   21.75305557  129.55799866    0.07000000    0.28000000
   21.75638962  147.26600647    0.07000000    0.28000000
   21.75722313  139.73800659    0.07000000    0.28000000
   21.76000023  137.93899536    0.07000000    0.28000000
   21.76305580  133.96600342    0.07000000    0.28000000
   21.76638794  137.96600342    0.07000000    0.28000000
   21.76972198  129.42500305    0.07000000    0.28000000
   21.77277756  138.00399780    0.07000000    0.28000000
   21.77611160  136.57499695    0.07000000    0.28000000
   21.78222275  136.57499695    0.07000000    0.28000000
   21.78610992  133.11399841    0.07000000    0.28000000
   21.78944397  142.86900330    0.07000000    0.28000000
   21.79055595  142.34599304    0.07000000    0.28000000
   21.79305458  138.03599548    0.07000000    0.28000000
   21.79611015  134.71299744    0.07000000    0.28000000
   21.79944420  133.10200500    0.07000000    0.28000000
   21.80277634  127.91699982    0.07000000    0.28000000
   21.80583191  141.35400391    0.07000000    0.28000000
   21.80916595  140.04499817    0.07000000    0.28000000
   21.81250000  141.74099731    0.07000000    0.28000000
   21.81555557  132.52099609    0.07000000    0.28000000
   21.81888962  141.55000305    0.07000000    0.28000000
   21.82500076  141.55000305    0.07000000    0.28000000
   21.82916832  133.99099731    0.07000000    0.28000000
   21.83222389  135.10400391    0.07000000    0.28000000
   21.83555603  133.91200256    0.07000000    0.28000000
   21.83889008  132.73899841    0.07000000    0.28000000
   21.84194565  153.32099915    0.07000000    0.28000000
   21.84527779  140.73199463    0.07000000    0.28000000
   21.84861183  145.13600159    0.07000000    0.28000000
   21.85166740  143.43800354    0.07000000    0.28000000
   21.85499954  128.86500549    0.07000000    0.28000000
   21.85722351  130.52099609    0.07000000    0.28000000
   21.85861206  126.24700165    0.07000000    0.28000000
   21.86166763  131.08000183    0.07000000    0.28000000
   21.86777878  131.08000183    0.07000000    0.28000000
   21.87194443  132.50900269    0.07000000    0.28000000
   21.87527847  134.09100342    0.07000000    0.28000000
   21.87833405  135.35499573    0.07000000    0.28000000
   21.88166618  135.50300598    0.07000000    0.28000000
   21.88472176  135.77799988    0.07000000    0.28000000
   21.88805580  132.21699524    0.07000000    0.28000000
   21.89055634  135.56300354    0.07000000    0.28000000
   21.89166641  131.51499939    0.07000000    0.28000000
   21.89472198  147.87199402    0.07000000    0.28000000
   21.89805603  136.44299316    0.07000000    0.28000000
   21.90138817  140.59700012    0.07000000    0.28000000
   21.90444374  127.55599976    0.07000000    0.28000000
   21.91055489  127.55599976    0.07000000    0.28000000
   21.91472244  143.00900269    0.07000000    0.28000000
   21.91805458  122.93900299    0.07000000    0.28000000
   21.92111015  143.91200256    0.07000000    0.28000000
   21.92388916  123.23000336    0.07000000    0.28000000
   21.92499924  134.01800537    0.07000000    0.28000000
   21.92805481  147.44400024    0.07000000    0.28000000
   21.93138885  134.40899658    0.07000000    0.28000000
   21.93472099  123.67400360    0.07000000    0.28000000
   21.93777657  115.21700287    0.07000000    0.28000000
   21.94111061  137.73800659    0.07000000    0.28000000
   21.94444275  124.89399719    0.07000000    0.28000000
   21.94749832  139.87500000    0.07000000    0.28000000
   21.95361137  139.87500000    0.07000000    0.28000000
   21.95750046  137.15699768    0.07000000    0.28000000
   21.96083450  135.58900452    0.07000000    0.28000000
   21.96416664  130.26300049    0.07000000    0.28000000
   21.96722221  152.01100159    0.07000000    0.28000000
   21.97055626  133.09100342    0.07000000    0.28000000
   21.97389030  137.81300354    0.07000000    0.28000000
   21.97694588  137.16299438    0.07000000    0.28000000
   21.98027802  153.19200134    0.07000000    0.28000000
   21.98333359  132.32200623    0.07000000    0.28000000
   21.98666763  132.85299683    0.07000000    0.28000000
   21.98999977  137.76899719    0.07000000    0.28000000
   21.99055672  130.37899780    0.07000000    0.28000000
   21.99638939  130.37899780    0.07000000    0.28000000
   22.00055504  144.54899597    0.07000000    0.28000000
   22.00388908  143.67399597    0.07000000    0.28000000
   22.00722313  129.11300659    0.07000000    0.28000000
   22.01027870  140.24899292    0.07000000    0.28000000
   22.01361084  134.27099609    0.07000000    0.28000000
   22.01666641  123.12400055    0.07000000    0.28000000
   22.02000046  125.74800110    0.07000000    0.28000000
   22.02388954  126.15200043    0.07000000    0.28000000
   22.02555466  124.15499878    0.07000000    0.28000000
   22.02888870  129.24800110    0.07000000    0.28000000
   22.03194427  138.76300049    0.07000000    0.28000000
   22.03666687  134.12600708    0.07000000    0.28000000
   22.04166603  134.12600708    0.07000000    0.28000000
   22.04583359  135.62100220    0.07000000    0.28000000
   22.04999924  133.86000061    0.07000000    0.28000000
   22.05360985  133.22799683    0.07000000    0.28000000
   22.05722237  139.06500244    0.07000000    0.28000000
   22.05916595  141.66600037    0.07000000    0.28000000
   22.06250000  135.70799255    0.07000000    0.28000000
   22.06638718  136.75700378    0.07000000    0.28000000
   22.06972313  138.25399780    0.07000000    0.28000000
   22.07305717  140.00100708    0.07000000    0.28000000
   22.07638931  139.71000671    0.07000000    0.28000000
   22.07944489  157.18899536    0.07000000    0.28000000
   22.08361244  157.18899536    0.07000000    0.28000000
   22.08777809  141.07499695    0.07000000    0.28000000
   22.09111214  144.68800354    0.07000000    0.28000000
   22.09166718  143.19700623    0.07000000    0.28000000
   22.09500122  141.30400085    0.07000000    0.28000000
   22.09805679  139.41000366    0.07000000    0.28000000
   22.10138893  149.75700378    0.07000000    0.28000000
   22.10472298  142.13000488    0.07000000    0.28000000
   22.10805511  147.07099915    0.07000000    0.28000000
   22.11111069  135.93299866    0.07000000    0.28000000
   22.11444473  151.36999512    0.07000000    0.28000000
   22.11777878  139.14599609    0.07000000    0.28000000
   22.12138939  140.60899353    0.07000000    0.28000000
   22.12722206  140.60899353    0.07000000    0.28000000
   22.13138962  147.97999573    0.07000000    0.28000000
   22.13472176  143.13600159    0.07000000    0.28000000
   22.13805580  143.73800659    0.07000000    0.28000000
   22.14111137  141.03500366    0.07000000    0.28000000
   22.14472198  139.33700562    0.07000000    0.28000000
   22.14805603  144.27999878    0.07000000    0.28000000
   22.15111160  158.02699280    0.07000000    0.28000000
   22.15444374  141.63999939    0.07000000    0.28000000
   22.15777779  144.97300720    0.07000000    0.28000000
   22.15833282  149.79100037    0.07000000    0.28000000
   22.16138840  140.48199463    0.07000000    0.28000000
   22.16444397  142.38699341    0.07000000    0.28000000
   22.16944313  142.38699341    0.07000000    0.28000000
   22.17361069  131.63200378    0.07000000    0.28000000
   22.17666626  141.39100647    0.07000000    0.28000000
   22.18000031  136.35699463    0.07000000    0.28000000
   22.18333244  145.71899414    0.07000000    0.28000000
   22.18638802  146.73100281    0.07000000    0.28000000
   22.18972206  149.11300659    0.07000000    0.28000000
   22.19166565  146.18099976    0.07000000    0.28000000
   22.19305420  143.63699341    0.07000000    0.28000000
   22.19638824  140.58999634    0.07000000    0.28000000
   22.19972038  154.61399841    0.07000000    0.28000000
   22.20277786  138.50799561    0.07000000    0.28000000
   22.20611191  145.86500549    0.07000000    0.28000000
   22.21222305  145.86500549    0.07000000    0.28000000
   22.21638870  143.30599976    0.07000000    0.28000000
   22.21972275  135.00799561    0.07000000    0.28000000
   22.22277832  144.53799438    0.07000000    0.28000000
   22.22500038  137.65600586    0.07000000    0.28000000
   22.22666740  144.03300476    0.07000000    0.28000000
   22.22972298  154.82499695    0.07000000    0.28000000
   22.23305511  134.57600403    0.07000000    0.28000000
   22.23638916  135.78399658    0.07000000    0.28000000
   22.23972321  138.01499939    0.07000000    0.28000000
   22.24333382  138.34500122    0.07000000    0.28000000
   22.24666786  140.54600525    0.07000000    0.28000000
   22.24972153  143.70100403    0.07000000    0.28000000
   22.25555611  143.70100403    0.07000000    0.28000000
   22.25972176  146.37399292    0.07000000    0.28000000
