    HOUR (UT)   FLARE FACTOR    SKY TESTER    SUN TESTER
   12.27638817   -1.00000000   -1.00000000   -1.00000000
   12.29611111   96.43350220    1.30999994    1.83000004
   12.30166721   91.29190063    1.30999994    1.83000004
   12.30611134   89.21710205    1.28999996    1.83000004
   12.30944443  151.93099976    1.28999996    1.83000004
   12.31250000   97.77940369    1.30999994    1.83000004
   12.31583309   95.39849854    1.30999994    1.83000004
   12.31888866  105.22100067    1.33000004    1.85000002
   12.32222176   95.38140106    1.33000004    1.85000002
   12.32555580  100.73000336    1.33000004    1.85000002
   12.32861137   90.89739990    1.33000004    1.85000002
   12.32944393  102.93699646    1.33000004    1.85000002
   12.33249950   90.54709625    1.36000001    1.86000001
   12.33555508   96.15940094    1.36000001    1.86000001
   12.33888817   96.51039886    1.36000001    1.86000001
   12.34194374   94.55979919    1.36000001    1.86000001
   12.34527779  102.02500153    1.38000000    1.86000001
   12.34861088  100.55100250    1.38000000    1.86000001
   12.35166740   91.33460236    1.39999998    1.88000000
   12.35500050   94.86879730    1.44000006    1.88000000
   12.35833359   93.11930084    1.39999998    1.88000000
   12.36138916  101.77999878    1.39999998    1.88000000
   12.36277771   96.07720184    1.41999996    1.88000000
   12.36527824   97.09880066    1.41999996    1.88000000
   12.36833382   90.06449890    1.44000006    1.89999998
   12.37166691   94.63729858    1.46000004    1.89999998
   12.37472248   89.98000336    1.48000002    1.89999998
   12.37805557   91.61560059    1.46000004    1.89999998
   12.38138866   91.34880066    1.46000004    1.89999998
   12.38444424   97.83110046    1.46000004    1.89999998
   12.38777733  100.08799744    1.46000004    1.91999996
   12.39111137  104.55100250    1.46000004    1.91999996
   12.39416695   92.59429932    1.46000004    1.91999996
   12.39611053   94.40419769    1.46000004    1.91999996
   12.39805508  101.12599945    1.46000004    1.91999996
   12.40138817  101.56300354    1.48000002    1.91999996
   12.40444374   95.96399689    1.50000000    1.91999996
   12.40777779   94.44940186    1.48000002    1.94000006
   12.41111088   88.41130066    1.46000004    1.94000006
   12.41444397   96.29440308    1.38000000    1.94000006
   12.41750050   94.65850067    1.38000000    1.94000006
   12.42083359   98.08989716    1.36000001    1.94000006
   12.42388916   95.84020233    1.36000001    1.94000006
   12.42722225  100.62200165    1.36000001    1.96000004
   12.42944431   87.31700134    1.36000001    1.96000004
   12.43111134   96.70760345    1.36000001    1.96000004
   12.43416691   89.99610138    1.36000001    1.96000004
   12.43750000   89.75859833    1.33000004    1.96000004
   12.44083309   91.41480255    1.34000003    1.96000004
   12.44388866   93.31310272    1.33000004    1.96000004
   12.44722271   97.96459961    1.33000004    1.98000002
   12.45055580   94.33869934    1.30999994    1.98000002
   12.45388889   95.60870361    1.28999996    1.98000002
   12.45694447  104.33499908    1.28999996    1.98000002
   12.46027756   86.68640137    1.26999998    1.98000002
   12.46277714   90.52880096    1.25000000    1.98000002
   12.46416664   90.28209686    1.25000000    1.98000002
   12.46722221   89.65750122    1.21000004    2.00000000
   12.47055531   87.68659973    1.21000004    2.00000000
   12.47388840   93.39279938    1.19000006    2.00000000
   12.47694397   90.09010315    1.16999996    1.98000002
   12.48027706   87.96559906    1.11000001    2.00000000
   12.48333359   95.34829712    1.09000003    2.00000000
   12.48666668   97.94460297    1.09000003    2.00000000
   12.49000072   97.45149994    1.09000003    2.01999998
   12.49305534   91.67379761    1.09000003    2.01999998
   12.49611092  102.82800293    1.13000000    2.01999998
   12.49694443   91.71430206    1.13000000    2.01999998
   12.50000000   92.11740112    1.14999998    2.01999998
   12.50333309   91.07019806    1.16999996    2.01999998
   12.50666714   91.09010315    1.16999996    2.01999998
   12.50972176   96.27490234    1.14999998    2.01999998
   12.51305580   93.50119781    1.14999998    2.01999998
   12.51638889   94.10109711    1.14999998    2.01999998
   12.51944447   87.67400360    1.13000000    2.03999996
   12.52277756   87.16459656    1.14999998    2.03999996
   12.52611065   92.38899994    1.14999998    2.03999996
   12.52916622   91.41609955    1.13000000    2.03999996
   12.52972221   89.24680328    1.13000000    2.05999994
   12.53305531   92.44210052    1.03999996    2.03999996
   12.53638935   91.48850250    1.01999998    2.05999994
   12.53944492   90.05100250    1.01999998    2.05999994
   12.54277802   96.70480347    1.01999998    2.05999994
   12.54583359   90.29789734    1.00000000    2.05999994
   12.54916668   96.23799896    1.00000000    2.05999994
   12.55249977   89.94159698    0.98000002    2.05999994
   12.55555534   93.97509766    0.94000000    2.07999992
   12.55888939   89.50129700    0.94000000    2.07999992
   12.56194496   96.88690186    0.94000000    2.07999992
   12.56305599   96.44599915    0.94000000    2.07999992
   12.56583309   86.72409821    0.92000002    2.07999992
   12.56916618   96.35870361    0.92000002    2.09999990
   12.57222176   93.59249878    0.95999998    2.07999992
   12.57555580   88.86190033    0.95999998    2.07999992
   12.57861137   90.73519897    1.00000000    2.07999992
   12.58194447   90.26290131    1.01999998    2.07999992
   12.58527756   85.86129761    1.05999994    2.09999990
   12.58833313   85.94920349    1.00000000    2.09999990
   12.59166622   88.03849792    0.95999998    2.09999990
   12.59472179   94.86820221    0.94000000    2.09999990
   12.59638882   96.70410156    0.92000002    2.09999990
   12.59861088   87.33519745    0.89999998    2.09999990
   12.60305595   91.77449799    0.88000000    2.09999990
   12.60666752   90.84169769    0.88000000    2.09999990
   12.60972214   90.01589966    0.86000001    2.11999989
   12.61305618   97.49880219    0.88000000    2.09999990
   12.61611176   91.16380310    0.88000000    2.09999990
   12.61944485   92.88220215    0.88000000    2.11999989
   12.62277794   82.28369904    0.88000000    2.09999990
   12.62583351   86.09670258    0.92000002    2.11999989
   12.62916660   87.07830048    0.89999998    2.13000011
   12.62972260  100.72699738    0.89999998    2.13000011
   12.63277817   96.08699799    0.89999998    2.13000011
   12.63611126   93.61380005    0.89999998    2.13000011
   12.63916683   88.74839783    0.89999998    2.13000011
   12.64249992   91.45449829    0.86000001    2.13000011
   12.64555550   99.57219696    0.81999999    2.13000011
   12.64888859   92.48159790    0.80000001    2.13000011
   12.65222168   97.04640198    0.80000001    2.13000011
   12.65527725  110.72399902    0.76999998    2.13000011
   12.65861034  101.82099915    0.76999998    2.13000011
   12.66166592   93.74400330    0.76999998    2.13000011
   12.66305542   85.49859619    0.76999998    2.13000011
   12.66555500   93.57430267    0.76999998    2.15000010
   12.66861153   92.83290100    0.73000002    2.15000010
   12.67194462   92.63590240    0.73000002    2.15000010
   12.67527771   91.91249847    0.69000000    2.15000010
   12.67833328   88.28769684    0.70999998    2.15000010
   12.68166733   96.42279816    0.75000000    2.15000010
   12.68500042   88.80639648    0.75000000    2.15000010
   12.68805599   88.93009949    0.76999998    2.17000008
   12.69138908   85.18160248    0.76999998    2.15000010
   12.69472218   85.41339874    0.73000002    2.17000008
   12.69638920   83.48280334    0.73000002    2.17000008
   12.69833374   88.47080231    0.73000002    2.17000008
   12.70166683   91.45950317    0.73000002    2.17000008
   12.70472240   87.42939758    0.73000002    2.17000008
   12.70805550   90.22540283    0.70999998    2.17000008
   12.71138859   89.04299927    0.70999998    2.17000008
   12.71444416   83.31690216    0.73000002    2.17000008
   12.71777725   86.92669678    0.75000000    2.17000008
   12.72083282   87.00920105    0.75000000    2.17000008
   12.72416592   86.58070374    0.76999998    2.17000008
   12.72749996   89.05500031    0.75000000    2.19000006
   12.72972202   92.49680328    0.75000000    2.17000008
   12.73111057   89.61900330    0.73000002    2.17000008
   12.73444462   96.34629822    0.70999998    2.19000006
   12.73750019   90.61049652    0.70999998    2.19000006
   12.74083328   92.13890076    0.70999998    2.19000006
   12.74388885   87.63659668    0.70999998    2.19000006
   12.74722290   98.84380341    0.69000000    2.19000006
   12.75055599   93.93730164    0.69000000    2.19000006
   12.75361156   87.57360077    0.69000000    2.21000004
   12.75694466   92.39769745    0.69000000    2.21000004
   12.76027775   94.56490326    0.67000002    2.21000004
   12.76305580   89.65609741    0.69000000    2.21000004
   12.76388931   88.97769928    0.69000000    2.21000004
   12.76722240   89.41760254    0.67000002    2.21000004
   12.77027798   88.82350159    0.67000002    2.21000004
   12.77361107   92.88369751    0.64999998    2.21000004
   12.77666664   93.59590149    0.64999998    2.21000004
   12.77999973   92.73609924    0.63000000    2.21000004
   12.78333378   92.23809814    0.63000000    2.21000004
   12.78638935   86.25530243    0.63000000    2.21000004
   12.78972244   93.08630371    0.63000000    2.21000004
   12.79305553   89.70619965    0.63000000    2.21000004
   12.79611111   88.53639984    0.63000000    2.23000002
   12.79666710   90.53099823    0.63000000    2.23000002
   12.80000019   86.71769714    0.69000000    2.23000002
   12.80333328   90.51609802    0.70999998    2.23000002
   12.80638885   93.27359772    0.73000002    2.23000002
   12.80972195   91.40660095    0.70999998    2.23000002
   12.81277752   85.40209961    0.69000000    2.23000002
   12.81611156   85.86630249    0.69000000    2.23000002
   12.81944466   84.04460144    0.69000000    2.23000002
   12.82250023   95.13619995    0.70999998    2.23000002
   12.82583332   87.55719757    0.70999998    2.23000002
   12.82888889   93.88999939    0.70999998    2.25000000
   12.82999992   84.93150330    0.70999998    2.25000000
   12.83277798   90.73339844    0.73000002    2.25000000
   12.83583260   87.97229767    0.70999998    2.25000000
   12.83916664   94.72029877    0.70999998    2.25000000
   12.84249973   89.97740173    0.70999998    2.25000000
   12.84555531   92.72799683    0.70999998    2.25000000
   12.84888840   88.28610229    0.69000000    2.25000000
   12.85222244   93.17160034    0.70999998    2.25000000
   12.85527802   90.57180023    0.70999998    2.25000000
   12.85861111   90.16089630    0.69000000    2.25000000
   12.86166668   93.66149902    0.69000000    2.25000000
   12.86333370  103.69200134    0.69000000    2.25000000
   12.86555576   99.60130310    0.69000000    2.25000000
   12.86888885   92.78459930    0.69000000    2.25000000
   12.87194443   87.26190186    0.70999998    2.26999998
   12.87527752   88.62870026    0.70999998    2.25000000
   12.87833309   97.60669708    0.69000000    2.26999998
   12.88166714   93.90470123    0.69000000    2.25000000
   12.88500023  108.76999664    0.69000000    2.25000000
   12.88805580  101.19499969    0.69000000    2.26999998
   12.89138889   96.53970337    0.69000000    2.26999998
   12.89472198   91.45120239    0.70999998    2.26999998
   12.89666653   93.35009766    0.70999998    2.26999998
   12.89833355   94.19229889    0.70999998    2.26999998
   12.90138817   91.71199799    0.70999998    2.26999998
   12.90472221   92.81469727    0.69000000    2.26999998
   12.90805531   98.10780334    0.70999998    2.28999996
   12.91111088   93.81710052    0.70999998    2.28999996
   12.91444397   97.32070160    0.69000000    2.28999996
   12.91777802   90.30110168    0.67000002    2.28999996
   12.92083359   86.53330231    0.64999998    2.28999996
   12.92416668   91.21309662    0.64999998    2.28999996
   12.92750072   86.34239960    0.63000000    2.28999996
   12.93000031   89.22830200    0.63000000    2.28999996
   12.93111134   88.90350342    0.63000000    2.28999996
   12.93416691   91.66560364    0.64999998    2.28999996
   12.93750000   89.07019806    0.64999998    2.28999996
   12.94083309   89.00949860    0.61000001    2.28999996
   12.94388866   93.52220154    0.61000001    2.28999996
   12.94722271   97.91970062    0.56999999    2.28999996
   12.95055580   92.42289734    0.56999999    2.28999996
   12.95361137   94.30319977    0.58999997    2.28999996
   12.95694447   91.91310120    0.58999997    2.28999996
   12.96027756   99.97720337    0.58999997    2.28999996
   12.96333313   97.36519623    0.58999997    2.30999994
   12.96388912  100.65100098    0.58999997    2.30999994
   12.96694374   93.52059937    0.58999997    2.30999994
   12.97027779   95.62560272    0.58999997    2.28999996
   12.97361088   92.46829987    0.56999999    2.30999994
   12.97666645   95.62329865    0.56999999    2.30999994
   12.97999954   99.04350281    0.56999999    2.30999994
   12.98333359  105.12300110    0.56999999    2.30999994
   12.98638916  111.93299866    0.56999999    2.30999994
   12.98972225   88.65579987    0.56999999    2.30999994
   12.99277782  104.28700256    0.55000001    2.32999992
   12.99611092  102.30000305    0.55000001    2.32999992
   12.99666691   92.33200073    0.55000001    2.32999992
   12.99972248  103.09100342    0.55000001    2.32999992
   13.00277805  105.62200165    0.55000001    2.32999992
   13.00611115   91.67359924    0.56999999    2.32999992
   13.00944424   91.71669769    0.56999999    2.32999992
   13.01249981   89.39350128    0.58999997    2.32999992
   13.01583290   89.15589905    0.58999997    2.32999992
   13.01916599   95.42569733    0.58999997    2.32999992
   13.02222157   90.69450378    0.56999999    2.32999992
   13.02555561   93.49009705    0.56999999    2.32999992
   13.02861118   93.55400085    0.55000001    2.32999992
   13.02999973   95.08290100    0.55000001    2.32999992
   13.03249931   92.09140015    0.55000001    2.32999992
   13.03583336   94.40840149    0.55000001    2.32999992
   13.03888893   92.21320343    0.55000001    2.32999992
   13.04222298   87.09410095    0.56999999    2.32999992
   13.04555607   91.77770233    0.56999999    2.32999992
   13.04861164   88.39430237    0.56999999    2.32999992
   13.05194473   94.70420074    0.56999999    2.34999990
   13.05527782   88.30570221    0.56999999    2.32999992
   13.05833340   83.57910156    0.56999999    2.32999992
   13.06166649   84.71630096    0.56999999    2.32999992
   13.06333351   84.85540009    0.56999999    2.32999992
   13.06527805   93.96779633    0.56999999    2.32999992
   13.06861115   98.36090088    0.56999999    2.34999990
   13.07166672   96.08750153    0.55000001    2.34999990
   13.07499981   97.93939972    0.55000001    2.34999990
   13.07805538  108.79299927    0.52999997    2.34999990
   13.08138847   90.75720215    0.52999997    2.34999990
   13.08472157   98.16419983    0.52999997    2.34999990
   13.08777714   95.08039856    0.51999998    2.34999990
   13.09111118   93.64119720    0.52999997    2.34999990
   13.09444427   90.66519928    0.52999997    2.34999990
   13.09666634   92.95449829    0.52999997    2.36999989
   13.09805489   95.78269958    0.52999997    2.34999990
   13.10138893   93.46360016    0.52999997    2.34999990
   13.10444450   99.96759796    0.52999997    2.36999989
   13.10777855  108.93599701    0.52999997    2.36999989
   13.11083412   96.76999664    0.51999998    2.36999989
   13.11416721   97.49780273    0.51999998    2.36999989
   13.11750031   98.41580200    0.52999997    2.36999989
   13.12055588  101.05999756    0.52999997    2.36999989
   13.12388897   92.02380371    0.52999997    2.36999989
   13.12722206   92.57270050    0.52999997    2.36999989
   13.13000011  100.41300201    0.55000001    2.36999989
   13.13083363   94.34480286    0.55000001    2.36999989
   13.13416672   88.10459900    0.52999997    2.36999989
   13.13722229   84.53610229    0.52999997    2.36999989
   13.14055538   87.63210297    0.51999998    2.36999989
   13.14361095   91.34780121    0.51999998    2.36999989
   13.14694405   90.03140259    0.52999997    2.36999989
   13.15027714   95.85540009    0.51999998    2.36999989
   13.15333271   93.30490112    0.52999997    2.36999989
   13.15666676   87.37329865    0.52999997    2.36999989
   13.15999985   85.90519714    0.51999998    2.36999989
   13.16305542   84.88130188    0.51999998    2.39000010
   13.16361046  100.24500275    0.51999998    2.36999989
   13.16694450   90.68309784    0.51999998    2.36999989
   13.17000008   92.29370117    0.50000000    2.39000010
   13.17333412   90.41120148    0.50000000    2.39000010
   13.17666721   88.99099731    0.50000000    2.39000010
   13.17972279   87.22609711    0.50000000    2.39000010
   13.18305588   83.04509735    0.47999999    2.39000010
   13.18638897   98.07289886    0.47999999    2.39000010
   13.18944454   85.35179901    0.47999999    2.39000010
   13.19277763   89.75189972    0.47999999    2.39000010
   13.19583321  100.10399628    0.47999999    2.39000010
   13.19694424   91.23229980    0.47999999    2.39000010
   13.19972229  102.94799805    0.47999999    2.39000010
   13.20277786   89.74410248    0.47999999    2.39000010
   13.20611095   92.20950317    0.47999999    2.39000010
   13.20944405   92.42880249    0.47999999    2.39000010
   13.21249962   96.33239746    0.46000001    2.39000010
   13.21583271   99.03350067    0.46000001    2.39000010
   13.21916580   93.87989807    0.46000001    2.39000010
   13.22222137  102.01799774    0.46000001    2.40000010
   13.22555542   96.40370178    0.46000001    2.40000010
   13.22861099   91.48320007    0.46000001    2.40000010
   13.23027706   88.09320068    0.46000001    2.40000010
   13.23249912   95.85150146    0.46000001    2.40000010
   13.23555565   98.67259979    0.46000001    2.39000010
   13.23888874   93.52749634    0.46000001    2.40000010
   13.24222279   83.11340332    0.46000001    2.40000010
   13.24527836   93.66369629    0.46000001    2.40000010
   13.24861145   91.78050232    0.46000001    2.40000010
   13.25194454   91.93840027    0.46000001    2.42000008
   13.25500011   82.99680328    0.46000001    2.40000010
   13.25833321   87.96089935    0.46000001    2.40000010
   13.26138878   93.49359894    0.46000001    2.40000010
   13.26361084   88.24949646    0.46000001    2.40000010
   13.26527786   91.67970276    0.46000001    2.40000010
   13.26833344   93.88760376    0.46000001    2.40000010
   13.27166653   88.96479797    0.46000001    2.40000010
   13.27499962   84.34390259    0.46000001    2.40000010
   13.27805519   92.34259796    0.46000001    2.40000010
   13.28138828   86.39839935    0.46000001    2.40000010
   13.28472233   85.98359680    0.46000001    2.40000010
   13.28777790   83.41670227    0.46000001    2.42000008
   13.29111195   84.55740356    0.46000001    2.40000010
   13.29416752   87.81140137    0.46000001    2.40000010
   13.31277752   85.18650055    0.44000000    2.42000008
   13.31416702  103.20999908    0.44000000    2.42000008
   13.31722260   84.44010162    0.44000000    2.42000008
   13.32055569   79.40750122    0.44000000    2.42000008
   13.32388878   87.37010193    0.44000000    2.42000008
   13.32694435   85.07260132    0.44000000    2.42000008
   13.33027744   81.70429993    0.44000000    2.42000008
   13.33361053   86.70279694    0.44000000    2.42000008
   13.33666611   95.08840179    0.44000000    2.42000008
   13.34000015   80.57070160    0.44000000    2.44000006
   13.34305477   85.90409851    0.44000000    2.42000008
   13.34611034   80.34700012    0.44000000    2.42000008
   13.34666634   82.32180023    0.44000000    2.42000008
   13.35000038   79.72260284    0.44000000    2.44000006
   13.35333347   79.11350250    0.44000000    2.42000008
   13.35638905   80.69010162    0.44000000    2.42000008
   13.35972214   81.45690155    0.44000000    2.44000006
   13.36305618   84.37809753    0.44000000    2.44000006
   13.36611176   87.78440094    0.44000000    2.44000006
   13.36944485   84.00460052    0.44000000    2.42000008
   13.37250042   86.24819946    0.44000000    2.42000008
   13.37583351   90.73709869    0.44000000    2.42000008
   13.37916660   87.38449860    0.44000000    2.42000008
   13.37972260   94.67299652    0.44000000    2.44000006
   13.38305569   85.77760315    0.44000000    2.44000006
   13.38611126   86.65209961    0.46000001    2.44000006
   13.38944435   83.55290222    0.46000001    2.44000006
   13.39249992   88.36019897    0.44000000    2.44000006
   13.39583302   83.03089905    0.44000000    2.44000006
   13.39916611   90.33110046    0.44000000    2.44000006
   13.40222168   85.05339813    0.44000000    2.44000006
   13.40555477   85.51370239    0.44000000    2.44000006
   13.40888882   86.35749817    0.44000000    2.44000006
   13.41194439   81.36679840    0.44000000    2.44000006
   13.41305542   83.25689697    0.44000000    2.44000006
   13.41583252   86.60910034    0.44000000    2.44000006
   13.41888905   83.18520355    0.44000000    2.46000004
   13.42222214   83.98459625    0.44000000    2.44000006
   13.42555618   81.01629639    0.44000000    2.46000004
   13.42861176   80.44329834    0.44000000    2.44000006
   13.43194485   79.75330353    0.44000000    2.46000004
   13.43500042   87.46649933    0.41999999    2.46000004
   13.43833351   87.77610016    0.44000000    2.46000004
   13.44166660   90.07389832    0.44000000    2.46000004
   13.44472218   86.52020264    0.44000000    2.46000004
   13.44638920   86.15350342    0.44000000    2.46000004
   13.44861126   84.46710205    0.44000000    2.44000006
   13.45166683   80.78869629    0.44000000    2.44000006
   13.45499992   81.08740234    0.44000000    2.46000004
   13.45805550   81.71479797    0.44000000    2.46000004
   13.46138859   92.33489990    0.44000000    2.46000004
   13.46472168   87.76149750    0.44000000    2.44000006
   13.46777725   87.19670105    0.46000001    2.46000004
   13.47111034   84.75509644    0.46000001    2.46000004
   13.47444439   82.52580261    0.44000000    2.46000004
   13.47749996   95.50849915    0.44000000    2.46000004
   13.47972202   90.77230072    0.46000001    2.46000004
   13.48138809   83.83580017    0.46000001    2.46000004
   13.48444462   93.06529999    0.44000000    2.46000004
   13.48777771   88.90270233    0.44000000    2.46000004
   13.49083328   79.27929688    0.44000000    2.46000004
   13.49416733   86.25509644    0.44000000    2.46000004
   13.49750042   78.41210175    0.44000000    2.48000002
   13.50055599   83.28910065    0.44000000    2.46000004
   13.50388908   86.18060303    0.46000001    2.48000002
   13.50722218   88.42430115    0.44000000    2.48000002
   13.51027775   85.09369659    0.44000000    2.48000002
   13.51305580   90.59690094    0.44000000    2.48000002
   13.51416683   80.19899750    0.44000000    2.46000004
   13.51722240   89.68460083    0.46000001    2.46000004
   13.52055550   84.29630280    0.46000001    2.48000002
   13.52361107   88.06610107    0.46000001    2.48000002
   13.52694416   78.08470154    0.46000001    2.48000002
   13.53027725   80.60700226    0.46000001    2.48000002
   13.53333378   81.37619781    0.46000001    2.46000004
   13.53666687   79.90299988    0.46000001    2.48000002
   13.54000092   79.76110077    0.44000000    2.48000002
   13.54305553   86.37609863    0.44000000    2.46000004
   13.54638958   85.61930084    0.46000001    2.48000002
   13.54694462   83.83280182    0.46000001    2.48000002
   13.55000019   84.85659790    0.47999999    2.48000002
   13.55333328   81.26809692    0.47999999    2.48000002
   13.55638885   82.01490021    0.47999999    2.48000002
   13.55972195   77.35209656    0.47999999    2.48000002
   13.56305599   77.85790253    0.47999999    2.48000002
   13.56611156   79.60040283    0.50000000    2.48000002
   13.68555546   -1.00000000   -1.00000000   -1.00000000
   13.78472233   -1.00000000   -1.00000000   -1.00000000
   13.88444424   -1.00000000   -1.00000000   -1.00000000
   13.93277836   70.35350037    0.38000000    2.55999994
   13.93611145   77.90229797    0.40000001    2.55999994
   13.93916702   82.02330017    0.40000001    2.53999996
   13.94250011   82.61229706    0.40000001    2.55999994
   13.94583321   80.98739624    0.40000001    2.55999994
   13.94888878   87.33200073    0.40000001    2.53999996
   13.95305538   87.33200073    0.40000001    2.55999994
   13.95722198   84.52220154    0.40000001    2.55999994
   13.96055508   82.65499878    0.38000000    2.55999994
   13.96361065   81.40000153    0.38000000    2.55999994
   13.96611118   81.45369720    0.38000000    2.55999994
   13.96749973   83.03510284    0.38000000    2.55999994
   13.97055531   82.13880157    0.38000000    2.55999994
   13.97388840   80.35620117    0.38000000    2.55999994
   13.97722149   84.69229889    0.38000000    2.55999994
   13.98027706   84.24980164    0.40000001    2.55999994
   13.98361111   84.14140320    0.40000001    2.55999994
   13.98666668   80.74299622    0.40000001    2.55999994
   13.99000072   82.35009766    0.38000000    2.55999994
   13.99611092   82.35009766    0.40000001    2.55999994
   14.00000000   81.39849854    0.40000001    2.55999994
   14.00333309   86.22319794    0.40000001    2.55999994
   14.00666714   83.55059814    0.40000001    2.55999994
   14.00972176   81.50710297    0.38000000    2.55999994
   14.01305580   83.86180115    0.40000001    2.55999994
   14.01611137   87.38339996    0.40000001    2.55999994
   14.01944447   82.38639832    0.40000001    2.55999994
   14.02277756   90.94979858    0.40000001    2.55999994
   14.02583313   82.65070343    0.40000001    2.55999994
   14.02916622   84.87550354    0.40000001    2.55999994
   14.03249931   85.08969879    0.41999999    2.55999994
   14.03305531   96.42070007    0.41999999    2.55999994
   14.03888893   96.42070007    0.41999999    2.55999994
   14.04305553   85.55390167    0.41999999    2.55999994
   14.04611111   80.33439636    0.41999999    2.55999994
   14.04944515   79.77050018    0.40000001    2.55999994
   14.05249977   79.49980164    0.40000001    2.55999994
   14.05583382   80.45649719    0.38000000    2.57999992
   14.05916691   86.89270020    0.40000001    2.57999992
   14.06222248   80.16919708    0.40000001    2.57999992
   14.06555557   80.44869995    0.40000001    2.55999994
   14.06638908   79.83999634    0.40000001    2.55999994
   14.06916618   82.13079834    0.40000001    2.55999994
   14.07250023   80.52059937    0.40000001    2.55999994
   14.07555580   81.19570160    0.41999999    2.55999994
   14.08166695   81.19570160    0.41999999    2.55999994
   14.08583260   82.12069702    0.41999999    2.55999994
   14.08888817   78.75730133    0.44000000    2.57999992
   14.09222221   84.11139679    0.44000000    2.55999994
   14.09555531   90.94680023    0.44000000    2.57999992
   14.09861088   83.38790131    0.44000000    2.55999994
   14.09972191   84.58450317    0.44000000    2.55999994
   14.10222244   82.88929749    0.44000000    2.55999994
   14.10555553   81.82479858    0.44000000    2.55999994
   14.10861111   81.26309967    0.44000000    2.55999994
   14.11194515   77.22260284    0.41999999    2.55999994
   14.11527824   81.68759918    0.41999999    2.57999992
   14.11833382   83.25469971    0.40000001    2.57999992
   14.12444496   83.25469971    0.38000000    2.57999992
   14.12861156   87.62960052    0.38000000    2.57999992
   14.13194466   84.28369904    0.40000001    2.57999992
   14.13305569   82.16850281    0.40000001    2.57999992
   14.13555527   79.06819916    0.38000000    2.57999992
   14.13888836   82.03540039    0.38000000    2.57999992
   14.14194393   80.43520355    0.38000000    2.57999992
   14.14527798   82.52339935    0.38000000    2.57999992
   14.14861107   82.27410126    0.38000000    2.57999992
   14.15166664   82.34799957    0.38000000    2.59999990
   14.15499973   78.97959900    0.38000000    2.59999990
   14.15833282   81.37850189    0.38000000    2.57999992
   14.16138840   81.09839630    0.38000000    2.57999992
   14.16722298   81.09839630    0.38000000    2.57999992
   14.17138958   89.11879730    0.38000000    2.59999990
   14.17472267   82.53369904    0.38000000    2.59999990
   14.17805576   83.59600067    0.38000000    2.57999992
   14.18111134   81.12799835    0.38000000    2.59999990
   14.18444443   84.04940033    0.38000000    2.59999990
   14.18750000   86.20659637    0.38000000    2.57999992
   14.19083309   86.24050140    0.38000000    2.57999992
   14.19416714   82.97149658    0.38000000    2.57999992
   14.19722271   87.93859863    0.38000000    2.57999992
   14.19972229   88.60009766    0.40000001    2.59999990
   14.20083332   93.89070129    0.40000001    2.59999990
   14.20416641   88.74909973    0.38000000    2.57999992
   14.21027756   88.74909973    0.38000000    2.57999992
   14.21444416   84.06620026    0.40000001    2.57999992
   14.21749973   82.00389862    0.40000001    2.59999990
   14.22083282   83.28099823    0.40000001    2.59999990
   14.22388840   82.06130219    0.40000001    2.59999990
   14.22722149   82.98889923    0.38000000    2.59999990
   14.23055553   79.44750214    0.38000000    2.59999990
   14.23305511   78.49659729    0.40000001    2.59999990
   14.23416710   81.48609924    0.40000001    2.59999990
   14.23750019   88.26260376    0.40000001    2.59999990
   14.24083328   77.62979889    0.40000001    2.59999990
   14.24388885   82.68810272    0.40000001    2.59999990
   14.24722290   83.55570221    0.38000000    2.59999990
   14.25305557   83.55570221    0.38000000    2.59999990
   14.25722218   86.97180176    0.38000000    2.59999990
   14.26027775   83.63110352    0.38000000    2.59999990
   14.26361084   83.16269684    0.38000000    2.59999990
   14.26638889   79.32309723    0.38000000    2.59999990
   14.26722240   78.68759918    0.38000000    2.59999990
   14.27055550   77.19470215    0.38000000    2.59999990
   14.27388859   84.02020264    0.38000000    2.59999990
   14.27694416   79.17269897    0.38000000    2.59999990
   14.28027725   83.75659943    0.38000000    2.59999990
   14.28361130   84.10959625    0.38000000    2.59999990
   14.28666687   86.37500000    0.38000000    2.59999990
   14.29000092   84.09510040    0.38000000    2.59999990
   14.29583359   84.09510040    0.38000000    2.59999990
   14.30000019   85.07340240    0.40000001    2.59999990
   14.30333328   87.82340240    0.40000001    2.59999990
   14.30638885   79.91919708    0.38000000    2.61999989
   14.30972195   88.59320068    0.38000000    2.59999990
   14.31305599   90.26149750    0.40000001    2.59999990
   14.31611156   82.67590332    0.40000001    2.59999990
   14.31944466   81.07740021    0.40000001    2.59999990
   14.32250023   81.72859955    0.40000001    2.59999990
   14.32583332   86.33090210    0.38000000    2.59999990
   14.32916641   83.62870026    0.38000000    2.59999990
   14.33222198   80.83789825    0.38000000    2.59999990
   14.33305550   86.35540009    0.38000000    2.59999990
   14.33861065   86.35540009    0.38000000    2.59999990
   14.34277725   78.90100098    0.38000000    2.59999990
   14.34611034   80.84079742    0.38000000    2.59999990
   14.34944439   83.98470306    0.38000000    2.59999990
   14.35249996   83.30180359    0.38000000    2.59999990
   14.35583401   85.69589996    0.38000000    2.59999990
   14.35916710   81.38580322    0.38000000    2.59999990
   14.36222267   86.59120178    0.38000000    2.59999990
   14.36555576   77.78730011    0.40000001    2.59999990
   14.36638927   78.61470032    0.40000001    2.61999989
   14.36916637   76.75460052    0.40000001    2.59999990
   14.37250042   85.21800232    0.40000001    2.59999990
   14.37583351   81.38729858    0.40000001    2.59999990
   14.38166714   81.38729858    0.40000001    2.59999990
   14.38583279   81.21430206    0.40000001    2.59999990
   14.38888836   81.19210052    0.41999999    2.59999990
   14.39222240   80.19499969    0.41999999    2.61999989
   14.39527798   80.08899689    0.41999999    2.61999989
   14.39916611   80.09709930    0.41999999    2.59999990
   14.39972210   80.70770264    0.41999999    2.59999990
   14.40249920   79.39880371    0.41999999    2.59999990
   14.40583324   80.43199921    0.41999999    2.59999990
   14.40916634   78.71970367    0.40000001    2.61999989
   14.41222191   81.70249939    0.40000001    2.61999989
   14.41555500   82.08200073    0.40000001    2.61999989
   14.41888905   90.81479645    0.40000001    2.61999989
   14.42444515   90.81479645    0.41999999    2.59999990
   14.42861176   82.87449646    0.41999999    2.61999989
   14.43166733   84.01589966    0.41999999    2.61999989
   14.43305588   84.13259888    0.41999999    2.61999989
   14.43555546   80.66870117    0.41999999    2.59999990
   14.43888855   79.77449799    0.41999999    2.61999989
   14.44194412   81.28150177    0.40000001    2.61999989
   14.44527817   82.12989807    0.40000001    2.61999989
   14.44861126   83.13480377    0.40000001    2.59999990
   14.45166683   80.70580292    0.40000001    2.61999989
   14.45499992   87.57070160    0.38000000    2.61999989
   14.45833302   87.14969635    0.38000000    2.61999989
   14.46138859   87.58789825    0.38000000    2.61999989
   14.46722221   87.58789825    0.38000000    2.61999989
   14.47138882   78.63339996    0.38000000    2.61999989
   14.47472191   79.72209930    0.38000000    2.61999989
   14.47777748   87.08129883    0.38000000    2.61999989
   14.48111057   88.97699738    0.38000000    2.61999989
   14.48444462   83.40699768    0.38000000    2.61999989
   14.48750019   88.36920166    0.40000001    2.61999989
   14.49083328   82.57879639    0.40000001    2.61999989
   14.49416733   80.25669861    0.40000001    2.61999989
   14.49722290   78.11430359    0.40000001    2.61999989
   14.49972248   83.38469696    0.40000001    2.61999989
   14.50083351   93.43759918    0.40000001    2.61999989
   14.50416660   83.47360229    0.40000001    2.61999989
   14.51000023   83.47360229    0.40000001    2.64000010
   14.51416683   87.16480255    0.40000001    2.61999989
   14.51749992   80.90660095    0.40000001    2.61999989
   14.52083302   85.74569702    0.41999999    2.64000010
   14.52388859   80.70580292    0.44000000    2.61999989
   14.52722168   83.43309784    0.44000000    2.61999989
   14.53027725   80.97250366    0.44000000    2.61999989
   14.53305531   86.63179779    0.44000000    2.61999989
   14.53388977   79.86589813    0.44000000    2.61999989
   14.53722286   86.23660278    0.44000000    2.64000010
   14.54055595   79.03880310    0.44000000    2.64000010
   14.54361153   85.62539673    0.44000000    2.64000010
   14.54694462   88.13420105    0.44000000    2.61999989
   14.55305576   88.13420105    0.44000000    2.61999989
   14.55722237   85.37429810    0.44000000    2.64000010
   14.56027794   87.25730133    0.44000000    2.61999989
   14.56361103   84.69010162    0.44000000    2.61999989
   14.56638908   89.97450256    0.41999999    2.61999989
   14.56694412   90.15529633    0.41999999    2.64000010
   14.57027817   85.20279694    0.41999999    2.64000010
   14.57361126   81.36060333    0.40000001    2.64000010
   14.57666683   81.85009766    0.40000001    2.61999989
   14.57999992   79.62429810    0.40000001    2.64000010
   14.58333302   86.46559906    0.41999999    2.64000010
   14.58638859   86.61900330    0.40000001    2.64000010
   14.58972168   82.11689758    0.41999999    2.64000010
   14.59583282   82.11689758    0.40000001    2.61999989
   14.60000038   83.50389862    0.40000001    2.64000010
   14.60305595   83.40160370    0.40000001    2.64000010
   14.60638905   83.65650177    0.40000001    2.64000010
   14.60972214   76.87470245    0.40000001    2.64000010
   14.61277771   80.84909821    0.40000001    2.64000010
   14.61611176   84.52030182    0.41999999    2.64000010
   14.61944485   87.05130005    0.40000001    2.64000010
   14.62250042   86.35810089    0.41999999    2.64000010
   14.62583351   80.75479889    0.41999999    2.64000010
   14.62916660   85.44730377    0.41999999    2.64000010
   14.63222218   90.52420044    0.44000000    2.64000010
   14.63305569   86.10839844    0.46000001    2.64000010
   14.63861084   86.10839844    0.41999999    2.64000010
   14.64277744   86.88159943    0.41999999    2.61999989
   14.64611053   77.03389740    0.41999999    2.61999989
   14.64916611   84.34030151    0.41999999    2.64000010
   14.65249920   84.50099945    0.41999999    2.64000010
   14.65555477   82.01760101    0.41999999    2.64000010
   14.65888882   77.30010223    0.41999999    2.64000010
   14.66222191   81.02230072    0.41999999    2.64000010
   14.66527748   79.48000336    0.41999999    2.64000010
   14.66638851   79.57630157    0.40000001    2.64000010
   14.66916656   82.87149811    0.40000001    2.64000010
   14.67222214   78.13339996    0.40000001    2.64000010
   14.67555618   83.07489777    0.40000001    2.64000010
   14.68138885   83.07489777    0.41999999    2.64000010
   14.68555546   81.47070313    0.44000000    2.64000010
   14.68888855   88.23179626    0.44000000    2.64000010
   14.69222260   81.14350128    0.47999999    2.64000010
   14.69527817   85.72570038    0.47999999    2.64000010
   14.69861126   85.43540192    0.52999997    2.64000010
   14.69972229   81.89589691    0.52999997    2.64000010
   14.70222187   85.70359802    0.52999997    2.64000010
   14.70527744   88.40280151    0.52999997    2.64000010
   14.70861053   85.45829773    0.52999997    2.64000010
   14.71166611   83.25440216    0.52999997    2.64000010
   14.71500015   83.24810028    0.52999997    2.64000010
   14.71833324   87.32530212    0.56999999    2.64000010
   14.72444439   87.32530212    0.55000001    2.64000010
   14.72833252   83.81439972    0.55000001    2.64000010
   14.73166656   83.55100250    0.55000001    2.66000009
   14.73305511   85.11730194    0.55000001    2.66000009
   14.73555565   90.30850220    0.52999997    2.64000010
   14.73861122   84.21459961    0.50000000    2.64000010
   14.74194431   89.20390320    0.50000000    2.64000010
   14.74499989   80.24400330    0.44000000    2.64000010
   14.74833393   86.83750153    0.44000000    2.64000010
   14.75166702   85.08200073    0.44000000    2.64000010
   14.75472260   85.36869812    0.44000000    2.64000010
   14.75805569   81.91369629    0.44000000    2.64000010
   14.76138878   87.30100250    0.41999999    2.64000010
   14.76722240   87.30100250    0.40000001    2.64000010
   14.77138901   79.91269684    0.40000001    2.64000010
   14.77444458   94.35240173    0.40000001    2.64000010
   14.77777767   83.11740112    0.40000001    2.64000010
   14.78111076   88.11380005    0.40000001    2.64000010
   14.78416729   78.68170166    0.40000001    2.66000009
   14.78750038   89.62909698    0.40000001    2.66000009
   14.79055595   86.50219727    0.40000001    2.64000010
   14.79388905   84.47769928    0.40000001    2.64000010
   14.79722309   83.25229645    0.40000001    2.64000010
   14.79972267   86.03070068    0.40000001    2.64000010
   14.80083370   81.65090179    0.40000001    2.64000010
   14.80388927   89.21769714    0.40000001    2.64000010
   14.81000042   89.21769714    0.40000001    2.66000009
   14.81416702   82.23020172    0.40000001    2.64000010
   14.81750011   80.13339996    0.41999999    2.64000010
   14.82055569   86.60279846    0.41999999    2.64000010
   14.82388878   83.29930115    0.41999999    2.64000010
   14.82694435   86.09609985    0.41999999    2.64000010
   14.83027744   79.86589813    0.41999999    2.64000010
   14.83305550   84.70729828    0.41999999    2.66000009
   14.83416653   78.47180176    0.41999999    2.64000010
   14.83722210   78.18560028    0.41999999    2.64000010
   14.84055519   80.43319702    0.41999999    2.66000009
   14.84388828   80.09269714    0.40000001    2.66000009
   14.84694386   83.61309814    0.40000001    2.66000009
   14.85277843   83.61309814    0.41999999    2.64000010
   14.85694504   77.25509644    0.41999999    2.64000010
   14.86027813   86.35549927    0.41999999    2.66000009
   14.86361122   85.22109985    0.44000000    2.66000009
   14.86638927   94.59549713    0.44000000    2.66000009
   14.86722279   87.30100250    0.44000000    2.64000010
   14.87027836   85.93250275    0.44000000    2.66000009
   14.87361145   80.57389832    0.47999999    2.64000010
   14.87666702   87.09040070    0.52999997    2.64000010
   14.88000011   84.22589874    0.61000001    2.66000009
   14.88333321   87.57610321    0.55000001    2.64000010
   14.88666630   87.21859741    0.47999999    2.66000009
   14.89000034   83.47309875    0.47999999    2.66000009
   14.89583302   83.47309875    0.52999997    2.66000009
   14.89972210   81.33470154    0.55000001    2.66000009
   14.90305519   85.40149689    0.55000001    2.64000010
   14.90638828   88.47219849    0.56999999    2.64000010
   14.90944386   78.78649902    0.58999997    2.66000009
   14.91277695   81.60220337    0.61000001    2.66000009
   14.91611099   77.71050262    0.47999999    2.66000009
   14.91916656   82.60700226    0.46000001    2.66000009
   14.92250061   88.11699677    0.47999999    2.66000009
   14.92583370   86.28420258    0.44000000    2.66000009
   14.92888927   83.41269684    0.44000000    2.66000009
   14.93222237   81.42569733    0.44000000    2.66000009
   14.93305588   84.72059631    0.44000000    2.64000010
   14.95388889   84.72059631    0.44000000    2.66000009
   14.95777798   87.63269806    0.46000001    2.66000009
   14.96111107   81.87270355    0.46000001    2.66000009
   14.96444416   85.88220215    0.46000001    2.66000009
   14.96638870   88.94219971    0.47999999    2.66000009
   14.96805477   90.74179840    0.47999999    2.66000009
   14.97111034   82.75749969    0.47999999    2.66000009
   14.97444439   82.31150055    0.44000000    2.66000009
   14.97777748   84.88670349    0.44000000    2.66000009
   14.98083305   82.40039825    0.41999999    2.66000009
   14.98416710   80.17430115    0.41999999    2.67000008
   14.98722267   83.62239838    0.41999999    2.66000009
   14.99055576   85.10379791    0.40000001    2.66000009
   14.99638939   85.10379791    0.40000001    2.66000009
   15.00055599   84.46040344    0.40000001    2.66000009
   15.00388908   78.88800049    0.41999999    2.66000009
   15.00722218   85.59429932    0.40000001    2.66000009
   15.01027775   82.56580353    0.40000001    2.66000009
   15.01361084   82.10700226    0.40000001    2.67000008
   15.01666641   80.27069855    0.40000001    2.66000009
   15.01999950   77.18609619    0.40000001    2.66000009
   15.02333355   81.17459869    0.40000001    2.66000009
   15.02638817   82.82479858    0.40000001    2.66000009
   15.02972221   90.41390228    0.40000001    2.67000008
   15.03305531   83.91519928    0.40000001    2.67000008
   15.03333378   84.89869690    0.41999999    2.67000008
   15.03944492   84.89869690    0.41999999    2.66000009
   15.04361153   79.17440033    0.40000001    2.66000009
   15.04666710   80.94719696    0.40000001    2.67000008
   15.05000019   79.89240265    0.40000001    2.66000009
   15.05333328   81.90799713    0.41999999    2.66000009
   15.05638885   83.29930115    0.41999999    2.66000009
   15.05972195   82.14569855    0.41999999    2.67000008
   15.06277752   85.19129944    0.41999999    2.67000008
   15.06611156   83.79149628    0.41999999    2.66000009
   15.06694412   79.28119659    0.41999999    2.66000009
   15.06972218   85.75229645    0.41999999    2.66000009
   15.07305527   86.14890289    0.41999999    2.66000009
   15.07611084   83.55069733    0.41999999    2.67000008
   15.08222198   83.55069733    0.41999999    2.67000008
   15.08638859   79.73200226    0.40000001    2.66000009
   15.08944416   89.88890076    0.40000001    2.66000009
   15.09277725   83.83779907    0.40000001    2.66000009
   15.09611034   85.53469849    0.41999999    2.67000008
   15.09916592   81.83280182    0.40000001    2.67000008
   15.10027790   90.61129761    0.40000001    2.67000008
   15.10277843   86.06829834    0.40000001    2.67000008
   15.10611153   79.50209808    0.40000001    2.66000009
   15.10916710   80.47579956    0.40000001    2.67000008
   15.11250019   81.03749847    0.40000001    2.66000009
   15.11583328   77.50430298    0.40000001    2.67000008
   15.11888885   86.82679749    0.40000001    2.67000008
   15.12500000   86.82679749    0.40000001    2.67000008
   15.12916660   87.90170288    0.41999999    2.67000008
   15.13249969   82.84960175    0.40000001    2.67000008
   15.13361073   81.15959930    0.40000001    2.67000008
   15.13611126   91.07920074    0.40000001    2.67000008
   15.13944435   84.12969971    0.40000001    2.67000008
   15.14249992   85.91459656    0.40000001    2.67000008
   15.14583302   96.58239746    0.40000001    2.67000008
   15.14916611   77.42539978    0.40000001    2.67000008
   15.15222168   89.06649780    0.38000000    2.67000008
   15.15555477   94.35729980    0.38000000    2.67000008
   15.15888882   84.82350159    0.40000001    2.67000008
   15.16194439   90.86100006    0.40000001    2.67000008
   15.16777802   90.86100006    0.41999999    2.67000008
   15.17194462   92.86550140    0.40000001    2.67000008
   15.17527771   93.25930023    0.40000001    2.67000008
   15.17861176   83.92819977    0.40000001    2.67000008
   15.18166733   91.02709961    0.40000001    2.67000008
   15.18500042   93.27680206    0.38000000    2.67000008
   15.18805599   83.22969818    0.38000000    2.67000008
   15.19138908   81.75830078    0.38000000    2.67000008
   15.19472218   84.10359955    0.38000000    2.67000008
   15.19777775   84.52469635    0.40000001    2.67000008
   15.20027733   84.58380127    0.41999999    2.67000008
   15.20138836   87.43470001    0.41999999    2.67000008
   15.20472240   85.04789734    0.44000000    2.69000006
   15.21083355   85.04789734    0.41999999    2.66000009
   15.21500015   90.39610291    0.41999999    2.67000008
   15.21805477   89.07389832    0.41999999    2.67000008
   15.22138882   84.92680359    0.41999999    2.67000008
   15.22444439   92.92040253    0.41999999    2.67000008
   15.22777748   87.96410370    0.40000001    2.67000008
   15.23111057   86.77940369    0.40000001    2.67000008
   15.23361111   96.38829803    0.38000000    2.67000008
   15.23472214   89.54479980    0.38000000    2.67000008
   15.23805618   85.69339752    0.38000000    2.67000008
   15.24138927   82.19999695    0.38000000    2.67000008
   15.24444485   85.19930267    0.38000000    2.67000008
   15.24777794   85.81780243    0.38000000    2.67000008
   15.25361156   85.81780243    0.40000001    2.67000008
   15.25777817   88.87460327    0.40000001    2.67000008
   15.26083374   84.76920319    0.40000001    2.67000008
   15.26444435   89.75569916    0.41999999    2.67000008
   15.26694393   84.59799957    0.41999999    2.67000008
   15.26805496   91.87920380    0.41999999    2.67000008
   15.27138901   87.89510345    0.41999999    2.67000008
   15.27472210   82.71369934    0.41999999    2.67000008
   15.27777767   91.11609650    0.41999999    2.67000008
   15.28111076   82.63749695    0.41999999    2.66000009
   15.28416729   87.86730194    0.41999999    2.67000008
   15.28750038   79.02380371    0.40000001    2.67000008
   15.29083347   74.66580200    0.40000001    2.67000008
   15.29638958   74.66580200    0.41999999    2.67000008
   15.30055618   85.13829803    0.41999999    2.67000008
   15.30388927   86.15959930    0.41999999    2.67000008
   15.30694485   86.56600189    0.41999999    2.67000008
   15.31027794   81.05829620    0.41999999    2.67000008
   15.31361103   85.00199890    0.41999999    2.67000008
   15.31666660   78.90170288    0.40000001    2.67000008
   15.31999969   83.47750092    0.41999999    2.67000008
   15.32305527   78.51180267    0.41999999    2.67000008
   15.32638836   80.37090302    0.41999999    2.67000008
   15.32972240   86.93350220    0.41999999    2.67000008
   15.33277798   85.39839935    0.41999999    2.67000008
   15.33361053   81.35590363    0.41999999    2.67000008
   15.33916664   81.35590363    0.40000001    2.69000006
   15.34333324   86.76439667    0.40000001    2.67000008
   15.34666634   92.66500092    0.40000001    2.67000008
   15.35000038   91.85710144    0.40000001    2.67000008
   15.35333347   93.43039703    0.38000000    2.67000008
   15.35638905   92.31939697    0.40000001    2.67000008
   15.35972214   89.28359985    0.40000001    2.67000008
   15.36305618   86.10220337    0.40000001    2.67000008
   15.36611176   78.76740265    0.40000001    2.67000008
   15.36694431   89.17639923    0.40000001    2.67000008
   15.36999989   89.64080048    0.40000001    2.69000006
   15.37305546   92.12760162    0.40000001    2.67000008
   15.37638855   91.42910004    0.40000001    2.67000008
   15.38222218   91.42910004    0.40000001    2.67000008
   15.38638878   85.35669708    0.38000000    2.67000008
   15.38944435   90.59600067    0.38000000    2.67000008
   15.39277744   90.86219788    0.40000001    2.69000006
   15.39583302   88.07700348    0.40000001    2.67000008
   15.39916611   85.01629639    0.40000001    2.67000008
   15.40027714   91.95130157    0.40000001    2.67000008
   15.40277767   85.16850281    0.40000001    2.67000008
   15.40611076   90.10040283    0.40000001    2.67000008
   15.40944386   86.72589874    0.40000001    2.67000008
   15.41249943   95.05970001    0.38000000    2.67000008
   15.41583252   89.32550049    0.40000001    2.69000006
   15.41916656   90.99250031    0.38000000    2.67000008
   15.42500019   90.99250031    0.38000000    2.67000008
   15.42916679   97.04129791    0.40000001    2.67000008
   15.43222237   93.47630310    0.40000001    2.67000008
   15.43361092   85.62339783    0.40000001    2.67000008
   15.43583298   96.33319855    0.40000001    2.67000008
   15.43916702   88.64700317    0.40000001    2.67000008
   15.44250011   88.93659973    0.40000001    2.69000006
   15.44555569   85.67530060    0.41999999    2.69000006
   15.44888878   86.22480011    0.41999999    2.67000008
   15.45222187   87.96489716    0.44000000    2.67000008
   15.45555496   82.96080017    0.44000000    2.67000008
   15.45888901   80.83509827    0.44000000    2.67000008
   15.46194458   78.33820343    0.44000000    2.69000006
   15.46777725   78.33820343    0.44000000    2.69000006
   15.47194386   85.68689728    0.44000000    2.67000008
   15.47527695   82.94879913    0.44000000    2.69000006
   15.47833252   86.06289673    0.44000000    2.69000006
   15.48166656   92.36920166    0.44000000    2.67000008
   15.48500061   71.22250366    0.44000000    2.67000008
   15.48805618   77.61810303    0.44000000    2.69000006
   15.49138927   89.53649902    0.46000001    2.67000008
   15.49444485   83.95300293    0.47999999    2.67000008
   15.49777794   79.96109772    0.52999997    2.69000006
   15.50027752   91.96600342    0.52999997    2.67000008
   15.50138855   85.80030060    0.52999997    2.67000008
   15.50472260   81.72779846    0.55000001    2.69000006
   15.51055527   81.72779846    0.52999997    2.67000008
   15.51472187   82.21389771    0.55000001    2.69000006
   15.51805496   82.01750183    0.55000001    2.69000006
   15.52138901   81.28749847    2.93000007    2.69000006
   15.52444458   93.16819763    0.73000002    2.67000008
   15.52777767   86.83419800    0.86000001    2.67000008
   15.53083324   97.27850342    4.90999985    2.57999992
   15.53361130   91.18250275    4.90999985    2.67000008
   15.53444481   90.08910370    4.90999985    2.67000008
   15.53777790   92.74849701    2.34999990    2.67000008
   15.54111195   90.93939972    2.23000002    2.67000008
   15.54416752   87.88040161    1.39999998    2.66000009
   15.54750061  149.16900635    4.90999985    2.71000004
   15.55361176  149.16900635    4.90999985    1.64999998
   15.55777836   -1.00000000    4.90999985    1.55999994
   15.56083393   -1.00000000    4.90999985    1.30999994
   15.56416702   -1.00000000    4.90999985    1.69000006
   15.56777763   -1.00000000    4.90999985    1.50000000
   15.57111073  173.30099487    4.90999985    1.91999996
   15.57416630  245.10499573    4.90999985    2.07999992
   15.57750034  172.09599304    4.90999985    2.11999989
   15.58083344   -1.00000000    4.90999985    1.98000002
   15.58388901   -1.00000000    4.90999985    1.58000004
   15.58722210  147.13000488    4.90999985    1.51999998
   15.59027767  236.45599365    4.90999985    1.83000004
   15.59638882  236.45599365    4.90999985    1.85000002
   15.60055637  277.25100708    4.90999985    2.05999994
   15.60361195   -1.00000000    4.90999985    1.86000001
   15.60694504   99.52400208    4.90999985    1.94000006
   15.61027813   -1.00000000    4.90999985    1.98000002
   15.61333370   -1.00000000    4.90999985    1.58000004
   15.61666679   -1.00000000    4.90999985    1.80999994
   15.61999989   -1.00000000    4.90999985    1.66999996
   15.62305546   -1.00000000    4.90999985    1.50000000
   15.62638855   -1.00000000    4.90999985    1.63000000
   15.62944412  145.05099487    4.90999985    1.71000004
   15.63277817   -1.00000000    4.90999985    2.32999992
   15.63916683   -1.00000000    4.90999985    1.63000000
   15.64333344   -1.00000000    4.90999985    1.85000002
   15.64666653   -1.00000000    4.90999985    1.51999998
   15.64972210   -1.00000000    4.90999985    1.39999998
   15.65305519   48.66669846    4.90999985    2.01999998
   15.65638828   -1.00000000    4.90999985    1.64999998
   15.65944386   -1.00000000    4.90999985    1.44000006
   15.66277695   -1.00000000    4.90999985    1.16999996
   15.66583252   -1.00000000    4.90999985    0.75000000
   15.66944504   -1.00000000    4.90999985    0.83999997
   15.67277813   -1.00000000    4.90999985    0.79000002
   15.67583370   -1.00000000    4.90999985    0.86000001
   15.68611145   -1.00000000    4.90999985    0.70999998
   15.68944454   -1.00000000    4.90999985    0.51999998
   15.69250011   -1.00000000    4.90999985    0.63000000
   15.69583321   -1.00000000    4.90999985    0.44000000
   15.69888878   -1.00000000    4.90999985    0.64999998
   15.70249939   -1.00000000    4.90999985    0.81999999
   15.70583344   -1.00000000    4.90999985    1.39999998
   15.70888901   -1.00000000    4.90999985    1.44000006
   15.71222210   -1.00000000    4.90999985    1.01999998
   15.71555519   -1.00000000    4.90999985    0.76999998
   15.71861076   -1.00000000    4.90999985    1.11000001
   15.72888851   -1.00000000    4.90999985    0.92000002
   15.73222160   -1.00000000    4.90999985    1.09000003
   15.73555565   -1.00000000    4.90999985    1.14999998
   15.73888874   -1.00000000    4.90999985    0.86000001
   15.74194431   -1.00000000    4.90999985    0.69000000
   15.74527836   -1.00000000    4.90999985    0.81999999
   15.74861145   -1.00000000    4.90999985    1.39999998
   15.75166702   -1.00000000    4.90999985    1.23000002
   15.75500011   -1.00000000    4.90999985    0.92000002
   15.75833321   -1.00000000    4.90999985    0.98000002
   15.76138878   -1.00000000    4.90999985    0.79000002
   15.77166653   -1.00000000    4.90999985    1.36000001
   15.77499962   -1.00000000    4.90999985    1.51999998
   15.77833271   -1.00000000    4.90999985    1.76999998
   15.78138828   57.33409882    4.90999985    1.86000001
   15.78472233   87.04219818    4.90999985    2.05999994
   15.78805637   -1.00000000    4.90999985    1.64999998
   15.79111195  159.67999268    4.90999985    2.03999996
   15.79444504  107.88700104    4.90999985    2.39000010
   15.79750061   89.16040039    4.90999985    2.40000010
   15.80027771   91.62729645    4.90999985    2.69000006
   15.80138874  103.56300354    4.90999985    2.75000000
   15.80444431   23.47730064    4.90999985    2.53999996
   15.81055546   23.47730064    4.90999985    2.40000010
   15.81472206   -1.00000000    4.90999985    2.51999998
   15.81805515   -1.00000000    4.90999985    1.05999994
   15.82111073  123.54399872    4.90999985    1.53999996
   15.82444477   85.92250061    4.90999985    2.80999994
   15.82750034  157.42399597    4.90999985    2.86999989
   15.83083344   94.52860260    4.90999985    2.09999990
   15.83361053   91.83830261    4.90999985    2.80999994
   15.83472157   96.65429688    4.90999985    2.78999996
   15.83777714  106.26899719    4.90999985    2.40000010
   15.84111118   85.54509735    4.90999985    2.53999996
   15.84416676   90.04460144    4.90999985    2.75000000
   15.84749985   96.13020325    4.90999985    2.76999998
   15.85333347   96.13020325    4.90999985    2.11999989
   15.85750008   95.87570190    4.90999985    2.48000002
   15.86083412   99.11009979    4.90999985    2.75000000
   15.86388969  101.32199860    4.90999985    2.76999998
   15.86694431  124.45800018    4.90999985    2.67000008
   15.86777782  158.85400391    4.90999985    2.67000008
