    HOUR (UT)   FLARE FACTOR    SKY TESTER    SUN TESTER
   11.10777855   -1.00000000   -1.00000000   -1.00000000
   11.14444447   81.62899780    4.90999985    2.46000004
   11.14944458   83.20310211    4.90999985    2.46000004
   11.15305519   90.67690277    4.90999985    2.46000004
   11.15638828   82.21839905    4.90999985    2.46000004
   11.15972137   83.80180359    4.90999985    2.46000004
   11.16277695   82.07929993    4.90999985    2.46000004
   11.16611099   81.63300323    4.90999985    2.46000004
   11.16944504   81.59100342    4.90999985    2.46000004
   11.17250061   82.44280243    4.90999985    2.46000004
   11.17583370   87.02890015    4.90999985    2.46000004
   11.17777824   80.46160126    4.90999985    2.46000004
   11.17944431   81.79669952    4.90999985    2.46000004
   11.18249989   87.06849670    4.90999985    2.46000004
   11.18583298   82.80490112    4.90999985    2.46000004
   11.18916702   82.50869751    4.90999985    2.46000004
   11.19222260   83.14579773    4.90999985    2.46000004
   11.19555569   83.93830109    4.90999985    2.46000004
   11.19916630   85.63839722    4.90999985    2.48000002
   11.20222187   82.85060120    4.90999985    2.48000002
   11.20555496   83.34880066    4.90999985    2.46000004
   11.20861053   87.83760071    4.90999985    2.48000002
   11.21111107   89.15869904    4.90999985    2.48000002
   11.21249962   85.11550140    4.90999985    2.46000004
   11.21555519   87.94809723    4.90999985    2.46000004
   11.21888828   92.70639801    4.90999985    2.48000002
   11.22222137   86.00890350    4.90999985    2.48000002
   11.22527695   89.93409729    4.90999985    2.48000002
   11.22861099   93.45030212    4.90999985    2.48000002
   11.23194408   92.68730164    4.90999985    2.48000002
   11.23500061   94.70790100    4.90999985    2.50000000
   11.23944473   84.50350189    4.90999985    2.48000002
   11.24250031   93.62120056    4.90999985    2.48000002
   11.24444485   82.09020233    4.90999985    2.48000002
   11.24611092   85.86309814    4.90999985    2.48000002
   11.24916649   81.84660339    4.90999985    2.50000000
   11.25249958   81.87609863    4.90999985    2.48000002
   11.25583363   85.45130157    4.90999985    2.50000000
   11.25888920   83.15399933    4.90999985    2.50000000
   11.26222229   94.26360321    4.90999985    2.50000000
   11.26555538   90.11679840    4.90999985    2.50000000
   11.26861095   86.41780090    4.90999985    2.50000000
   11.27194405   88.51789856    4.90999985    2.48000002
   11.27499962   87.81120300    4.90999985    2.50000000
   11.27777767   85.32969666    4.90999985    2.50000000
   11.27888870   95.25589752    4.90999985    2.50000000
   11.28222179   86.83489990    4.90999985    2.50000000
   11.28527832   89.81340027    4.90999985    2.50000000
   11.28861141   90.50099945    4.90999985    2.50000000
   11.29166698   87.11569977    4.90999985    2.51999998
   11.29500008   90.39520264    4.90999985    2.50000000
   11.29833412   87.90119934    4.90999985    2.50000000
   11.30138874   85.65760040    4.90999985    2.51999998
   11.30472279   86.48020172    4.90999985    2.51999998
   11.30805588   86.31639862    4.90999985    2.51999998
   11.31111145   86.94629669    4.90999985    2.51999998
   11.31166649   94.29740143    4.90999985    2.51999998
   11.31500053   85.60610199    4.90999985    2.50000000
   11.31805515   83.39340210    4.90999985    2.51999998
   11.32138920   86.60579681    4.90999985    2.51999998
   11.32444477   88.07060242    4.90999985    2.51999998
   11.32777786   85.20739746    4.90999985    2.51999998
   11.33111095   92.59770203    4.90999985    2.51999998
   11.33416653   92.83580017    4.90999985    2.51999998
   11.33749962   86.92690277    4.90999985    2.51999998
   11.34083271   90.44049835    4.90999985    2.51999998
   11.34388828   90.87259674    4.90999985    2.51999998
   11.34444427   82.66139984    4.90999985    2.51999998
   11.34749985   88.05249786    4.90999985    2.51999998
   11.35083389   94.01889801    4.90999985    2.51999998
   11.35388947   85.22160339    4.90999985    2.51999998
   11.35722256   84.55480194    4.90999985    2.51999998
   11.36027813   87.05280304    4.90999985    2.51999998
   11.36361122   87.11740112    4.90999985    2.51999998
   11.36694431   80.16449738    4.90999985    2.53999996
   11.36999989   89.72669983    4.90999985    2.53999996
   11.37333393   94.16840363    4.90999985    2.51999998
   11.37666702   82.60459900    4.90999985    2.53999996
   11.37777805   91.25119781    4.90999985    2.51999998
   11.38027763   90.73960114    4.90999985    2.53999996
   11.38361073   83.27320099    4.90999985    2.53999996
   11.38666630   86.87519836    4.90999985    2.53999996
   11.39000034   86.62100220    4.90999985    2.53999996
   11.39305496   90.22350311    4.90999985    2.53999996
   11.39638901   84.84670258    4.90999985    2.51999998
   11.39972210   89.98960114    4.90999985    2.53999996
   11.40277767   86.81330109    4.90999985    2.53999996
   11.40611076   95.92680359    4.90999985    2.53999996
   11.40944386   88.50099945    4.90999985    2.53999996
   11.41166592   98.13459778    4.90999985    2.53999996
   11.41333294   92.81120300    4.90999985    2.53999996
   11.41666698   96.56539917    4.90999985    2.53999996
   11.41972256   95.39160156    4.90999985    2.53999996
   11.42305565  109.01999664    4.90999985    2.53999996
   11.42638874   96.64910126    4.90999985    2.53999996
   11.42944431   92.97820282    4.90999985    2.53999996
   11.43277836   90.59539795    4.90999985    2.55999994
   11.43611145  101.40000153    4.90999985    2.53999996
   11.43916702   96.63480377    4.90999985    2.55999994
   11.44250011   88.33489990    4.90999985    2.55999994
   11.44444466   92.72949982    4.90999985    2.55999994
   11.44611073   96.81909943    4.90999985    2.55999994
   11.44944477   94.88549805    4.90999985    2.53999996
   11.45249939   96.71219635    4.90999985    2.53999996
   11.45583344  109.28700256    4.90999985    2.55999994
   11.45916653   95.41380310    4.90999985    2.55999994
   11.46222210  107.09600067    4.90999985    2.55999994
   11.46555519   99.13140106    4.90999985    2.57999992
   11.46861076  100.56400299    4.90999985    2.55999994
   11.47194386  103.95999908    4.90999985    2.53999996
   11.47527695  109.45600128    4.90999985    2.55999994
   11.47777748   94.77069855    4.90999985    2.55999994
   11.47888851  107.73799896    4.90999985    2.55999994
   11.48222160  101.03600311    4.90999985    2.53999996
   11.48527813  108.54499817    4.90999985    2.55999994
   11.48861122  107.94799805    4.90999985    2.55999994
   11.49194431  103.63800049    4.90999985    2.55999994
   11.49499989  109.24600220    4.90999985    2.57999992
   11.49833393  112.26100159    4.90999985    2.55999994
   11.50138855  115.26499939    4.90999985    2.55999994
   11.50472260  113.43900299    4.90999985    2.55999994
   11.50805569  100.60900116    4.90999985    2.57999992
   11.51111126   91.36779785    4.90999985    2.55999994
   11.51166630  107.95600128    4.90999985    2.55999994
   11.51500034  100.72899628    4.90999985    2.57999992
   11.51805496  106.29599762    4.90999985    2.57999992
   11.52138901  100.89499664    4.90999985    2.55999994
   11.52444458  101.13899994    4.90999985    2.57999992
   11.52777767  101.70300293    4.90999985    2.57999992
   11.53111076  110.17700195    4.90999985    2.57999992
   11.53416729   92.31539917    4.90999985    2.57999992
   11.53750038  102.57199860    4.90999985    2.57999992
   11.54083347   91.88559723    4.90999985    2.57999992
   11.54388905   98.82330322    4.90999985    2.57999992
   11.54444504   98.54640198    4.90999985    2.55999994
   11.54750061  115.06999969    4.90999985    2.57999992
   11.55083370   94.77169800    4.90999985    2.59999990
   11.55388927  101.94400024    4.90999985    2.55999994
   11.55722237  107.96099854    4.90999985    2.57999992
   11.56055546  106.65200043    4.90999985    2.57999992
   11.56361103   98.11640167    4.90999985    2.57999992
   11.56694412   98.64109802    4.90999985    2.57999992
   11.56999969   98.71450043    4.90999985    2.57999992
   11.57333374  102.61000061    4.90999985    2.57999992
   11.57666683   93.61630249    4.90999985    2.57999992
   11.57777786  101.20800018    4.90999985    2.57999992
   11.58027744   92.61990356    4.90999985    2.57999992
   11.58361053  111.23000336    4.90999985    2.59999990
   11.58666611   97.22889709    4.90999985    2.59999990
   11.59000015  100.21199799    4.90999985    2.57999992
   11.59333324  106.97699738    4.90999985    2.59999990
   11.59638882  113.39600372    4.90999985    2.59999990
   11.59972191   99.26000214    4.90999985    2.59999990
   11.60277843   98.27259827    4.90999985    2.59999990
   11.60611153   99.83450317    4.90999985    2.57999992
   11.60944462  104.65000153    4.90999985    2.59999990
   11.61111164  102.33100128    4.90999985    2.59999990
   11.61305618  106.94899750    4.90999985    2.59999990
   11.61638927   96.39219666    4.90999985    2.59999990
   11.61944485   99.56939697    4.90999985    2.59999990
   11.62277794  100.98200226    4.90999985    2.59999990
   11.62611103   94.76170349    4.90999985    2.59999990
   11.62916660   92.89369965    4.90999985    2.59999990
   11.63249969  104.80899811    4.90999985    2.59999990
   11.63583279  102.60800171    4.90999985    2.61999989
   11.63888836   99.40450287    4.90999985    2.59999990
   11.64222240   91.65619659    4.90999985    2.59999990
   11.64444447   95.06150055    4.90999985    2.59999990
   11.64583302  101.98000336    4.90999985    2.59999990
   11.64916611   86.19429779    4.90999985    2.59999990
   11.65222168   95.55789948    4.90999985    2.61999989
   11.65555477   94.73680115    4.90999985    2.59999990
   11.65888882   99.89199829    4.90999985    2.61999989
   11.66194439  106.29900360    4.90999985    2.59999990
   11.66527748   93.84329987    4.90999985    2.59999990
   11.66833401   98.61409760    4.90999985    2.61999989
   11.67166710  100.28500366    4.90999985    2.57999992
   11.67500019   98.12129974    4.90999985    2.61999989
   11.67777824  102.75800323    4.90999985    2.59999990
   11.67861176   89.93489838    4.90999985    2.61999989
   11.68194485  108.06099701    4.90999985    2.59999990
   11.68500042  102.38999939    4.90999985    2.61999989
   11.68833351   89.57039642    4.90999985    2.59999990
   11.69166660   90.60250092    4.90999985    2.59999990
   11.69472218  110.88200378    4.90999985    2.64000010
   11.69805527   99.47299957    4.90999985    2.61999989
   11.70111084  108.37400055    4.90999985    2.61999989
   11.70444393  108.94599915    4.90999985    2.61999989
   11.70777798  105.98799896    4.90999985    2.61999989
   11.71083355  104.01699829    4.90999985    2.61999989
   11.71138859  109.52400208    4.90999985    2.61999989
   11.71472168  101.66999817    4.90999985    2.61999989
   11.71805477  102.98400116    4.90999985    2.61999989
   11.72111034  102.32800293    4.90999985    2.64000010
   11.72444439   95.93990326    4.90999985    2.61999989
   11.72749996   99.99179840    4.90999985    2.64000010
   11.73083305  107.06400299    4.90999985    2.64000010
   11.73416710  106.30599976    4.90999985    2.64000010
   11.73722267  108.69200134    4.90999985    2.64000010
   11.74055576   99.82859802    4.90999985    2.61999989
   11.74388885   91.82579803    4.90999985    2.64000010
   11.74472237   99.42590332    4.90999985    2.61999989
   11.74750042  101.76799774    4.90999985    2.61999989
   11.75083351  110.20200348    4.90999985    2.61999989
   11.75388908   99.31809998    4.90999985    2.64000010
   11.75722218  108.57099915    4.90999985    2.64000010
   11.76027775  100.85500336    4.90999985    2.64000010
   11.76361084   95.55609894    4.90999985    2.64000010
   11.76694393  102.03199768    4.90999985    2.64000010
   11.76999950  106.31099701    4.90999985    2.64000010
   11.77333355  100.74199677    4.90999985    2.61999989
   11.77666664  101.16600037    4.90999985    2.64000010
   11.77805519  112.58699799    4.90999985    2.64000010
   11.78027725   99.05470276    4.90999985    2.64000010
   11.78361130  100.06800079    4.90999985    2.64000010
   11.78666687  109.86399841    4.90999985    2.61999989
   11.79000092  100.33499908    4.90999985    2.64000010
   11.79305553  110.38999939    4.90999985    2.64000010
   11.79638958  100.56700134    4.90999985    2.61999989
   11.79972267   98.94689941    4.90999985    2.64000010
   11.80277824   99.32599640    4.90999985    2.66000009
   11.80611134  101.10800171    4.90999985    2.64000010
   11.80944443   96.34130096    4.90999985    2.64000010
   11.81138897   96.61799622    4.90999985    2.64000010
   11.81305599  104.76200104    4.90999985    2.64000010
   11.81638908  102.98699951    4.90999985    2.64000010
   11.81944466   90.13289642    4.90999985    2.64000010
   11.82277775   98.90879822    4.90999985    2.64000010
   11.82583332  107.46800232    4.90999985    2.64000010
   11.82916641  112.07599640    4.90999985    2.64000010
   11.83249950  104.71199799    4.90999985    2.66000009
   11.83555508  103.04599762    4.90999985    2.64000010
   11.83888817   98.88020325    4.90999985    2.66000009
   11.84222221   96.37329865    4.90999985    2.66000009
   11.84472179  113.19300079    4.90999985    2.64000010
   11.84583282   97.64179993    4.90999985    2.66000009
   11.84916592  109.68499756    4.90999985    2.67000008
   11.85222244  103.99600220    4.90999985    2.66000009
   11.85555553  100.48100281    4.90999985    2.64000010
   11.85861111  103.77300262    4.90999985    2.66000009
   11.86194515  105.68800354    4.90999985    2.66000009
   11.86527824   99.30599976    4.90999985    2.64000010
   11.86833382   99.05870056    4.90999985    2.66000009
   11.87166691  109.01599884    4.90999985    2.64000010
   11.87500000  105.02799988    4.90999985    2.66000009
   11.87805557   92.50930023    4.90999985    2.66000009
   11.87861156   99.49980164    4.90999985    2.66000009
   11.88194466   95.76869965    4.90999985    2.66000009
   11.88500023  106.38300323    4.90999985    2.66000009
   11.88833332  104.31199646    4.90999985    2.66000009
   11.89138889  102.19899750    4.90999985    2.66000009
   11.89472198   97.93190002    4.90999985    2.66000009
   11.89805508  110.42600250    4.90999985    2.66000009
   11.90111065  102.63899994    4.90999985    2.66000009
   11.90444374  116.06999969    4.90999985    2.66000009
   11.90777779  108.33699799    4.90999985    2.66000009
   11.91083336  114.29000092    4.90999985    2.66000009
   11.91138840  100.21900177    4.90999985    2.66000009
   11.91444397   98.72280121    4.90999985    2.66000009
   11.91777802  101.74299622    4.90999985    2.66000009
   11.92083359  106.16200256    4.90999985    2.67000008
   11.92416668  106.42500305    4.90999985    2.66000009
   11.92750072  103.80899811    4.90999985    2.66000009
   11.93055630   95.69619751    4.90999985    2.67000008
   11.93388939  106.84799957    4.90999985    2.66000009
   11.93694496  105.88600159    4.90999985    2.69000006
   11.94027805  105.60099792    4.90999985    2.67000008
   11.94361115  104.98500061    4.90999985    2.67000008
   11.94472218   99.11920166    4.90999985    2.67000008
   11.94722271  104.75700378    4.90999985    2.67000008
   11.95055580   90.78900146    4.90999985    2.66000009
   11.95361137   94.59110260    4.90999985    2.67000008
   11.95694447  101.96399689    4.90999985    2.67000008
   11.96027756   98.58170319    4.90999985    2.67000008
   11.96333313  105.27500153    4.90999985    2.67000008
   11.96666622   99.81089783    4.90999985    2.67000008
   11.96999931   97.53820038    4.90999985    2.67000008
   11.97305489  101.91999817    4.90999985    2.67000008
   11.97638798  111.83200073    4.90999985    2.67000008
   11.97805500  113.47699738    4.90999985    2.67000008
   11.97999954  108.20500183    4.90999985    2.67000008
   11.98333359  108.83300018    4.90999985    2.66000009
   11.98638916   96.86750031    4.90999985    2.67000008
   11.98972225   90.19989777    4.90999985    2.67000008
   11.99305534   97.23419952    4.90999985    2.67000008
   11.99611092  106.26100159    4.90999985    2.67000008
   11.99944496  105.18399811    4.90999985    2.67000008
   12.00249958  106.26000214    4.90999985    2.69000006
   12.00583363  110.32900238    4.90999985    2.67000008
   12.00916672   99.77010345    4.90999985    2.69000006
   12.01138878  102.08699799    4.90999985    2.67000008
   12.01277733  109.14399719    4.90999985    2.67000008
   12.01611137  107.08200073    4.90999985    2.69000006
   12.01916599   99.58989716    4.90999985    2.69000006
   12.02250004  106.56900024    4.90999985    2.67000008
   12.02583313   96.71640015    4.90999985    2.69000006
   12.02888870  103.32299805    4.90999985    2.69000006
   12.03222179   98.81999969    4.90999985    2.69000006
   12.03527832  100.21299744    4.90999985    2.67000008
   12.03861141   93.41010284    4.90999985    2.69000006
   12.04194450  107.37200165    4.90999985    2.69000006
   12.04472256  101.14399719    4.90999985    2.69000006
   12.04555607  106.16400146    4.90999985    2.69000006
   12.04888916  101.01799774    4.90999985    2.69000006
   12.05194473  107.39199829    4.90999985    2.69000006
   12.05527782  103.15299988    4.90999985    2.69000006
   12.05861092  103.61699677    4.90999985    2.69000006
   12.06166649   89.57270050    4.90999985    2.69000006
   12.06500053   98.04399872    4.90999985    2.69000006
   12.06805515  114.28299713    4.90999985    2.67000008
   12.07138920  105.48999786    4.90999985    2.69000006
   12.07472229   88.89240265    4.90999985    2.69000006
   12.07777786   98.62079620    4.90999985    2.69000006
   12.07833290  105.31400299    4.90999985    2.69000006
   12.08166695   99.96569824    4.90999985    2.69000006
   12.08472157  102.43099976    4.90999985    2.69000006
   12.08805561  103.50399780    4.90999985    2.69000006
   12.09138870   97.23320007    4.90999985    2.69000006
   12.09444427  100.97599792    4.90999985    2.69000006
   12.09777737  105.29399872    4.90999985    2.69000006
   12.10111141  100.50599670    4.90999985    2.69000006
   12.10416698   95.29799652    4.90999985    2.69000006
   12.10750008  104.68000031    4.90999985    2.71000004
   12.11055565  102.06500244    4.90999985    2.69000006
   12.11166668   94.52860260    4.90999985    2.69000006
   12.11444473  100.92800140    4.90999985    2.69000006
   12.11750031  107.14900208    4.90999985    2.71000004
   12.12083340  113.23699951    4.90999985    2.69000006
   12.12416649  103.48799896    4.90999985    2.71000004
   12.12722206  107.07599640    4.90999985    2.69000006
   12.13055611  104.29799652    4.90999985    2.69000006
   12.13388920  101.97200012    4.90999985    2.69000006
   12.13694477   97.30519867    4.90999985    2.69000006
   12.14027786   98.72160339    4.90999985    2.71000004
   12.14333344   95.55709839    4.90999985    2.69000006
   12.16111088   98.96289825    4.90999985    2.69000006
   12.16333294  108.36799622    4.90999985    2.69000006
   12.16638851  101.50700378    4.90999985    2.69000006
   12.16972256  100.47200012    4.90999985    2.71000004
   12.17305565   99.63680267    4.90999985    2.71000004
   12.17611122  113.39499664    4.90999985    2.69000006
   12.17944431  105.36799622    4.90999985    2.73000002
   12.18277836   94.53150177    4.90999985    2.71000004
   12.18583298   87.61299896    4.90999985    2.69000006
   12.18916702  108.14499664    4.90999985    2.71000004
   12.19222260   92.42610168    4.90999985    2.71000004
   12.19444466   98.74739838    4.90999985    2.71000004
   12.19611073  107.31600189    4.90999985    2.71000004
   12.19916630  106.71600342    4.90999985    2.71000004
   12.20249939  110.88600159    4.90999985    2.71000004
   12.20555496  115.80100250    4.90999985    2.71000004
   12.20888901  105.12599945    4.90999985    2.71000004
   12.21222210  105.76300049    4.90999985    2.71000004
   12.21527767  101.90699768    4.90999985    2.71000004
   12.21861076  103.10800171    4.90999985    2.71000004
   12.22194386  111.41200256    4.90999985    2.71000004
   12.22499943  105.80100250    4.90999985    2.69000006
   12.22777748  100.56500244    4.90999985    2.69000006
   12.22888851  102.78600311    4.90999985    2.71000004
   12.23194408  100.24299622    4.90999985    2.71000004
   12.23527813  108.26899719    4.90999985    2.73000002
   12.23833370  104.49800110    4.90999985    2.71000004
   12.24166679   92.08850098    4.90999985    2.73000002
   12.24499989  100.00399780    4.90999985    2.71000004
   12.24805546  110.08300018    4.90999985    2.71000004
   12.25138855  101.13800049    4.90999985    2.71000004
   12.25444412   90.72540283    4.90999985    2.71000004
   12.25777817  103.98799896    4.90999985    2.73000002
   12.26111126  110.28500366    4.90999985    2.71000004
   12.26166630  111.34799957    4.90999985    2.71000004
   12.26472187  118.04799652    4.90999985    2.71000004
   12.26805496  106.18299866    4.90999985    2.71000004
   12.27111053   99.39959717    4.90999985    2.71000004
   12.27444458  103.58899689    4.90999985    2.71000004
   12.27777767  109.44999695    4.90999985    2.73000002
   12.28083324   95.44470215    4.90999985    2.73000002
   12.28416729  104.66300201    4.90999985    2.71000004
   12.28722286  102.80000305    4.90999985    2.71000004
   12.29055595  102.05699921    4.90999985    2.71000004
   12.29388905  106.47399902    4.90999985    2.73000002
   12.29444504  111.65299988    4.90999985    2.73000002
   12.29750061  106.13899994    4.90999985    2.73000002
   12.30055618  103.60800171    4.90999985    2.73000002
   12.30388927  114.56999969    4.90999985    2.71000004
   12.30694485   98.32469940    4.90999985    2.73000002
   12.31027794   98.26270294    4.90999985    2.73000002
   12.31361103  105.43399811    4.90999985    2.71000004
   12.31666660  101.22799683    4.90999985    2.73000002
   12.31999969  103.89700317    4.90999985    2.73000002
   12.32333374  103.43399811    4.90999985    2.73000002
   12.32638836  101.56900024    4.90999985    2.73000002
   12.32777786  109.12000275    4.90999985    2.71000004
   12.33027744  104.45400238    4.90999985    2.73000002
   12.33333302  115.68099976    4.90999985    2.73000002
   12.33666611  102.44499969    4.90999985    2.73000002
   12.34000015  111.16999817    4.90999985    2.73000002
   12.34305477  109.69200134    4.90999985    2.71000004
   12.34638882  109.54299927    4.90999985    2.73000002
   12.34944439  112.22299957    4.90999985    2.73000002
   12.35277843  102.22000122    4.90999985    2.73000002
   12.35611153  104.01200104    4.90999985    2.73000002
   12.35916710  107.40799713    4.90999985    2.71000004
   12.36111164  112.90200043    4.90999985    2.73000002
   12.36305618   99.03880310    4.90999985    2.75000000
   12.36611176  106.69699860    4.90999985    2.75000000
   12.36944485  112.33699799    4.90999985    2.75000000
   12.37277794  105.99400330    4.90999985    2.71000004
   12.37583351  106.72699738    4.90999985    2.73000002
   12.37916660  108.37400055    4.90999985    2.75000000
   12.38222218   96.59159851    4.90999985    2.75000000
   12.38555527  100.78800201    4.90999985    2.73000002
   12.38888836  116.64099884    4.90999985    2.73000002
   12.39194393   97.62409973    4.90999985    2.73000002
   12.39444447   99.93949890    4.90999985    2.73000002
   12.39583302  102.54000092    4.90999985    2.75000000
   12.39888859  111.22100067    4.90999985    2.73000002
   12.40222168  103.53199768    4.90999985    2.75000000
   12.40555477  101.54900360    4.90999985    2.73000002
   12.40861034   91.77980042    4.90999985    2.75000000
   12.41194439  103.08100128    4.90999985    2.73000002
   12.41499996  115.02100372    4.90999985    2.73000002
   12.41833401  101.83899689    4.90999985    2.71000004
   12.42166710  102.43000031    4.90999985    2.73000002
   12.42472267  101.50399780    4.90999985    2.73000002
   12.42777824  102.57299805    4.90999985    2.75000000
   12.42861176  105.14499664    4.90999985    2.73000002
   12.43166733  106.23000336    4.90999985    2.75000000
   12.43500042  109.39399719    4.90999985    2.75000000
   12.43833351  101.46299744    4.90999985    2.75000000
   12.44138908   92.74299622    4.90999985    2.75000000
   12.44472218   91.17839813    4.90999985    2.73000002
   12.44777775  101.61299896    4.90999985    2.75000000
   12.45111084  106.25000000    4.90999985    2.73000002
   12.45444393  102.45400238    4.90999985    2.75000000
   12.45749950   98.33589935    4.90999985    2.75000000
   12.46083355  100.02999878    4.90999985    2.73000002
   12.46138859  106.25000000    4.90999985    2.75000000
   12.46472168   94.96459961    4.90999985    2.75000000
   12.46777725   97.32879639    4.90999985    2.75000000
   12.47111034   90.75050354    4.90999985    2.75000000
   12.47444439   96.07060242    4.90999985    2.75000000
   12.47749996  103.13600159    4.90999985    2.75000000
   12.48083305   82.44319916    4.90999985    2.75000000
   12.48388958   98.75350189    4.90999985    2.75000000
   12.48722267   97.61699677    4.90999985    2.78999996
   12.49055576   93.37879944    4.90999985    2.76999998
   12.49361134   95.51879883    4.90999985    2.75000000
   12.49472237   92.75289917    4.90999985    2.75000000
   12.49722290  104.53700256    4.90999985    2.75000000
   12.50055599   92.38819885    4.90999985    2.75000000
   12.50388908  102.41100311    4.90999985    2.75000000
   12.50694466   98.49259949    4.90999985    2.75000000
   12.51027775   99.46269989    4.90999985    2.76999998
   12.51361084   93.45570374    4.90999985    2.75000000
   12.51666641  101.70400238    4.90999985    2.75000000
   12.51999950  102.06199646    4.90999985    2.75000000
   12.52305508   98.30539703    4.90999985    2.76999998
   12.52638817  100.33799744    4.90999985    2.76999998
   12.52805519   95.99299622    4.90999985    2.75000000
   12.52999973   94.20200348    4.90999985    2.78999996
   12.53333378  106.17299652    4.90999985    2.76999998
   12.53666687  106.83300018    4.90999985    2.76999998
   12.53972244   96.85929871    4.90999985    2.75000000
   12.54305553   95.01450348    4.90999985    2.75000000
   12.54638958  105.22599792    4.90999985    2.76999998
   12.54944515   97.98819733    4.90999985    2.76999998
   12.55277824   96.01229858    4.90999985    2.76999998
   12.55611134   88.63379669    4.90999985    2.75000000
   12.55916691   94.96119690    4.90999985    2.75000000
   12.56138897   98.72560120    4.90999985    2.75000000
   12.56277752   92.46510315    4.90999985    2.75000000
   12.56611156   96.15740204    4.90999985    2.75000000
   12.56944466   99.98519897    4.90999985    2.76999998
   12.57250023   90.97640228    4.90999985    2.76999998
   12.57583332  101.46900177    4.90999985    2.76999998
   12.57916641   92.14350128    4.90999985    2.75000000
   12.58222198   98.71309662    4.90999985    2.75000000
   12.58555508   90.31359863    4.90999985    2.76999998
   12.58861065   96.18800354    4.90999985    2.76999998
   12.59194374  101.37500000    4.90999985    2.76999998
   12.59472179   89.30210114    4.90999985    2.76999998
   12.59555531  102.92299652    4.90999985    2.75000000
   12.59888840   92.47709656    4.90999985    2.76999998
   12.60222244   98.80740356    4.90999985    2.76999998
   12.60527802  111.52500153    4.90999985    2.76999998
   12.60861111  106.90499878    4.90999985    2.78999996
   12.61194515   92.51029968    4.90999985    2.76999998
   12.61500072   96.80889893    4.90999985    2.76999998
   12.61833382  104.88200378    4.90999985    2.78999996
   12.62138939   88.71420288    4.90999985    2.76999998
   12.62472248   97.84670258    4.90999985    2.76999998
   12.62805557   98.65180206    4.90999985    2.76999998
   12.62833309   93.17929840    4.90999985    2.76999998
   12.63166714  102.44000244    4.90999985    2.75000000
   12.63500023   94.20670319    4.90999985    2.75000000
   12.63805580   87.99269867    4.90999985    2.75000000
   12.64138889   99.29850006    4.90999985    2.78999996
   12.64472198  104.56600189    4.90999985    2.76999998
   12.64777756  101.55699921    4.90999985    2.78999996
   12.65111065   89.12670135    4.90999985    2.76999998
   12.65444374   98.69599915    4.90999985    2.76999998
   12.65749931  111.44799805    4.90999985    2.76999998
   12.66083336  102.22599792    4.90999985    2.76999998
   12.66138840   86.35829926    4.90999985    2.76999998
   12.66444397  104.95099640    4.90999985    2.78999996
   12.66750050  104.55300140    4.90999985    2.78999996
   12.67083359  113.65799713    4.90999985    2.78999996
   12.67388916  105.75199890    4.90999985    2.76999998
   12.67722225   85.92250061    4.90999985    2.76999998
   12.68055630  103.27200317    4.90999985    2.76999998
   12.68361092  120.45500183    4.90999985    2.76999998
   12.68694496  109.05000305    4.90999985    2.78999996
   12.69027805  118.70300293    4.90999985    2.76999998
   12.69333363  108.36900330    4.90999985    2.78999996
   12.69472218  111.21700287    4.90999985    2.76999998
   12.69722271  106.50000000    4.90999985    2.76999998
   12.70027733  108.01499939    4.90999985    2.78999996
   12.70361137   85.20539856    4.90999985    2.78999996
   12.70666695  129.34100342    4.90999985    2.78999996
   12.71000004  112.10900116    4.90999985    2.76999998
   12.71333313  101.12899780    4.90999985    2.76999998
   12.71638870  101.24500275    4.90999985    2.76999998
   12.71972179  124.97200012    4.90999985    2.78999996
   12.72305489  126.22200012    4.90999985    2.76999998
   12.72611046  115.36299896    4.90999985    2.78999996
   12.72805500  126.04100037    4.90999985    2.78999996
   12.72999954  114.08300018    4.90999985    2.78999996
   12.73305511   94.56099701    4.90999985    2.78999996
   12.73638916  137.93200684    4.90999985    2.78999996
   12.73944473  103.52899933    4.90999985    2.76999998
   12.74277782  113.10500336    4.90999985    2.78999996
   12.74611092   89.80650330    4.90999985    2.78999996
   12.74916649   93.52100372    4.90999985    2.78999996
   12.75249958  109.64399719    4.90999985    2.78999996
   12.75583363  109.26499939    4.90999985    2.78999996
   12.75888920  117.88200378    4.90999985    2.78999996
   12.76138878  107.34899902    4.90999985    2.78999996
   12.76277733   96.56269836    4.90999985    2.78999996
   12.76583290  109.10099792    4.90999985    2.78999996
   12.76916599  105.43699646    4.90999985    2.78999996
   12.77222157  104.92700195    4.90999985    2.78999996
   12.77555561   97.66310120    4.90999985    2.78999996
   12.77888870  125.21600342    4.90999985    2.78999996
   12.78194427  125.15899658    4.90999985    2.78999996
   12.78527832  116.60299683    4.90999985    2.80999994
   12.78861141  101.61900330    4.90999985    2.78999996
   12.79166698  115.52300262    4.90999985    2.80999994
   12.79472256   90.56819916    4.90999985    2.78999996
   12.79555607   99.63819885    4.90999985    2.78999996
   12.79861164  104.43800354    4.90999985    2.78999996
   12.80194473  110.92400360    4.90999985    2.78999996
   12.80500031  112.63099670    4.90999985    2.78999996
   12.80833340   87.77999878    4.90999985    2.80999994
   12.81166649  100.09999847    4.90999985    2.78999996
   12.81472206   89.70159912    4.90999985    2.80999994
   12.81805515   96.11959839    4.90999985    2.78999996
   12.82138920  106.44499969    4.90999985    2.78999996
   12.82444477  107.18599701    4.90999985    2.80999994
   12.82777786   96.13490295    4.90999985    2.78999996
   12.82833290   94.54380035    4.90999985    2.78999996
   12.83138847   92.86450195    4.90999985    2.78999996
   12.83472157   85.62629700    4.90999985    2.78999996
   12.83805561   93.65350342    4.90999985    2.78999996
   12.84111118  101.66999817    4.90999985    2.80999994
   12.84444427  111.20700073    4.90999985    2.78999996
   12.84777737   98.85230255    4.90999985    2.78999996
   12.85083389   96.77040100    4.90999985    2.80999994
   12.85416698   92.92070007    4.90999985    2.78999996
   12.85750008  105.09600067    4.90999985    2.78999996
   12.86055565  101.10900116    4.90999985    2.78999996
   12.86166668  104.75299835    4.90999985    2.78999996
   12.86416721   99.65249634    4.90999985    2.80999994
   12.86750031   94.37699890    4.90999985    2.78999996
   12.87083340   92.37819672    4.90999985    2.80999994
   12.87388897   92.22190094    4.90999985    2.78999996
   12.87722206   81.26029968    4.90999985    2.78999996
   12.88055611  100.07599640    4.90999985    2.80999994
   12.88361073   93.53510284    4.90999985    2.80999994
   12.88694477   96.87500000    4.90999985    2.80999994
   12.89027786  111.98600006    4.90999985    2.82999992
   12.89333344   98.20870209    4.90999985    2.80999994
   12.89499950   96.23229980    4.90999985    2.78999996
   12.89694405   90.52770233    4.90999985    2.78999996
   12.90027714  108.12699890    4.90999985    2.80999994
   12.90361118   93.32420349    4.90999985    2.78999996
   12.90666676   91.55789948    4.90999985    2.80999994
   12.90999985   89.64369965    4.90999985    2.80999994
   12.91333294   93.40010071    4.90999985    2.80999994
   12.91638851  108.74400330    4.90999985    2.80999994
   12.91972256   84.79149628    4.90999985    2.80999994
   12.92277813  101.89600372    4.90999985    2.78999996
   12.92611122   94.93250275    4.90999985    2.80999994
   12.92833328   90.57689667    4.90999985    2.80999994
   12.92972279   99.08940125    4.90999985    2.78999996
   12.93305588  103.11900330    4.90999985    2.78999996
   12.93638897   98.98789978    4.90999985    2.80999994
   12.93944454  106.04100037    4.90999985    2.80999994
   12.94277763   89.44339752    4.90999985    2.80999994
   12.94611073   97.37429810    4.90999985    2.78999996
   12.94916630  103.57199860    4.90999985    2.80999994
   12.95249939  102.27899933    4.90999985    2.80999994
   12.95555496  108.34600067    4.90999985    2.80999994
   12.95888901  104.78600311    4.90999985    2.80999994
   12.96166611   92.49050140    4.90999985    2.80999994
   12.96249962  115.17800140    4.90999985    2.80999994
   12.96583271  101.22499847    4.90999985    2.80999994
   12.96916580  117.35399628    4.90999985    2.80999994
   12.97222137  101.06300354    4.90999985    2.80999994
   12.97555542   93.53720093    4.90999985    2.80999994
   12.97888851   92.45159912    4.90999985    2.80999994
   12.98194408   95.29419708    4.90999985    2.78999996
   12.98527813   90.96350098    4.90999985    2.82999992
   12.98833370   92.90730286    4.90999985    2.80999994
   12.99166679   95.42430115    4.90999985    2.82999992
   12.99499989  103.97299957    4.90999985    2.80999994
   12.99527836  105.19899750    4.90999985    2.80999994
   12.99861145   94.65599823    4.90999985    2.82999992
   13.00194454  103.12100220    4.90999985    2.82999992
   13.00500011  103.96700287    4.90999985    2.80999994
   13.00833321   95.36489868    4.90999985    2.80999994
   13.01166630   97.27110291    4.90999985    2.80999994
   13.01472187   89.77230072    4.90999985    2.80999994
   13.01805496  104.54900360    4.90999985    2.82999992
   13.02111053  100.39700317    4.90999985    2.80999994
   13.02444458   96.90950012    4.90999985    2.80999994
   13.02777767  105.69400024    4.90999985    2.80999994
   13.02833271   94.77860260    4.90999985    2.82999992
   13.03111076   99.04239655    4.90999985    2.82999992
   13.03444481  106.88700104    4.90999985    2.82999992
   13.03777790   86.95649719    4.90999985    2.80999994
   13.04083347  107.10099792    4.90999985    2.82999992
   13.04416752   96.15219879    4.90999985    2.82999992
   13.04750061   96.06749725    4.90999985    2.80999994
   13.05055618  119.93499756    4.90999985    2.82999992
   13.05388927  107.16200256    4.90999985    2.82999992
   13.05722237  101.29799652    4.90999985    2.84999990
   13.06027794   93.50900269    4.90999985    2.82999992
   13.06166649  102.83999634    4.90999985    2.82999992
   13.06388950   95.52500153    4.90999985    2.80999994
   13.06722260  102.13400269    4.90999985    2.80999994
   13.07055569  105.81600189    4.90999985    2.82999992
   13.07361126   93.65489960    4.90999985    2.80999994
   13.07694435  107.74900055    4.90999985    2.82999992
   13.08027744   90.77670288    4.90999985    2.82999992
   13.08333302  104.72399902    4.90999985    2.80999994
   13.08666611  106.68699646    4.90999985    2.82999992
   13.08972168  105.33899689    4.90999985    2.80999994
   13.20499992   -1.00000000   -1.00000000   -1.00000000
   13.30277824   -1.00000000   -1.00000000   -1.00000000
   13.40166664   -1.00000000   -1.00000000   -1.00000000
   17.25861168   89.30570221    0.05000000    0.09000000
   17.26166725   89.16470337    0.05000000    0.09000000
   17.26499939   83.49220276    0.05000000    0.09000000
   17.26833344   86.32700348    0.05000000    0.09000000
   17.27138901   94.71209717    0.05000000    0.09000000
   17.27472115   86.58419800    0.05000000    0.09000000
   17.27888870   86.58419800    0.05000000    0.09000000
   17.28305435   78.81629944    0.05000000    0.09000000
   17.28610992   81.25430298    0.05000000    0.09000000
   17.28944397   86.26689911    0.05000000    0.09000000
   17.29194450   88.29389954    0.05000000    0.09000000
   17.29305458   85.99449921    0.05000000    0.09000000
   17.29638863   83.89150238    0.05000000    0.09000000
   17.29972076   86.84940338    0.05000000    0.09000000
   17.30277634   87.55139923    0.05000000    0.09000000
   17.30611038   83.27600098    0.05000000    0.09000000
   17.30916595   84.41870117    0.05000000    0.09000000
   17.31250000   86.13639832    0.05000000    0.09000000
   17.31583214   91.32180023    0.05000000    0.09000000
   17.32166672   91.32180023    0.05000000    0.09000000
   17.32583427   89.53959656    0.05000000    0.09000000
   17.32888985   87.36920166    0.05000000    0.09000000
   17.33222389   86.12950134    0.05000000    0.09000000
   17.33555603   88.45629883    0.05000000    0.09000000
   17.33861160   92.01499939    0.05000000    0.09000000
   17.34194565   91.61969757    0.05000000    0.09000000
   17.34527779   92.84310150    0.05000000    0.09000000
   17.34833336   89.39520264    0.05000000    0.09000000
   17.35166740   88.90440369    0.05000000    0.09000000
   17.35472298   88.93430328    0.05000000    0.09000000
   17.35805511   86.34369659    0.05000000    0.09000000
   17.35861206   90.64900208    0.05000000    0.09000000
   17.36444473   90.64900208    0.05000000    0.09000000
   17.36861038   81.67859650    0.05000000    0.09000000
   17.37194443   86.39640045    0.05000000    0.09000000
   17.37500000   88.03170013    0.05000000    0.09000000
   17.37833405   82.17569733    0.05000000    0.09000000
   17.38166618   87.25330353    0.05000000    0.09000000
   17.38472176   85.48619843    0.05000000    0.09000000
   17.38805580   83.35469818    0.05000000    0.09000000
   17.39111137   87.36869812    0.05000000    0.09000000
   17.39194489   85.50779724    0.05000000    0.09000000
   17.39500046   89.30300140    0.05000000    0.09000000
   17.39805603   85.82910156    0.05000000    0.09000000
   17.40138817   85.46119690    0.05000000    0.09000000
   17.40722275   85.46119690    0.05000000    0.09000000
   17.41138840   88.66909790    0.05000000    0.09000000
   17.41472244   90.32949829    0.05000000    0.09000000
   17.41805458   84.30529785    0.05000000    0.09000000
   17.42111015   88.35260010    0.05000000    0.09000000
   17.42444420   88.50839996    0.05000000    0.09000000
   17.42527771   87.41999817    0.05000000    0.09000000
   17.42805481   86.98059845    0.05000000    0.09000000
   17.43111038   85.75509644    0.05000000    0.09000000
   17.43444443   87.67019653    0.05000000    0.09000000
   17.43777657   85.83650208    0.05000000    0.09000000
   17.44083214   88.22350311    0.05000000    0.09000000
   17.44416618   86.40859985    0.05000000    0.09000000
   17.45027924   86.40859985    0.05000000    0.09000000
   17.45444489   92.10929871    0.05000000    0.09000000
   17.45750046   89.61609650    0.05000000    0.09000000
   17.45861244   87.56189728    0.05000000    0.09000000
   17.46138954   85.98380280    0.05000000    0.09000000
   17.46444511   86.93080139    0.05000000    0.09000000
   17.46777916   85.92759705    0.05000000    0.09000000
   17.47111130   87.39489746    0.05000000    0.09000000
   17.47416687   88.91429901    0.05000000    0.09000000
   17.47750092   85.98909760    0.05000000    0.09000000
   17.48055649   85.74269867    0.05000000    0.09000000
   17.48388863   84.65360260    0.05000000    0.09000000
   17.48722267   83.98229980    0.05000000    0.09000000
   17.49305534   83.98229980    0.05000000    0.09000000
   17.49722290   79.11799622    0.05000000    0.09000000
   17.50027847   83.74099731    0.05000000    0.09000000
   17.50361061   88.10289764    0.05000000    0.09000000
   17.50694466   82.64060211    0.05000000    0.09000000
   17.51000023   86.97720337    0.05000000    0.09000000
   17.51333427   91.39299774    0.05000000    0.09000000
   17.51666641   89.37079620    0.05000000    0.09000000
   17.51972198   86.86360168    0.05000000    0.09000000
   17.52305603   87.91259766    0.05000000    0.09000000
   17.52527809   89.93460083    0.05000000    0.09000000
   17.52666664   89.97200012    0.05000000    0.09000000
   17.52972221   89.66739655    0.05000000    0.09000000
   17.53583336   89.66739655    0.05000000    0.09000000
   17.53999901   89.95050049    0.05000000    0.09000000
   17.54333305   85.09999847    0.05000000    0.09000000
   17.54638863   89.58290100    0.05000000    0.09000000
   17.54972076   80.35630035    0.05000000    0.09000000
   17.55305481   84.01609802    0.05000000    0.09000000
   17.55611038   76.86190033    0.05000000    0.09000000
   17.55861092   82.89959717    0.05000000    0.09000000
   17.55999947   88.06469727    0.05000000    0.09000000
   17.56305504   84.33850098    0.05000000    0.09000000
   17.56638718   82.22720337    0.05000000    0.09000000
   17.56972313   84.11900330    0.05000000    0.09000000
   17.57277870   85.43550110    0.05000000    0.09000000
   17.57888985   85.43550110    0.05000000    0.09000000
   17.58277893   87.71640015    0.05000000    0.09000000
   17.58611107   85.44650269    0.05000000    0.09000000
   17.58944511   83.85130310    0.05000000    0.09000000
   17.59194565   85.19059753    0.05000000    0.09000000
   17.59305573   84.63860321    0.05000000    0.09000000
   17.59611130   82.91880035    0.05000000    0.09000000
   17.59944534   79.47519684    0.05000000    0.09000000
   17.60333443   75.80560303    0.05000000    0.09000000
   17.60694504   80.53009796    0.05000000    0.09000000
   17.61000061   86.19529724    0.05000000    0.09000000
   17.61333466   90.07599640    0.05000000    0.09000000
   17.61638832   85.72609711    0.05000000    0.09000000
   17.62166595   85.72609711    0.05000000    0.09000000
   17.62583351   85.71700287    0.05000000    0.09000000
   17.62888908   88.23390198    0.05000000    0.09000000
   17.63222313   86.04630280    0.05000000    0.09000000
   17.63527679   85.23979950    0.05000000    0.09000000
   17.63861084   86.01670074    0.05000000    0.09000000
   17.64166641   85.72170258    0.05000000    0.09000000
   17.64500046   92.06330109    0.05000000    0.09000000
   17.64805603   82.23359680    0.05000000    0.09000000
   17.65194321   87.17990112    0.05000000    0.09000000
   17.65499878   89.37039948    0.05000000    0.09000000
   17.65833282   87.43240356    0.05000000    0.09000000
   17.65888786   85.46739960    0.05000000    0.09000000
   17.66444397   85.46739960    0.05000000    0.09000000
   17.66888809   84.36280060    0.05000000    0.09000000
   17.67194366   89.87129974    0.05000000    0.09000000
   17.67527771   91.13999939    0.05000000    0.09000000
   17.67833328   85.60910034    0.05000000    0.09000000
   17.68166542   85.35919952    0.05000000    0.09000000
   17.68472099   84.32520294    0.05000000    0.09000000
   17.68805504   90.85880280    0.05000000    0.09000000
   17.69111061   87.00980377    0.05000000    0.09000000
   17.69222069   86.01709747    0.05000000    0.09000000
   17.69499969   83.37979889    0.05000000    0.09000000
   17.69805527   81.39040375    0.05000000    0.09000000
   17.70138931   87.34600067    0.05000000    0.09000000
   17.70722389   87.34600067    0.05000000    0.09000000
   17.71138954   87.01129913    0.05000000    0.09000000
   17.71472359   92.59400177    0.05000000    0.09000000
   17.71777916   84.01609802    0.05000000    0.09000000
   17.72111130   88.90229797    0.05000000    0.09000000
   17.72416687   89.55090332    0.05000000    0.09000000
   17.72555542   91.41280365    0.05000000    0.09000000
   17.72805595   86.03800201    0.05000000    0.09000000
   17.73111153   88.86569977    0.05000000    0.09000000
   17.73444557   85.74880219    0.05000000    0.09000000
   17.73750114   87.94329834    0.05000000    0.09000000
   17.74083328   90.65859985    0.05000000    0.09000000
   17.74472237   84.16020203    0.05000000    0.09000000
   17.75000000   84.16020203    0.05000000    0.09000000
   17.75416756   83.99770355    0.05000000    0.09000000
   17.75749969   84.72429657    0.05000000    0.09000000
   17.75888824   83.75620270    0.05000000    0.09000000
   17.76111031   86.64450073    0.05000000    0.09000000
   17.76416588   81.90100098    0.05000000    0.09000000
   17.76749992   85.30729675    0.05000000    0.09000000
   17.77055550   88.35569763    0.05000000    0.09000000
   17.77388954   85.73380280    0.05000000    0.09000000
   17.77694511   90.23960114    0.05000000    0.09000000
   17.78027725   89.20800018    0.05000000    0.09000000
   17.78361130   85.07420349    0.05000000    0.09000000
   17.78666687   86.30650330    0.05000000    0.09000000
   17.79305458   86.30650330    0.05000000    0.09000000
   17.79722214   88.35700226    0.05000000    0.09000000
   17.80027771   89.28240204    0.05000000    0.09000000
   17.80360985   84.64350128    0.05000000    0.09000000
   17.80694389   87.29750061    0.05000000    0.09000000
   17.80999947   85.62879944    0.05000000    0.09000000
   17.81333351   89.42120361    0.05000000    0.09000000
   17.81666756   89.78730011    0.05000000    0.09000000
   17.82000160   91.11879730    0.05000000    0.09000000
   17.82305717   84.34790039    0.05000000    0.09000000
   17.82555580   85.77320099    0.05000000    0.09000000
   17.82694626   87.14409637    0.05000000    0.09000000
   17.83027840   87.23650360    0.05000000    0.09000000
   17.83583450   87.23650360    0.05000000    0.09000000
   17.84000015   88.28350067    0.05000000    0.09000000
   17.84333420   82.36669922    0.05000000    0.09000000
   17.84666824   83.85449982    0.05000000    0.09000000
   17.84972191   83.49960327    0.05000000    0.09000000
   17.85333443   85.61009979    0.05000000    0.09000000
   17.85639000   86.18939972    0.05000000    0.09000000
   17.85888863   86.15049744    0.05000000    0.09000000
   17.86027908   83.91449738    0.05000000    0.09000000
   17.86361122   87.52709961    0.05000000    0.09000000
   17.86694527   85.83499908    0.05000000    0.09000000
   17.87027740   91.06790161    0.05000000    0.09000000
   17.87333298   90.28669739    0.05000000    0.09000000
   17.87888908   90.28669739    0.05000000    0.09000000
   17.88333321   87.95189667    0.05000000    0.09000000
   17.88638878   90.20059967    0.05000000    0.09000000
   17.89027786   88.09880066    0.05000000    0.09000000
   17.89249992   87.64510345    0.05000000    0.09000000
   17.89444351   94.06780243    0.05000000    0.09000000
   17.89777756   87.44529724    0.05000000    0.09000000
   17.90111160   92.06939697    0.05000000    0.09000000
   17.90444374   92.47080231    0.05000000    0.09000000
   17.90777779   83.68949890    0.05000000    0.09000000
   17.91110992   89.31099701    0.05000000    0.09000000
   17.91444397   85.38339996    0.05000000    0.09000000
   17.91777802   92.25980377    0.05000000    0.09000000
   17.92194366   92.25980377    0.05000000    0.09000000
   17.92611122   87.76519775    0.05000000    0.09000000
   17.92944336   85.85540009    0.05000000    0.09000000
   17.93277740   90.03530121    0.05000000    0.09000000
   17.93583298   89.21070099    0.05000000    0.09000000
   17.93916512   88.91880035    0.05000000    0.09000000
   17.94277763   89.28160095    0.05000000    0.09000000
   17.94610977   86.98629761    0.05000000    0.09000000
   17.94916534   89.11840057    0.05000000    0.09000000
   17.95250130   84.09850311    0.05000000    0.09000000
   17.95583344   83.95970154    0.05000000    0.09000000
   17.95888901   83.45010376    0.05000000    0.09000000
   17.96000099   82.95200348    0.05000000    0.09000000
   17.96472359   82.95200348    0.05000000    0.09000000
   17.96888924   87.17079926    0.05000000    0.09000000
   17.97222328   86.58450317    0.05000000    0.09000000
   17.97555542   92.60720062    0.05000000    0.09000000
   17.97888947   90.31300354    0.05000000    0.09000000
   17.98222351   87.40540314    0.05000000    0.09000000
   17.98583412   89.41510010    0.05000000    0.09000000
   17.98916626   90.43530273    0.05000000    0.09000000
   17.99277878   88.19010162    0.05000000    0.09000000
   17.99333382   85.43949890    0.05000000    0.09000000
   17.99638939   89.19280243    0.05000000    0.09000000
   17.99972153   90.90160370    0.05000000    0.09000000
   18.00305557   91.33000183    0.05000000    0.09000000
   18.00749969   91.33000183    0.05000000    0.09000000
   18.01194382   87.62519836    0.05000000    0.09000000
   18.01527786   89.90910339    0.05000000    0.09000000
   18.01944351   90.46060181    0.05000000    0.09000000
   18.02305603   85.06520081    0.05000000    0.09000000
   18.02694511   89.25199890    0.05000000    0.09000000
   18.02861023   84.16819763    0.05000000    0.09000000
   18.03249931   87.49829865    0.05000000    0.09000000
   18.03583336   84.57340240    0.05000000    0.09000000
   18.03916550   88.07219696    0.05000000    0.09000000
   18.04249954   89.01300049    0.05000000    0.09000000
   18.04583359   84.02660370    0.05000000    0.09000000
   18.05138779   84.02660370    0.05000000    0.09000000
   18.05555534   93.46360016    0.05000000    0.09000000
   18.05944443   85.85820007    0.05000000    0.09000000
   18.05999947   85.85230255    0.05000000    0.09000000
   18.06333351   87.26709747    0.05000000    0.09000000
   18.06666756   90.40200043    0.05000000    0.09000000
   18.07000160   90.55319977    0.05000000    0.09000000
   18.07333374   85.76650238    0.05000000    0.09000000
   18.07666779   85.21630096    0.05000000    0.09000000
   18.08000183   86.11470032    0.05000000    0.09000000
   18.08333397   83.57409668    0.05000000    0.09000000
   18.08666801   86.26709747    0.05000000    0.09000000
   18.09388924   86.26709747    0.05000000    0.09000000
   18.09833336   85.57309723    0.05000000    0.09000000
   18.10166740   88.96269989    0.05000000    0.09000000
   18.10499954   87.21769714    0.05000000    0.09000000
   18.10833359   87.01210022    0.05000000    0.09000000
   18.11166763   87.26239777    0.05000000    0.09000000
   18.11499977   87.89230347    0.05000000    0.09000000
   18.11833382   89.03919983    0.05000000    0.09000000
   18.12166595   88.51560211    0.05000000    0.09000000
   18.12500000   86.99859619    0.05000000    0.09000000
   18.12611198   82.18650055    0.05000000    0.09000000
   18.12916756   88.66680145    0.05000000    0.09000000
   18.13249969   86.86180115    0.05000000    0.09000000
   18.13694382   86.86180115    0.05000000    0.09000000
   18.14138794   92.32089996    0.05000000    0.09000000
   18.14472198   90.11419678    0.05000000    0.09000000
   18.14805603   89.04589844    0.05000000    0.09000000
   18.15138817   88.63050079    0.05000000    0.09000000
   18.15472221   90.25129700    0.05000000    0.09000000
   18.15805435   89.12870026    0.05000000    0.09000000
   18.15944481   88.90550232    0.05000000    0.09000000
   18.16222191   84.00820160    0.05000000    0.09000000
   18.16555595   88.45099640    0.05000000    0.09000000
   18.16888809   84.47109985    0.05000000    0.09000000
   18.17222214   86.28240204    0.05000000    0.09000000
   18.17555428   86.50759888    0.05000000    0.09000000
   18.18027687   86.50759888    0.05000000    0.09000000
   18.18444443   87.39520264    0.05000000    0.09000000
   18.18805504   84.10839844    0.05000000    0.09000000
   18.19138718   86.68319702    0.05000000    0.09000000
   18.19305420   84.46379852    0.05000000    0.09000000
   18.19555473   81.32769775    0.05000000    0.09000000
   18.19888878   84.53479767    0.05000000    0.09000000
   18.20250130   87.35199738    0.05000000    0.09000000
   18.20583344   85.15959930    0.05000000    0.09000000
   18.20916748   81.53739929    0.05000000    0.09000000
   18.21250153   86.66020203    0.05000000    0.09000000
   18.21583366   89.92579651    0.05000000    0.09000000
   18.22305679   89.92579651    0.05000000    0.09000000
   18.22750092   90.46869659    0.05000000    0.09000000
   18.23083305   89.29170227    0.05000000    0.09000000
   18.23611069   93.61530304    0.05000000    0.09000000
   18.23944473   88.18669891    0.05000000    0.09000000
   18.24277878   90.02279663    0.05000000    0.09000000
   18.24611092   89.01439667    0.05000000    0.09000000
   18.24944496   84.19319916    0.05000000    0.09000000
   18.25277710   85.88629913    0.05000000    0.09000000
   18.25611115   85.57959747    0.05000000    0.09000000
   18.25888824   84.88439941    0.05000000    0.09000000
   18.28055573   84.88439941    0.05000000    0.09000000
   18.28472137   92.11740112    0.05000000    0.09000000
   18.28805542   89.16850281    0.05000000    0.09000000
   18.29166603   86.83209991    0.05000000    0.09000000
   18.29249954   95.32150269    0.05000000    0.09000000
   18.29583359   86.15029907    0.05000000    0.09000000
   18.29916573   87.92700195    0.05000000    0.09000000
   18.30249977   83.14060211    0.05000000    0.09000000
   18.30583191   85.24559784    0.05000000    0.09000000
   18.30916595   86.90019989    0.05000000    0.09000000
   18.31250000   86.84089661    0.05000000    0.09000000
   18.31583214   85.26629639    0.05000000    0.09000000
   18.32361221   85.26629639    0.05000000    0.09000000
   18.32777786   86.63880157    0.05000000    0.09000000
   18.33111191   85.62560272    0.05000000    0.09000000
   18.33444595   84.85849762    0.05000000    0.09000000
   18.33777809   86.31649780    0.05000000    0.09000000
   18.34111214   82.14969635    0.05000000    0.09000000
   18.34472275   80.78910065    0.05000000    0.09000000
   18.34805679   81.09549713    0.05000000    0.09000000
   18.35138893   83.36569977    0.05000000    0.09000000
   18.35472298   85.78589630    0.05000000    0.09000000
   18.35805511   87.83709717    0.05000000    0.09000000
   18.36000061   83.64119720    0.05000000    0.09000000
   18.36222267   83.81870270    0.05000000    0.09000000
   18.36666679   83.81870270    0.05000000    0.09000000
   18.37111092   89.24949646    0.05000000    0.09000000
   18.37444496   86.12359619    0.05000000    0.09000000
   18.37777710   83.20960236    0.05000000    0.09000000
   18.38111115   82.47019958    0.05000000    0.09000000
   18.38444519   83.51270294    0.05000000    0.09000000
   18.38777733   81.55169678    0.05000000    0.09000000
   18.39111137   85.65080261    0.05000000    0.09000000
   18.39333344   82.74459839    0.05000000    0.09000000
   18.39527702   85.92400360    0.05000000    0.09000000
   18.39861107   84.42040253    0.05000000    0.09000000
   18.40194321   84.05580139    0.05000000    0.09000000
   18.40527725   85.39620209    0.05000000    0.09000000
   18.40972137   85.39620209    0.05000000    0.09000000
   18.41416550   85.67400360    0.05000000    0.09000000
   18.41749954   81.99849701    0.05000000    0.09000000
   18.42083359   83.24189758    0.05000000    0.09000000
   18.42416573   84.10900116    0.05000000    0.09000000
   18.42666626   84.94460297    0.05000000    0.09000000
   18.42833328   87.32360077    0.05000000    0.09000000
   18.43166542   80.97550201    0.05000000    0.09000000
   18.43499947   87.57800293    0.05000000    0.09000000
   18.43833160   83.44609833    0.05000000    0.09000000
   18.44166565   79.38860321    0.05000000    0.09000000
   18.44499969   85.40609741    0.05000000    0.09000000
   18.44833183   82.33769989    0.05000000    0.09000000
   18.45277786   82.33769989    0.05000000    0.09000000
   18.45722389   81.63880157    0.05000000    0.09000000
   18.46000099   83.27709961    0.05000000    0.09000000
   18.46111107   82.49970245    0.05000000    0.09000000
   18.46472359   83.27970123    0.05000000    0.09000000
   18.46805573   80.67780304    0.05000000    0.09000000
   18.47138977   82.66120148    0.05000000    0.09000000
   18.47472191   82.23529816    0.05000000    0.09000000
   18.47805595   83.92469788    0.05000000    0.09000000
   18.48139000   84.51219940    0.05000000    0.09000000
   18.48472214   82.97560120    0.05000000    0.09000000
   18.48805618   85.17330170    0.05000000    0.09000000
   18.49138832   82.56390381    0.05000000    0.09000000
   18.49611092   82.56390381    0.05000000    0.09000000
   18.50055504   87.24949646    0.05000000    0.09000000
   18.50361061   84.35780334    0.05000000    0.09000000
   18.50722313   85.73690033    0.05000000    0.09000000
   18.51027870   86.95359802    0.05000000    0.09000000
   18.51361084   85.79299927    0.05000000    0.09000000
   18.51694489   83.58509827    0.05000000    0.09000000
   18.52027702   82.95559692    0.05000000    0.09000000
   18.52361107   85.47090149    0.05000000    0.09000000
   18.52666664   81.68550110    0.05000000    0.09000000
   18.52750015   83.05229950    0.05000000    0.09000000
   18.53055573   79.88259888    0.05000000    0.09000000
   18.53388786   78.10949707    0.05000000    0.09000000
   18.53861046   78.10949707    0.05000000    0.09000000
   18.54277802   82.80729675    0.05000000    0.09000000
   18.54583359   87.69560242    0.05000000    0.09000000
   18.54916573   83.98940277    0.05000000    0.09000000
   18.55249977   88.88150024    0.05000000    0.09000000
   18.55555534   94.90160370    0.05000000    0.09000000
   18.55888748   89.42749786    0.05000000    0.09000000
   18.55999947   93.65239716    0.05000000    0.09000000
   18.56277657   88.86199951    0.05000000    0.09000000
   18.56583214   86.62809753    0.05000000    0.09000000
   18.56916809  101.75099945    0.05000000    0.09000000
   18.57222366   91.85079956    0.05000000    0.09000000
   18.57555580   89.63009644    0.05000000    0.09000000
   18.58139038   89.63009644    0.05000000    0.09000000
   18.58555603   93.09870148    0.05000000    0.09000000
   18.58861160   92.04499817    0.05000000    0.09000000
   18.59194565   86.84929657    0.05000000    0.09000000
   18.59333420   89.46289825    0.05000000    0.09000000
   18.59555626   87.68190002    0.05000000    0.09000000
   18.59889030   87.52020264    0.05000000    0.09000000
   18.60194397   90.20809937    0.05000000    0.09000000
   18.60527802   84.35720062    0.05000000    0.09000000
   18.60833359   87.95480347    0.05000000    0.09000000
   18.61166763   85.25520325    0.05000000    0.09000000
   18.61472321   87.34140015    0.05000000    0.09000000
   18.61805534   86.37380219    0.05000000    0.09000000
   18.62416649   86.37380219    0.05000000    0.09000000
   18.62833405   88.21530151    0.05000000    0.09000000
   18.63166618   86.16459656    0.05000000    0.09000000
   18.63472176   92.09020233    0.05000000    0.09000000
   18.63805580   85.85350037    0.05000000    0.09000000
   18.64111137   87.01059723    0.05000000    0.09000000
   18.64444351   81.44080353    0.05000000    0.09000000
   18.64749908   82.80120087    0.05000000    0.09000000
   18.65083313   82.95290375    0.05000000    0.09000000
   18.65388870   82.97550201    0.05000000    0.09000000
   18.65722275   84.65100098    0.05000000    0.09000000
   18.65999985   91.10189819    0.05000000    0.09000000
   18.66083336   85.20899963    0.05000000    0.09000000
   18.66694450   85.20899963    0.05000000    0.09000000
   18.67111015   85.79160309    0.05000000    0.09000000
   18.67444420   89.50530243    0.05000000    0.09000000
   18.67749977   83.22440338    0.05000000    0.09000000
   18.68083191   84.23850250    0.05000000    0.09000000
   18.68388748   82.52529907    0.05000000    0.09000000
   18.68722153   85.91790009    0.05000000    0.09000000
   18.69055557   82.29730225    0.05000000    0.09000000
   18.69333267   85.86959839    0.05000000    0.09000000
   18.69416618   85.01470184    0.05000000    0.09000000
   18.69749832   85.75849915    0.05000000    0.09000000
   18.70055580   86.19490051    0.05000000    0.09000000
   18.70388985   86.25279999    0.05000000    0.09000000
   18.71000099   86.25279999    0.05000000    0.09000000
   18.71389008   89.47859955    0.05000000    0.09000000
   18.71722221   89.98549652    0.05000000    0.09000000
   18.72055626   87.47209930    0.05000000    0.09000000
   18.72361183   85.93599701    0.05000000    0.09000000
   18.72666740   87.34200287    0.05000000    0.09000000
   18.72722244   87.52629852    0.05000000    0.09000000
   18.73055649   86.17839813    0.05000000    0.09000000
   18.73361206   89.58930206    0.05000000    0.09000000
   18.73694420   86.32569885    0.05000000    0.09000000
   18.73999977   90.66600037    0.05000000    0.09000000
   18.74333382   89.22540283    0.05000000    0.09000000
   18.74638939   85.19619751    0.05000000    0.09000000
   18.75277710   85.19619751    0.05000000    0.09000000
   18.75694466   82.20860291    0.05000000    0.09000000
   18.76000023   84.68820190    0.05000000    0.09000000
   18.76055527   82.14219666    0.05000000    0.09000000
   18.76388931   83.13890076    0.05000000    0.09000000
   18.76694489   82.94779968    0.05000000    0.09000000
   18.77027702   89.28309631    0.05000000    0.09000000
   18.77333260   86.46479797    0.05000000    0.09000000
   18.77666664   88.08039856    0.05000000    0.09000000
   18.77972221   90.48609924    0.05000000    0.09000000
   18.78305435   84.58460236    0.05000000    0.09000000
   18.78638840   83.37409973    0.05000000    0.09000000
   18.78944397   82.31369781    0.05000000    0.09000000
   18.79555511   82.31369781    0.05000000    0.09000000
   18.79972076   87.97660065    0.05000000    0.09000000
   18.80305481   86.10140228    0.05000000    0.09000000
   18.80611038   84.37560272    0.05000000    0.09000000
   18.80944443   90.90119934    0.05000000    0.09000000
   18.81250000   82.94979858    0.05000000    0.09000000
   18.81583214   86.38529968    0.05000000    0.09000000
   18.81888962   86.62259674    0.05000000    0.09000000
   18.82222366   82.48840332    0.05000000    0.09000000
   18.82527924   84.69120026    0.05000000    0.09000000
   18.82666779   82.67060089    0.05000000    0.09000000
   18.82888985   84.08090210    0.05000000    0.09000000
   18.83222389   82.88960266    0.05000000    0.09000000
   18.83833313   82.88960266    0.05000000    0.09000000
   18.84250069   86.81150055    0.05000000    0.09000000
   18.84583473   85.55999756    0.05000000    0.09000000
   18.84889030   90.92070007    0.05000000    0.09000000
   18.85222244   95.39700317    0.05000000    0.09000000
   18.85527802   84.30740356    0.05000000    0.09000000
   18.85861206   89.59369659    0.05000000    0.09000000
   18.86027908   84.22329712    0.05000000    0.09000000
   18.86222267   83.61849976    0.05000000    0.09000000
   18.86555672   86.33769989    0.05000000    0.09000000
   18.86861038   94.49340057    0.05000000    0.09000000
   18.87194443   83.18209839    0.05000000    0.09000000
   18.87500000   81.59700012    0.05000000    0.09000000
   18.88138962   81.59700012    0.05000000    0.09000000
   18.88527679   81.78610229    0.05000000    0.09000000
   18.88861084   86.11209869    0.05000000    0.09000000
   18.89194489   87.76280212    0.05000000    0.09000000
   18.89361191   85.11430359    0.05000000    0.09000000
   18.89555550   86.27570343    0.05000000    0.09000000
   18.89861107   87.68879700    0.05000000    0.09000000
   18.90194321   91.33000183    0.05000000    0.09000000
   18.90527725   88.04239655    0.05000000    0.09000000
   18.90833282   89.94860077    0.05000000    0.09000000
   18.91166687   91.28379822    0.05000000    0.09000000
   18.91472244   89.41609955    0.05000000    0.09000000
   18.91805458   95.32369995    0.05000000    0.09000000
   18.92416573   95.32369995    0.05000000    0.09000000
   18.92833328   86.94629669    0.05000000    0.09000000
   18.93138885   86.97290039    0.05000000    0.09000000
   18.93472099   85.49859619    0.05000000    0.09000000
   18.93777657   89.05190277    0.05000000    0.09000000
   18.94111061   90.29759979    0.05000000    0.09000000
   18.94416618   87.35910034    0.05000000    0.09000000
   18.94749832   86.60929871    0.05000000    0.09000000
   18.95083427   87.35520172    0.05000000    0.09000000
   18.95388985   85.03520203    0.05000000    0.09000000
   18.95722389   89.15670013    0.05000000    0.09000000
   18.96027946   85.80429840    0.05000000    0.09000000
   18.96083450   92.03489685    0.05000000    0.09000000
   18.96694565   92.03489685    0.05000000    0.09000000
   18.97111130   85.30000305    0.05000000    0.09000000
   18.97416687   86.80509949    0.05000000    0.09000000
   18.97750092   87.30249786    0.05000000    0.09000000
   18.98083305   88.07080078    0.05000000    0.09000000
   18.98388863   85.32759857    0.05000000    0.09000000
   18.98722267   81.42720032    0.05000000    0.09000000
   18.99055672   85.79370117    0.05000000    0.09000000
   18.99361229   84.83300018    0.05000000    0.09000000
   18.99416733   82.72250366    0.05000000    0.09000000
   18.99749947   90.84420013    0.05000000    0.09000000
   19.00055504   87.34349823    0.05000000    0.09000000
   19.00388908   82.86280060    0.05000000    0.09000000
   19.00972176   82.86280060    0.05000000    0.09000000
   19.01388931   83.93959808    0.05000000    0.09000000
   19.01722145   86.55950165    0.05000000    0.09000000
   19.02027702   84.12090302    0.05000000    0.09000000
   19.02361107   84.80709839    0.05000000    0.09000000
   19.02666664   84.92030334    0.05000000    0.09000000
   19.02722168   84.88430023    0.05000000    0.09000000
   19.03055573   87.04779816    0.05000000    0.09000000
   19.03388786   86.47329712    0.05000000    0.09000000
   19.03694344   86.07939911    0.05000000    0.09000000
   19.04027748   84.21080017    0.05000000    0.09000000
   19.04333305   84.62249756    0.05000000    0.09000000
   19.04666710   82.71710205    0.05000000    0.09000000
   19.05277634   82.71710205    0.05000000    0.09000000
   19.05666542   86.51470184    0.05000000    0.09000000
   19.05999947   90.55229950    0.05000000    0.09000000
   19.06055450   91.70339966    0.05000000    0.09000000
   19.06361008   88.45210266    0.05000000    0.09000000
   19.06694603   84.90270233    0.05000000    0.09000000
   19.07000160   89.83110046    0.05000000    0.09000000
   19.07333374   91.34709930    0.05000000    0.09000000
   19.07638931   88.56520081    0.05000000    0.09000000
   19.07972336   86.96309662    0.05000000    0.09000000
   19.08277893   83.89240265    0.05000000    0.09000000
   19.08611107   88.42500305    0.05000000    0.09000000
   19.08944511   90.03929901    0.05000000    0.09000000
   19.09555626   90.03929901    0.05000000    0.09000000
   19.09972191   85.59960175    0.05000000    0.09000000
   19.10277748   87.72460175    0.05000000    0.09000000
   19.10611153   86.90190125    0.05000000    0.09000000
   19.10916710   84.63619995    0.05000000    0.09000000
   19.11250114   87.90390015    0.05000000    0.09000000
   19.11555672   86.19889832    0.05000000    0.09000000
   19.11888885   89.91429901    0.05000000    0.09000000
   19.12222290   87.73940277    0.05000000    0.09000000
   19.12527847   86.73130035    0.05000000    0.09000000
   19.12722206   87.10179901    0.05000000    0.09000000
   19.12888908   87.00399780    0.05000000    0.09000000
   19.13222313   88.28019714    0.05000000    0.09000000
   19.13833237   88.28019714    0.05000000    0.09000000
   19.14249992   88.16670227    0.05000000    0.09000000
   19.14555550   88.16919708    0.05000000    0.09000000
   19.14888954   87.08580017    0.05000000    0.09000000
   19.15222168   85.82199860    0.05000000    0.09000000
   19.15527725   85.70069885    0.05000000    0.09000000
   19.15861130   88.06710052    0.05000000    0.09000000
   19.16055489   86.01670074    0.05000000    0.09000000
   19.16222191   85.11599731    0.05000000    0.09000000
   19.16555595   85.82550049    0.05000000    0.09000000
   19.16860962   86.36350250    0.05000000    0.09000000
   19.17194366   85.39849854    0.05000000    0.09000000
   19.17499924   82.02449799    0.05000000    0.09000000
   19.18111038   82.02449799    0.05000000    0.09000000
   19.18527603   86.80359650    0.05000000    0.09000000
   19.18861008   85.75299835    0.05000000    0.09000000
   19.19166565   86.79019928    0.05000000    0.09000000
   19.19388771   82.62349701    0.05000000    0.09000000
   19.19527626   87.97630310    0.05000000    0.09000000
   19.19861031   84.57019806    0.05000000    0.09000000
   19.20166779   84.58750153    0.05000000    0.09000000
   19.20499992   85.26959991    0.05000000    0.09000000
   19.20805550   86.61309814    0.05000000    0.09000000
   19.21138954   86.13999939    0.05000000    0.09000000
   19.21444511   85.65809631    0.05000000    0.09000000
   19.21777916   87.17420197    0.05000000    0.09000000
   19.22416687   87.17420197    0.05000000    0.09000000
   19.22805595   85.10220337    0.05000000    0.09000000
   19.23139000   82.74259949    0.05000000    0.09000000
   19.23472214   89.41639709    0.05000000    0.09000000
   19.23777771   87.16539764    0.05000000    0.09000000
   19.24111176   91.91960144    0.05000000    0.09000000
   19.24416733   88.09600067    0.05000000    0.09000000
   19.24749947   83.79199982    0.05000000    0.09000000
   19.25055504   83.51219940    0.05000000    0.09000000
   19.25388908   86.66850281    0.05000000    0.09000000
   19.25694466   87.46970367    0.05000000    0.09000000
   19.26027870   90.34400177    0.05000000    0.09000000
   19.26083374   84.51760101    0.05000000    0.09000000
   19.26694489   84.51760101    0.05000000    0.09000000
   19.27111053   91.50129700    0.05000000    0.09000000
   19.27416611   87.33519745    0.05000000    0.09000000
   19.29388809   85.74890137    0.05000000    0.09000000
   19.29444313   85.95590210    0.05000000    0.09000000
   19.29722214   85.47139740    0.05000000    0.09000000
   19.30055428   85.59089661    0.05000000    0.09000000
   19.30388832   85.11560059    0.05000000    0.09000000
   19.30999947   85.11560059    0.05000000    0.09000000
   19.31416512   83.62670135    0.05000000    0.09000000
   19.31722260   87.48249817    0.05000000    0.09000000
   19.32055664   89.41560364    0.05000000    0.09000000
   19.32361221   89.20179749    0.05000000    0.09000000
   19.32694626   84.19779968    0.05000000    0.09000000
   19.32777786   87.08270264    0.05000000    0.09000000
   19.33027840   84.76950073    0.05000000    0.09000000
   19.33361244   85.36640167    0.05000000    0.09000000
   19.33694458   81.56240082    0.05000000    0.09000000
   19.34000015   81.05400085    0.05000000    0.09000000
   19.34333420   82.95800018    0.05000000    0.09000000
   19.34638977   83.12259674    0.05000000    0.09000000
   19.35277748   83.12259674    0.05000000    0.09000000
   19.35694504   81.47630310    0.05000000    0.09000000
   19.36000061   81.67780304    0.05000000    0.09000000
   19.36111069   89.30840302    0.05000000    0.09000000
   19.36361122   93.60910034    0.05000000    0.09000000
   19.36694527   88.69059753    0.05000000    0.09000000
   19.37027740   87.69139862    0.05000000    0.09000000
   19.37333298   88.51450348    0.05000000    0.09000000
   19.37666702   83.45659637    0.05000000    0.09000000
   19.37972260   86.02649689    0.05000000    0.09000000
   19.38305473   88.51139832    0.05000000    0.09000000
   19.38611031   88.57129669    0.05000000    0.09000000
   19.38944435   84.00160217    0.05000000    0.09000000
   19.39555550   84.00160217    0.05000000    0.09000000
   19.39972115   83.40460205    0.05000000    0.09000000
   19.40305519   86.38459778    0.05000000    0.09000000
   19.40611076   85.54160309    0.05000000    0.09000000
   19.40944481   84.21340179    0.05000000    0.09000000
   19.41250038   84.24130249    0.05000000    0.09000000
   19.41583252   85.73169708    0.05000000    0.09000000
   19.41888809   86.24559784    0.05000000    0.09000000
   19.42222214   89.08080292    0.05000000    0.09000000
   19.42555428   85.25990295    0.05000000    0.09000000
   19.42777634   80.82920074    0.05000000    0.09000000
   19.42888832   85.30020142    0.05000000    0.09000000
   19.43222237   87.25830078    0.05000000    0.09000000
   19.43861008   87.25830078    0.05000000    0.09000000
   19.44249916   86.93869781    0.05000000    0.09000000
   19.44583321   86.67289734    0.05000000    0.09000000
   19.44888878   87.64209747    0.05000000    0.09000000
   19.45222282   91.43840027    0.05000000    0.09000000
   19.45555687   87.62490082    0.05000000    0.09000000
   19.45861244   86.74340057    0.05000000    0.09000000
   19.46111107   85.07489777    0.05000000    0.09000000
   19.46222305   84.95359802    0.05000000    0.09000000
   19.46555710   85.71510315    0.05000000    0.09000000
   19.46888924   88.73220062    0.05000000    0.09000000
   19.47194481   88.89700317    0.05000000    0.09000000
   19.47527885   83.98870087    0.05000000    0.09000000
   19.48139000   83.98870087    0.05000000    0.09000000
   19.48555565   88.71240234    0.05000000    0.09000000
   19.48861122   87.12750244    0.05000000    0.09000000
   19.49194527   84.49179840    0.05000000    0.09000000
   19.49444389   80.15989685    0.05000000    0.09000000
   19.49527740   81.88639832    0.05000000    0.09000000
   19.49861145   79.39430237    0.05000000    0.09000000
   19.50194359   83.97899628    0.05000000    0.09000000
   19.50499916   82.81259918    0.05000000    0.09000000
   19.50833321   81.53170013    0.05000000    0.09000000
   19.51166725   84.25350189    0.05000000    0.09000000
   19.51472282   83.56169891    0.05000000    0.09000000
   19.51805496   88.69709778    0.05000000    0.09000000
   19.52416611   88.69709778    0.05000000    0.09000000
   19.52833366   81.55860138    0.05000000    0.09000000
   19.53138924   85.56950378    0.05000000    0.09000000
   19.53472137   90.51010132    0.05000000    0.09000000
   19.53805542   86.47799683    0.05000000    0.09000000
   19.54111099   84.13690186    0.05000000    0.09000000
   19.54444313   85.67279816    0.05000000    0.09000000
   19.54749870   84.77390289    0.05000000    0.09000000
   19.55083275   86.60279846    0.05000000    0.09000000
   19.55388832   87.21679688    0.05000000    0.09000000
   19.55722237   89.95069885    0.05000000    0.09000000
   19.56027794   83.59010315    0.05000000    0.09000000
   19.56110954   84.87629700    0.05000000    0.09000000
   19.56694603   84.87629700    0.05000000    0.09000000
   19.57111168   84.63189697    0.05000000    0.09000000
   19.57444572   82.93190002    0.05000000    0.09000000
   19.57750130   84.66580200    0.05000000    0.09000000
   19.58083344   83.36640167    0.05000000    0.09000000
   19.58388901   85.44439697    0.05000000    0.09000000
   19.58722305   80.20989990    0.05000000    0.09000000
   19.59027863   84.76429749    0.05000000    0.09000000
   19.59361267   88.12110138    0.05000000    0.09000000
   19.59444427   85.32910156    0.05000000    0.09000000
   19.59722328   82.67209625    0.05000000    0.09000000
   19.60027885   79.38259888    0.05000000    0.09000000
   19.60361099   80.81770325    0.05000000    0.09000000
   19.61000061   80.81770325    0.05000000    0.09000000
   19.61388969   83.08029938    0.05000000    0.09000000
   19.61722183   82.87840271    0.05000000    0.09000000
   19.62027740   79.25099945    0.05000000    0.09000000
   19.62361145   83.30480194    0.05000000    0.09000000
   19.62694550   79.70400238    0.05000000    0.09000000
   19.62777710   82.39479828    0.05000000    0.09000000
   19.63055611   83.27439880    0.05000000    0.09000000
   19.63361168   87.42849731    0.05000000    0.09000000
   19.63694382   90.29000092    0.05000000    0.09000000
   19.63999939   86.18080139    0.05000000    0.09000000
   19.64333344   86.70290375    0.05000000    0.09000000
   19.64638901   92.30989838    0.05000000    0.09000000
   19.65277672   92.30989838    0.05000000    0.09000000
   19.65694427   90.38849640    0.05000000    0.09000000
   19.65999985   84.19539642    0.05000000    0.09000000
   19.66110992   85.35140228    0.05000000    0.09000000
   19.66388893   86.79720306    0.05000000    0.09000000
   19.66694450   88.16899872    0.05000000    0.09000000
   19.67027664   84.93520355    0.05000000    0.09000000
   19.67333221   86.17389679    0.05000000    0.09000000
   19.67666626   82.97270203    0.05000000    0.09000000
   19.68000031   82.88980103    0.05000000    0.09000000
   19.68305397   85.62770081    0.05000000    0.09000000
   19.68638802   82.27429962    0.05000000    0.09000000
   19.68944359   82.39630127    0.05000000    0.09000000
   19.69555473   82.39630127    0.05000000    0.09000000
   19.69972038   80.80030060    0.05000000    0.09000000
   19.70277786   83.74199677    0.05000000    0.09000000
   19.70611191   82.11170197    0.05000000    0.09000000
   19.70944595   79.47660065    0.05000000    0.09000000
   19.71250153   81.66169739    0.05000000    0.09000000
   19.71583366   82.71469879    0.05000000    0.09000000
   19.71888924   86.21209717    0.05000000    0.09000000
   19.72222328   85.60350037    0.05000000    0.09000000
   19.72527885   86.30300140    0.05000000    0.09000000
   19.72777748   88.34069824    0.05000000    0.09000000
   19.72916794   82.03579712    0.05000000    0.09000000
   19.73222351   86.44589996    0.05000000    0.09000000
   19.73833275   86.44589996    0.05000000    0.09000000
   19.74250031   89.31880188    0.05000000    0.09000000
   19.74583435   86.07060242    0.05000000    0.09000000
   19.74888992   83.87619781    0.05000000    0.09000000
   19.75222206   80.01380157    0.05000000    0.09000000
   19.75527763   82.07260132    0.05000000    0.09000000
   19.75861168   78.49900055    0.05000000    0.09000000
   19.76111031   82.61340332    0.05000000    0.09000000
   19.76222229   84.40019989    0.05000000    0.09000000
   19.76527786   84.35399628    0.05000000    0.09000000
   19.76861000   78.58020020    0.05000000    0.09000000
   19.77166557   84.01029968    0.05000000    0.09000000
   19.77499962   81.72640228    0.05000000    0.09000000
   19.78138924   81.72640228    0.05000000    0.09000000
   19.78527641   82.36389923    0.05000000    0.09000000
   19.78861046   87.14800262    0.05000000    0.09000000
   19.79166603   85.57150269    0.05000000    0.09000000
   19.79444313   82.68229675    0.05000000    0.09000000
   19.79555511   84.86979675    0.05000000    0.09000000
   19.79861069   84.26110077    0.05000000    0.09000000
   19.80194283   82.24400330    0.05000000    0.09000000
   19.80499840   84.79090118    0.05000000    0.09000000
   19.80833244   84.73960114    0.05000000    0.09000000
   19.81138802   86.14350128    0.05000000    0.09000000
   19.81472206   85.51959991    0.05000000    0.09000000
   19.81805611   89.46499634    0.05000000    0.09000000
   19.82416725   89.46499634    0.05000000    0.09000000
   19.82833481   85.53890228    0.05000000    0.09000000
   19.83139038   83.85900116    0.05000000    0.09000000
   19.83472252   83.71289825    0.05000000    0.09000000
   19.83777809   85.27529907    0.05000000    0.09000000
   19.84111214   84.91660309    0.05000000    0.09000000
   19.84444427   89.84950256    0.05000000    0.09000000
   19.84749985   91.63719940    0.05000000    0.09000000
   19.85083389   87.44039917    0.05000000    0.09000000
   19.85388947   86.16600037    0.05000000    0.09000000
   19.85722351   85.01869965    0.05000000    0.09000000
   19.86027908   85.82180023    0.05000000    0.09000000
   19.86111069   83.29799652    0.05000000    0.09000000
   19.86694527   83.29799652    0.05000000    0.09000000
   19.87111092   88.26260376    0.05000000    0.09000000
   19.87416649   85.22720337    0.05000000    0.09000000
   19.87750053   86.18260193    0.05000000    0.09000000
   19.88083267   86.36779785    0.05000000    0.09000000
   19.88388824   85.68080139    0.05000000    0.09000000
   19.88722229   85.14759827    0.05000000    0.09000000
   19.89027786   87.49089813    0.05000000    0.09000000
   19.89361191   84.61150360    0.05000000    0.09000000
   19.89444351   89.82849884    0.05000000    0.09000000
   19.89722252   86.05110168    0.05000000    0.09000000
   19.90027809   89.90399933    0.05000000    0.09000000
   19.90361023   84.63849640    0.05000000    0.09000000
   19.90972137   84.63849640    0.05000000    0.09000000
   19.91388893   86.92729950    0.05000000    0.09000000
   19.91722107   87.45110321    0.05000000    0.09000000
   19.92027664   87.91840363    0.05000000    0.09000000
   19.92361069   83.71099854    0.05000000    0.09000000
   19.92666626   81.62969971    0.05000000    0.09000000
   19.92777634   86.73829651    0.05000000    0.09000000
   19.93055534   87.16919708    0.05000000    0.09000000
   19.93361092   89.21060181    0.05000000    0.09000000
   19.93694305   83.61609650    0.05000000    0.09000000
   19.93999863   85.18890381    0.05000000    0.09000000
   19.94333267   90.22910309    0.05000000    0.09000000
   19.94638824   85.39289856    0.05000000    0.09000000
   19.95277786   85.39289856    0.05000000    0.09000000
   19.95666695   89.07679749    0.05000000    0.09000000
   19.96000099   82.51640320    0.05000000    0.09000000
   19.96111107   90.46890259    0.05000000    0.09000000
   19.96361160   85.53250122    0.05000000    0.09000000
   19.96666718   87.67179871    0.05000000    0.09000000
   19.97000122   86.34690094    0.05000000    0.09000000
   19.97305679   84.09400177    0.05000000    0.09000000
   19.97638893   87.83560181    0.05000000    0.09000000
   19.97944450   87.17620087    0.05000000    0.09000000
   19.98277855   89.26470184    0.05000000    0.09000000
   19.98611069   83.57610321    0.05000000    0.09000000
   19.98916626   83.92030334    0.05000000    0.09000000
   19.99555588   83.92030334    0.05000000    0.09000000
   19.99972153   82.89170074    0.05000000    0.09000000
   20.00277710   85.48930359    0.05000000    0.09000000
   20.00611115   82.74770355    0.05000000    0.09000000
   20.00916672   83.11440277    0.05000000    0.09000000
   20.01250076   83.91780090    0.05000000    0.09000000
   20.01555634   81.52200317    0.05000000    0.09000000
   20.01888847   84.56590271    0.05000000    0.09000000
   20.02222252   86.58940125    0.05000000    0.09000000
   20.02527809   85.83010101    0.05000000    0.09000000
   20.02777672   86.56590271    0.05000000    0.09000000
   20.02888870   82.28410339    0.05000000    0.09000000
   20.03194427   86.75319672    0.05000000    0.09000000
   20.03833199   86.75319672    0.05000000    0.09000000
   20.04249954   83.71269989    0.05000000    0.09000000
   20.04555511   88.37429810    0.05000000    0.09000000
   20.04888916   83.81109619    0.05000000    0.09000000
   20.05222130   88.53720093    0.05000000    0.09000000
   20.05527687   88.92749786    0.05000000    0.09000000
   20.05861092   86.19159698    0.05000000    0.09000000
   20.06110954   85.88590240    0.05000000    0.09000000
   20.06222153   81.86920166    0.05000000    0.09000000
   20.06527710   83.78410339    0.05000000    0.09000000
   20.06861115   81.05339813    0.05000000    0.09000000
   20.07166672   83.56870270    0.05000000    0.09000000
   20.07500076   85.55259705    0.05000000    0.09000000
   20.08111191   85.55259705    0.05000000    0.09000000
   20.08527756   86.70890045    0.05000000    0.09000000
   20.08861160   79.50610352    0.05000000    0.09000000
   20.09166718   80.73439789    0.05000000    0.09000000
   20.09444427   82.52339935    0.05000000    0.09000000
   20.09527779   84.02950287    0.05000000    0.09000000
   20.09833336   83.82610321    0.05000000    0.09000000
   20.10166740   88.56809998    0.05000000    0.09000000
   20.10472298   86.84149933    0.05000000    0.09000000
   20.10805511   80.32910156    0.05000000    0.09000000
   20.11138916   85.19349670    0.05000000    0.09000000
   20.11444473   86.40070343    0.05000000    0.09000000
   20.11777878   91.57980347    0.05000000    0.09000000
   20.12416649   91.57980347    0.05000000    0.09000000
   20.12805557   87.08689880    0.05000000    0.09000000
   20.13138962   81.69709778    0.05000000    0.09000000
   20.13444519   90.03980255    0.05000000    0.09000000
   20.13777733   92.99089813    0.05000000    0.09000000
   20.14111137   88.24220276    0.05000000    0.09000000
   20.14416695   93.86399841    0.05000000    0.09000000
   20.14749908   82.57230377    0.05000000    0.09000000
   20.15055466   92.41600037    0.05000000    0.09000000
   20.15388870   82.48419952    0.05000000    0.09000000
   20.15694427   79.96080017    0.05000000    0.09000000
   20.16027832   83.73989868    0.05000000    0.09000000
   20.16110992   86.10659790    0.05000000    0.09000000
   20.16694450   86.10659790    0.05000000    0.09000000
   20.17111015   89.01979828    0.05000000    0.09000000
   20.17416573   90.70670319    0.05000000    0.09000000
   20.17749977   89.26930237    0.05000000    0.09000000
   20.18055534   84.43489838    0.05000000    0.09000000
   20.18388748   91.99800110    0.05000000    0.09000000
   20.18694305   91.80919647    0.05000000    0.09000000
   20.19027710   95.15249634    0.05000000    0.09000000
   20.19361115   89.63700104    0.05000000    0.09000000
   20.19444275   84.08450317    0.05000000    0.09000000
   20.19722176   90.79060364    0.05000000    0.09000000
   20.20027924   85.33070374    0.05000000    0.09000000
   20.20361137   83.07749939    0.05000000    0.09000000
   20.20972252   83.07749939    0.05000000    0.09000000
   20.21389008   85.11080170    0.05000000    0.09000000
   20.21694565   86.01429749    0.05000000    0.09000000
   20.22027779   86.34539795    0.05000000    0.09000000
   20.22361183   82.54769897    0.05000000    0.09000000
   20.22666740   86.97509766    0.05000000    0.09000000
   20.22777748   85.13449860    0.05000000    0.09000000
   20.23027802   82.29850006    0.05000000    0.09000000
   20.23333359   83.17780304    0.05000000    0.09000000
   20.23666763   84.16709900    0.05000000    0.09000000
   20.23972321   81.85089874    0.05000000    0.09000000
   20.24305534   83.97799683    0.05000000    0.09000000
   20.24638939   78.95680237    0.05000000    0.09000000
   20.25250053   78.95680237    0.05000000    0.09000000
   20.25666618   89.90380096    0.05000000    0.09000000
   20.26000023   85.45800018    0.05000000    0.09000000
   20.26111031   84.66020203    0.05000000    0.09000000
   20.26361084   88.92939758    0.05000000    0.09000000
   20.26666641   83.75050354    0.05000000    0.09000000
   20.27000046   84.55460358    0.05000000    0.09000000
   20.27305603   84.35649872    0.05000000    0.09000000
   20.27638817   83.95659637    0.05000000    0.09000000
   20.27972221   87.45279694    0.05000000    0.09000000
   20.28277779   83.33879852    0.05000000    0.09000000
   20.28610992   87.43450165    0.05000000    0.09000000
   20.28916550   91.84619904    0.05000000    0.09000000
   20.31110954   67.74569702    0.05000000    0.09000000
   20.31166649   67.60870361    0.05000000    0.09000000
   20.31472206   84.14189911    0.05000000    0.09000000
   20.31805611   83.13700104    0.05000000    0.09000000
   20.32111168   86.51930237    0.05000000    0.09000000
   20.32444572   82.78549957    0.05000000    0.09000000
   20.32777786   85.91560364    0.05000000    0.09000000
   20.32805634   82.96749878    0.05000000    0.09000000
   20.33139038   80.17849731    0.05000000    0.09000000
   20.33833313   80.17849731    0.05000000    0.09000000
   20.34250069   85.04360199    0.05000000    0.09000000
   20.34555626   86.08119965    0.05000000    0.09000000
   20.34889030   87.07510376    0.05000000    0.09000000
   20.35194397   82.92669678    0.05000000    0.09000000
   20.35527802   86.14790344    0.05000000    0.09000000
   20.35833359   88.93309784    0.05000000    0.09000000
   20.36138916   87.89859772    0.05000000    0.09000000
   20.36194420   88.41570282    0.05000000    0.09000000
   20.36527824   85.16130066    0.05000000    0.09000000
   20.36833382   80.41929626    0.05000000    0.09000000
   20.37166595   84.12519836    0.05000000    0.09000000
   20.37472153   88.82830048    0.05000000    0.09000000
   20.38111115   88.82830048    0.05000000    0.09000000
   20.38527679   82.77339935    0.05000000    0.09000000
   20.38833237   84.92240143    0.05000000    0.09000000
   20.39166641   84.31780243    0.05000000    0.09000000
   20.39500046   88.94969940    0.05000000    0.09000000
   20.39527702   90.17310333    0.05000000    0.09000000
   20.39861107   87.61920166    0.05000000    0.09000000
   20.40166664   93.15239716    0.05000000    0.09000000
   20.40499878   84.24520111    0.05000000    0.09000000
   20.40805435   86.11499786    0.05000000    0.09000000
   20.41138840   84.72250366    0.05000000    0.09000000
   20.41444397   86.78440094    0.05000000    0.09000000
   20.41777802   85.13300323    0.05000000    0.09000000
   20.42388916   85.13300323    0.05000000    0.09000000
   20.42805481   88.35330200    0.05000000    0.09000000
   20.42860985   80.95210266    0.05000000    0.09000000
   20.43194389   88.66639709    0.05000000    0.09000000
   20.43499947   84.11820221    0.05000000    0.09000000
   20.43833160   86.13289642    0.05000000    0.09000000
   20.44138718   82.99269867    0.05000000    0.09000000
   20.44472122   84.27760315    0.05000000    0.09000000
   20.44777679   86.07289886    0.05000000    0.09000000
   20.45111275   83.98300171    0.05000000    0.09000000
   20.45444489   85.29450226    0.05000000    0.09000000
   20.45750046   87.40670013    0.05000000    0.09000000
   20.46083450   87.25969696    0.05000000    0.09000000
   20.46194458   86.95300293    0.05000000    0.09000000
   20.46694565   86.95300293    0.05000000    0.09000000
   20.47083473   83.90480042    0.05000000    0.09000000
   20.47416687   87.95899963    0.05000000    0.09000000
   20.47722244   86.70449829    0.05000000    0.09000000
   20.48055649   84.78469849    0.05000000    0.09000000
   20.48388863   88.41850281    0.05000000    0.09000000
   20.48694420   92.97959900    0.05000000    0.09000000
   20.49027824   88.06809998    0.05000000    0.09000000
   20.49333382   87.44580078    0.05000000    0.09000000
   20.49527740   87.93499756    0.05000000    0.09000000
   20.49722290   86.42250061    0.05000000    0.09000000
   20.50027847   87.85649872    0.05000000    0.09000000
   20.50361061   88.63200378    0.05000000    0.09000000
   20.50972176   88.63200378    0.05000000    0.09000000
   20.51388931   84.60430145    0.05000000    0.09000000
   20.51694489   92.45349884    0.05000000    0.09000000
   20.52027702   85.76490021    0.05000000    0.09000000
   20.52333260   89.57270050    0.05000000    0.09000000
   20.52666664   83.90840149    0.05000000    0.09000000
   20.52861023   84.25090027    0.05000000    0.09000000
   20.53027725   86.10209656    0.05000000    0.09000000
   20.53333282   86.85230255    0.05000000    0.09000000
   20.53666687   80.82779694    0.05000000    0.09000000
   20.53972244   89.87110138    0.05000000    0.09000000
   20.54305458   86.43379974    0.05000000    0.09000000
   20.54611015   83.73770142    0.05000000    0.09000000
   20.55249977   83.73770142    0.05000000    0.09000000
   20.55666542   87.26750183    0.05000000    0.09000000
   20.55972099   85.86530304    0.05000000    0.09000000
   20.56194305   89.83750153    0.05000000    0.09000000
   20.56361008   82.06210327    0.05000000    0.09000000
   20.56666756   84.17579651    0.05000000    0.09000000
   20.57000160   85.65039825    0.05000000    0.09000000
   20.57305717   81.73210144    0.05000000    0.09000000
   20.57638931   86.23179626    0.05000000    0.09000000
   20.57972336   84.62920380    0.05000000    0.09000000
   20.58277893   85.56629944    0.05000000    0.09000000
   20.58611107   87.90809631    0.05000000    0.09000000
   20.58916664   87.38809967    0.05000000    0.09000000
   20.59527779   87.38809967    0.05000000    0.09000000
   20.59944534   82.95290375    0.05000000    0.09000000
   20.60277748   82.48600006    0.05000000    0.09000000
   20.60583305   83.84110260    0.05000000    0.09000000
   20.60916710   87.00730133    0.05000000    0.09000000
   20.61222267   84.09369659    0.05000000    0.09000000
   20.61555672   82.83660126    0.05000000    0.09000000
   20.61861038   79.43679810    0.05000000    0.09000000
   20.62194443   83.31770325    0.05000000    0.09000000
   20.62527847   85.48020172    0.05000000    0.09000000
   20.62833405   87.89520264    0.05000000    0.09000000
   20.62888908   82.37969971    0.05000000    0.09000000
   20.63222313   88.43379974    0.05000000    0.09000000
   20.63833237   88.43379974    0.05000000    0.09000000
   20.64222145   87.94770050    0.05000000    0.09000000
   20.64555550   85.15000153    0.05000000    0.09000000
   20.64861107   83.14620209    0.05000000    0.09000000
   20.65194321   88.18879700    0.05000000    0.09000000
   20.65527725   86.41680145    0.05000000    0.09000000
   20.65833282   85.91410065    0.05000000    0.09000000
   20.66166687   90.29080200    0.05000000    0.09000000
   20.66222191   82.74629974    0.05000000    0.09000000
   20.66527748   88.35959625    0.05000000    0.09000000
   20.66833305   85.47640228    0.05000000    0.09000000
   20.67166519   85.84999847    0.05000000    0.09000000
   20.67472076   89.64489746    0.05000000    0.09000000
   20.68111038   89.64489746    0.05000000    0.09000000
   20.68527603   90.26959991    0.05000000    0.09000000
   20.68833160   88.88849640    0.05000000    0.09000000
   20.69166565   85.25189972    0.05000000    0.09000000
   20.69472122   92.17440033    0.05000000    0.09000000
   20.69555473   93.31400299    0.05000000    0.09000000
   20.69861031   87.14929962    0.05000000    0.09000000
   20.70166779   89.22440338    0.05000000    0.09000000
   20.70499992   88.31240082    0.05000000    0.09000000
   20.70805550   85.27200317    0.05000000    0.09000000
   20.71138954   89.84079742    0.05000000    0.09000000
   20.71472359   85.98509979    0.05000000    0.09000000
   20.71777916   93.15499878    0.05000000    0.09000000
   20.72389030   93.15499878    0.05000000    0.09000000
   20.72805595   93.74990082    0.05000000    0.09000000
   20.72888947   87.34459686    0.05000000    0.09000000
   20.73166656   90.08119965    0.05000000    0.09000000
   20.73472214   90.01000214    0.05000000    0.09000000
   20.73805618   91.29299927    0.05000000    0.09000000
   20.74111176   92.77459717    0.05000000    0.09000000
   20.74444389  101.40799713    0.05000000    0.09000000
   20.74777794   92.35070038    0.05000000    0.09000000
   20.75083351   91.44049835    0.05000000    0.09000000
   20.75416756   96.85600281    0.05000000    0.09000000
   20.75722313   82.72910309    0.05000000    0.09000000
   20.76055527   87.82039642    0.05000000    0.09000000
   20.76222229   98.97519684    0.05000000    0.09000000
   20.76666641   98.97519684    0.05000000    0.09000000
   20.77083397   90.29160309    0.05000000    0.09000000
   20.77416611   84.79409790    0.05000000    0.09000000
   20.77722168   84.12969971    0.05000000    0.09000000
   20.78055573   88.61630249    0.05000000    0.09000000
   20.78388786   84.79180145    0.05000000    0.09000000
   20.78694344   87.18609619    0.05000000    0.09000000
   20.79027748   85.81980133    0.05000000    0.09000000
   20.79333305   84.84989929    0.05000000    0.09000000
   20.79555511   84.69049835    0.05000000    0.09000000
   20.79722214   86.41680145    0.05000000    0.09000000
   20.80027771   86.53780365    0.05000000    0.09000000
   20.80360985   87.24600220    0.05000000    0.09000000
   20.80972099   87.24600220    0.05000000    0.09000000
   20.81361008   88.42859650    0.05000000    0.09000000
   20.81694603   86.60690308    0.05000000    0.09000000
   20.82000160   88.56980133    0.05000000    0.09000000
   20.82333374   84.78399658    0.05000000    0.09000000
   20.82666779   86.84559631    0.05000000    0.09000000
   20.82888985   85.52649689    0.05000000    0.09000000
   20.83027840   87.55249786    0.05000000    0.09000000
   20.83333397   81.72019958    0.05000000    0.09000000
   20.83666801   84.34880066    0.05000000    0.09000000
   20.83972359   88.95680237    0.05000000    0.09000000
   20.84305573   86.73519897    0.05000000    0.09000000
   20.84638977   85.34149933    0.05000000    0.09000000
   20.85250092   85.34149933    0.05000000    0.09000000
   20.85666656   87.68080139    0.05000000    0.09000000
   20.85972214   87.14869690    0.05000000    0.09000000
   20.86222267   86.43129730    0.05000000    0.09000000
   20.86333466   85.66290283    0.05000000    0.09000000
   20.86638832   87.65440369    0.05000000    0.09000000
   20.86972237   86.37270355    0.05000000    0.09000000
   20.87277794   90.42079926    0.05000000    0.09000000
   20.87611198   88.49790192    0.05000000    0.09000000
   20.87944412   88.88909912    0.05000000    0.09000000
   20.88249969   89.82499695    0.05000000    0.09000000
   20.88583374   90.34169769    0.05000000    0.09000000
   20.88888931   89.41819763    0.05000000    0.09000000
   20.89527702   89.41819763    0.05000000    0.09000000
   20.89944458   95.00740051    0.05000000    0.09000000
   20.90250015   88.37319946    0.05000000    0.09000000
   20.90583229   87.18470001    0.05000000    0.09000000
   20.90888786   91.49330139    0.05000000    0.09000000
   20.91222191   88.85739899    0.05000000    0.09000000
   20.91555595   86.29329681    0.05000000    0.09000000
   20.91860962   91.84249878    0.05000000    0.09000000
   20.92194366   99.60500336    0.05000000    0.09000000
   20.92499924   92.19490051    0.05000000    0.09000000
   20.92833328   87.86869812    0.05000000    0.09000000
   20.93027687   87.15149689    0.05000000    0.09000000
   20.93194389   88.79959869    0.05000000    0.09000000
   20.93805504   88.79959869    0.05000000    0.09000000
   20.94222069   97.26429749    0.05000000    0.09000000
   20.94555473   88.10079956    0.05000000    0.09000000
   20.94861031   86.23539734    0.05000000    0.09000000
   20.95194435   86.83080292    0.05000000    0.09000000
   20.95499992   87.35769653    0.05000000    0.09000000
   20.95833397   88.07939911    0.05000000    0.09000000
   20.96138954   82.32920074    0.05000000    0.09000000
   20.96361160   87.98470306    0.05000000    0.09000000
   20.96527863   84.60910034    0.05000000    0.09000000
   20.96833420   85.08480072    0.05000000    0.09000000
   20.97166634   87.82820129    0.05000000    0.09000000
   20.97472191   85.72149658    0.05000000    0.09000000
   20.98111153   85.72149658    0.05000000    0.09000000
   20.98500061   87.06120300    0.05000000    0.09000000
   20.98833275   86.47979736    0.05000000    0.09000000
   20.99138832   79.21489716    0.05000000    0.09000000
   20.99472237   86.22000122    0.05000000    0.09000000
   20.99722290   83.95709991    0.05000000    0.09000000
   20.99805641   86.11309814    0.05000000    0.09000000
   21.00138855   87.78079987    0.05000000    0.09000000
   21.00472260   86.91069794    0.05000000    0.09000000
   21.00777817   87.24530029    0.05000000    0.09000000
   21.01111031   91.57180023    0.05000000    0.09000000
   21.01416588   86.51280212    0.05000000    0.09000000
   21.01749992   88.25720215    0.05000000    0.09000000
   21.02388954   88.25720215    0.05000000    0.09000000
   21.02805519   89.07710266    0.05000000    0.09000000
   21.03055573   89.33969879    0.05000000    0.09000000
   21.03166580   91.14150238    0.05000000    0.09000000
   21.03472137   89.35880280    0.05000000    0.09000000
   21.03805542   90.90519714    0.05000000    0.09000000
   21.04111099   89.21080017    0.05000000    0.09000000
   21.04444313   83.35189819    0.05000000    0.09000000
   21.04749870   86.04060364    0.05000000    0.09000000
   21.05083275   88.85189819    0.05000000    0.09000000
   21.05388832   83.81569672    0.05000000    0.09000000
   21.05722237   84.41600037    0.05000000    0.09000000
   21.06055450   92.81490326    0.05000000    0.09000000
   21.06666756   92.81490326    0.05000000    0.09000000
   21.07083511   86.49269867    0.05000000    0.09000000
   21.07389069   90.33059692    0.05000000    0.09000000
   21.07722282   87.70240021    0.05000000    0.09000000
   21.08055687   87.96970367    0.05000000    0.09000000
   21.08361244   89.16660309    0.05000000    0.09000000
   21.08694458   88.75150299    0.05000000    0.09000000
   21.09000015   93.14479828    0.05000000    0.09000000
   21.09333420   87.55419922    0.05000000    0.09000000
   21.09638977   97.11100006    0.05000000    0.09000000
   21.09749985   88.80359650    0.05000000    0.09000000
   21.10027885   90.68199921    0.05000000    0.09000000
   21.10333443   86.09780121    0.05000000    0.09000000
   21.10944557   86.09780121    0.05000000    0.09000000
   21.11361122   88.78170013    0.05000000    0.09000000
   21.11694527   93.25430298    0.05000000    0.09000000
   21.12000084   87.84410095    0.05000000    0.09000000
   21.12333298   87.44509888    0.05000000    0.09000000
   21.12638855   88.65290070    0.05000000    0.09000000
   21.12972260   90.87529755    0.05000000    0.09000000
   21.13083267   88.58489990    0.05000000    0.09000000
   21.13333321   84.84239960    0.05000000    0.09000000
   21.13638878   89.90070343    0.05000000    0.09000000
   21.13972282   87.61000061    0.05000000    0.09000000
   21.14305496   91.30970001    0.05000000    0.09000000
   21.14611053   92.14769745    0.05000000    0.09000000
   21.15222168   92.14769745    0.05000000    0.09000000
   21.15638924   94.38359833    0.05000000    0.09000000
   21.15972137   88.10449982    0.05000000    0.09000000
   21.16277695   95.15100098    0.05000000    0.09000000
   21.16444397   90.01499939    0.05000000    0.09000000
   21.16666603   89.10949707    0.05000000    0.09000000
   21.16972160   86.49130249    0.05000000    0.09000000
   21.17305565   87.35459900    0.05000000    0.09000000
   21.17611122   87.69319916    0.05000000    0.09000000
   21.17944336   84.75910187    0.05000000    0.09000000
   21.18249893   90.42209625    0.05000000    0.09000000
   21.18583298   93.63150024    0.05000000    0.09000000
   21.18916512   87.98249817    0.05000000    0.09000000
   21.19527626   87.98249817    0.05000000    0.09000000
   21.19944382   89.47080231    0.05000000    0.09000000
   21.20250130   90.29989624    0.05000000    0.09000000
   21.20583344   85.87719727    0.05000000    0.09000000
   21.20888901   86.99430084    0.05000000    0.09000000
   21.21222305   86.89800262    0.05000000    0.09000000
   21.21527863   92.10119629    0.05000000    0.09000000
   21.21861076   86.92870331    0.05000000    0.09000000
   21.22194481   88.40689850    0.05000000    0.09000000
   21.22500038   94.30960083    0.05000000    0.09000000
   21.22833443   86.13980103    0.05000000    0.09000000
   21.23111153   87.97290039    0.05000000    0.09000000
   21.23194504   93.00389862    0.05000000    0.09000000
   21.23805618   93.00389862    0.05000000    0.09000000
   21.24222183   84.21369934    0.05000000    0.09000000
   21.24527740   90.00279999    0.05000000    0.09000000
   21.24861145   88.64820099    0.05000000    0.09000000
   21.25166702   88.80760193    0.05000000    0.09000000
   21.25499916   87.97419739    0.05000000    0.09000000
   21.25833321   89.52239990    0.05000000    0.09000000
   21.26138878   94.29010010    0.05000000    0.09000000
   21.26444435   99.48269653    0.05000000    0.09000000
   21.26527786   91.60780334    0.05000000    0.09000000
   21.26833344   84.03099823    0.05000000    0.09000000
   21.27166557   88.43399811    0.05000000    0.09000000
   21.27472115   89.31960297    0.05000000    0.09000000
   21.28083229   89.31960297    0.05000000    0.09000000
   21.28499985   86.40879822    0.05000000    0.09000000
   21.28833199   88.12650299    0.05000000    0.09000000
   21.29138756   92.65579987    0.05000000    0.09000000
   21.29472160   93.00499725    0.05000000    0.09000000
   21.29777718   95.10679626    0.05000000    0.09000000
   21.29833221   89.53630066    0.05000000    0.09000000
   21.30138779   87.80339813    0.05000000    0.09000000
   21.30472183   92.14869690    0.05000000    0.09000000
   21.30777740   93.60530090    0.05000000    0.09000000
   21.31110954   88.09239960    0.05000000    0.09000000
   21.33166695   88.09239960    0.05000000    0.09000000
   21.33583450   91.31490326    0.05000000    0.09000000
   21.33916664   93.57589722    0.05000000    0.09000000
   21.34222221   92.00379944    0.05000000    0.09000000
   21.34555626   95.45310211    0.05000000    0.09000000
   21.34861183   88.70200348    0.05000000    0.09000000
   21.35194397   96.30239868    0.05000000    0.09000000
   21.35527802   90.70749664    0.05000000    0.09000000
   21.35833359   89.53389740    0.05000000    0.09000000
   21.36166763   94.80680084    0.05000000    0.09000000
   21.36472321   91.73809814    0.05000000    0.09000000
   21.36527824   90.68609619    0.05000000    0.09000000
   21.36833382   90.93399811    0.05000000    0.09000000
   21.37444496   90.93399811    0.05000000    0.09000000
   21.37861061   91.04149628    0.05000000    0.09000000
   21.38194466   88.66809845    0.05000000    0.09000000
   21.38500023   89.59490204    0.05000000    0.09000000
   21.38833237   86.55139923    0.05000000    0.09000000
   21.39138794   91.99810028    0.05000000    0.09000000
   21.39472198   87.49189758    0.05000000    0.09000000
   21.39777756   89.33360291    0.05000000    0.09000000
   21.39833260   87.66999817    0.05000000    0.09000000
   21.40166664   94.15380096    0.05000000    0.09000000
   21.40472221   93.65399933    0.05000000    0.09000000
   21.40805435   86.84269714    0.05000000    0.09000000
   21.41138840   95.69740295    0.05000000    0.09000000
   21.41722107   95.69740295    0.05000000    0.09000000
   21.42138863   89.67040253    0.05000000    0.09000000
   21.42472076   84.49970245    0.05000000    0.09000000
   21.42777634   93.82230377    0.05000000    0.09000000
   21.43111038   82.61979675    0.05000000    0.09000000
   21.43166542   93.72850037    0.05000000    0.09000000
   21.43472099   86.02809906    0.05000000    0.09000000
   21.43805504   90.39369965    0.05000000    0.09000000
   21.44111061   87.46929932    0.05000000    0.09000000
   21.44444275   84.20570374    0.05000000    0.09000000
   21.44749832   93.70059967    0.05000000    0.09000000
   21.45083427   91.23899841    0.05000000    0.09000000
   21.45388985   89.54589844    0.05000000    0.09000000
   21.46027946   89.54589844    0.05000000    0.09000000
   21.46416664   97.24430084    0.05000000    0.09000000
   21.46500015   95.73280334    0.05000000    0.09000000
   21.46805573   95.69149780    0.05000000    0.09000000
   21.47138977   98.57969666    0.05000000    0.09000000
   21.47444534   96.39459991    0.05000000    0.09000000
   21.47777748   96.09120178    0.05000000    0.09000000
   21.48083305   91.41840363    0.05000000    0.09000000
   21.48416710   92.97660065    0.05000000    0.09000000
   21.48722267   90.37819672    0.05000000    0.09000000
   21.49055672   92.07050323    0.05000000    0.09000000
   21.49361229   91.52079773    0.05000000    0.09000000
   21.49694443   91.61090088    0.05000000    0.09000000
   21.49833298   85.41719818    0.05000000    0.09000000
   21.50305557   85.41719818    0.05000000    0.09000000
   21.50722313   90.74530029    0.05000000    0.09000000
   21.51027870   88.31410217    0.05000000    0.09000000
   21.51361084   94.26490021    0.05000000    0.09000000
   21.51666641   88.15149689    0.05000000    0.09000000
   21.52000046   88.28690338    0.05000000    0.09000000
   21.52333260   90.81410217    0.05000000    0.09000000
   21.52638817   92.23410034    0.05000000    0.09000000
   21.52972221  104.19100189    0.05000000    0.09000000
   21.53166580   90.52069855    0.05000000    0.09000000
   21.53333282   97.82610321    0.05000000    0.09000000
   21.53666687   94.58499908    0.05000000    0.09000000
   21.53972244   97.45159912    0.05000000    0.09000000
   21.54583359   97.45159912    0.05000000    0.09000000
   21.54999924   98.35759735    0.05000000    0.09000000
   21.55333328   97.80909729    0.05000000    0.09000000
   21.55638885  100.95500183    0.05000000    0.09000000
   21.55972099   96.46779633    0.05000000    0.09000000
   21.56277657   92.95020294    0.05000000    0.09000000
   21.56499863   95.81210327    0.05000000    0.09000000
   21.56638718   92.29419708    0.05000000    0.09000000
   21.56972313   88.26319885    0.05000000    0.09000000
   21.57277870   89.84259796    0.05000000    0.09000000
   21.57611275   92.41870117    0.05000000    0.09000000
   21.57916832   86.70529938    0.05000000    0.09000000
   21.58250046   96.75969696    0.05000000    0.09000000
   21.58861160   96.75969696    0.05000000    0.09000000
   21.59277916   92.95169830    0.05000000    0.09000000
   21.59611130   91.90950012    0.05000000    0.09000000
   21.59833336   98.71659851    0.05000000    0.09000000
   21.59972191  100.63500214    0.05000000    0.09000000
   21.60305595   86.75199890    0.05000000    0.09000000
   21.60611153   96.21990204    0.05000000    0.09000000
   21.60944557   91.26789856    0.05000000    0.09000000
   21.61250114   92.96970367    0.05000000    0.09000000
   21.61583328   92.15730286    0.05000000    0.09000000
   21.61888885   90.56430054    0.05000000    0.09000000
   21.62222290   85.67169952    0.05000000    0.09000000
   21.62555504   94.16079712    0.05000000    0.09000000
   21.63166618   94.16079712    0.05000000    0.09000000
   21.63583374   88.53769684    0.05000000    0.09000000
   21.63888931   90.39830017    0.05000000    0.09000000
   21.64222145   96.12239838    0.05000000    0.09000000
   21.64527702   87.37660217    0.05000000    0.09000000
   21.64861107   87.31880188    0.05000000    0.09000000
   21.65194321   91.87969971    0.05000000    0.09000000
   21.65499878   95.86440277    0.05000000    0.09000000
   21.65833282   94.97889709    0.05000000    0.09000000
   21.66138840   88.46250153    0.05000000    0.09000000
   21.66472244   91.42780304    0.05000000    0.09000000
   21.66666603   93.76679993    0.05000000    0.09000000
   21.66833305   92.43170166    0.05000000    0.09000000
   21.67444420   92.43170166    0.05000000    0.09000000
   21.67860985   92.75080109    0.05000000    0.09000000
   21.68166542   91.81890106    0.05000000    0.09000000
   21.68499947   90.88150024    0.05000000    0.09000000
   21.68833160   86.50579834    0.05000000    0.09000000
   21.69138718   95.23699951    0.05000000    0.09000000
   21.69472122   86.06040192    0.05000000    0.09000000
   21.69777679   90.29149628    0.05000000    0.09000000
   21.70000076   88.10230255    0.05000000    0.09000000
   21.70166779   93.52490234    0.05000000    0.09000000
   21.70472336   92.33830261    0.05000000    0.09000000
   21.70805550   87.64140320    0.05000000    0.09000000
   21.71111107   89.26519775    0.05000000    0.09000000
   21.71722221   89.26519775    0.05000000    0.09000000
   21.72138977  100.70999908    0.05000000    0.09000000
   21.72472191   97.48010254    0.05000000    0.09000000
   21.72777748   86.48410034    0.05000000    0.09000000
   21.73111153   91.66760254    0.05000000    0.09000000
   21.73361206   90.37470245    0.05000000    0.09000000
   21.73444557   90.48590088    0.05000000    0.09000000
   21.73777771   89.42819977    0.05000000    0.09000000
   21.74083328   95.71779633    0.05000000    0.09000000
   21.74416733   91.21340179    0.05000000    0.09000000
   21.74722290   91.50119781    0.05000000    0.09000000
   21.75055504   97.62889862    0.05000000    0.09000000
   21.75388908   92.35739899    0.05000000    0.09000000
   21.76027870   92.35739899    0.05000000    0.09000000
   21.76416588   97.59559631    0.05000000    0.09000000
   21.76694489  100.30899811    0.05000000    0.09000000
   21.76777840   95.08969879    0.05000000    0.09000000
   21.77111053  100.09799957    0.05000000    0.09000000
   21.77416611   94.27500153    0.05000000    0.09000000
   21.77750015   96.96160126    0.05000000    0.09000000
   21.78083229   98.70780182    0.05000000    0.09000000
   21.78388786   95.16770172    0.05000000    0.09000000
   21.78722191   99.40409851    0.05000000    0.09000000
   21.79027748   96.71469879    0.05000000    0.09000000
   21.79361153   92.97200012    0.05000000    0.09000000
   21.79666710  101.21399689    0.05000000    0.09000000
   21.80305481  101.21399689    0.05000000    0.09000000
   21.80722237   94.80249786    0.05000000    0.09000000
   21.81027794   91.73870087    0.05000000    0.09000000
   21.81361008   91.62840271    0.05000000    0.09000000
   21.81666756   94.77380371    0.05000000    0.09000000
   21.82000160   96.06780243    0.05000000    0.09000000
   21.82305717  103.91500092    0.05000000    0.09000000
   21.82638931   91.19989777    0.05000000    0.09000000
   21.82944489   95.55519867    0.05000000    0.09000000
   21.83277893   95.79889679    0.05000000    0.09000000
   21.83388901   91.66100311    0.05000000    0.09000000
   21.83638954  102.44200134    0.05000000    0.09000000
   21.83944511   97.85690308    0.05000000    0.09000000
   21.84583473   97.85690308    0.05000000    0.09000000
   21.85000038  105.26000214    0.05000000    0.09000000
   21.85305595  103.28600311    0.05000000    0.09000000
   21.85639000   94.24220276    0.05000000    0.09000000
   21.85972214   96.19010162    0.05000000    0.09000000
   21.86277771  104.86199951    0.05000000    0.09000000
   21.86611176  107.23300171    0.05000000    0.09000000
   21.86722183   94.71749878    0.05000000    0.09000000
   21.86972237   94.20040131    0.05000000    0.09000000
   21.87277794  101.42500305    0.05000000    0.09000000
   21.87611198   99.58670044    0.05000000    0.09000000
   21.87916756   96.22609711    0.05000000    0.09000000
   21.88249969  100.51100159    0.05000000    0.09000000
   21.88861084  100.51100159    0.05000000    0.09000000
   21.89277840   95.08529663    0.05000000    0.09000000
   21.89611053  100.33499908    0.05000000    0.09000000
   21.89916611   99.98300171    0.05000000    0.09000000
   21.90083313  104.06600189    0.05000000    0.09000000
   21.90277672   95.02249908    0.05000000    0.09000000
   21.90611076  101.19400024    0.05000000    0.09000000
   21.90916634   98.53690338    0.05000000    0.09000000
   21.91250038   97.36979675    0.05000000    0.09000000
   21.91583252   94.60679626    0.05000000    0.09000000
   21.91888809   93.61380005    0.05000000    0.09000000
   21.92222214   99.54290009    0.05000000    0.09000000
   21.92527771   96.19619751    0.05000000    0.09000000
   21.93166542   96.19619751    0.05000000    0.09000000
   21.93555450   95.76879883    0.05000000    0.09000000
   21.93888855  100.94799805    0.05000000    0.09000000
   21.94194412  100.54000092    0.05000000    0.09000000
   21.94527626  102.02500153    0.05000000    0.09000000
   21.94861031  107.86900330    0.05000000    0.09000000
   21.95166779  110.05899811    0.05000000    0.09000000
   21.95499992  107.02100372    0.05000000    0.09000000
   21.95805550   97.85109711    0.05000000    0.09000000
   21.96138954   92.15190125    0.05000000    0.09000000
   21.96444511  103.63600159    0.05000000    0.09000000
   21.96750069   98.95369720    0.05000000    0.09000000
   21.96805573  103.10299683    0.05000000    0.09000000
   21.97444534  103.10299683    0.05000000    0.09000000
   21.97861099  108.48400116    0.05000000    0.09000000
   21.98166656   92.59600067    0.05000000    0.09000000
   21.98500061   92.79669952    0.05000000    0.09000000
   21.98805618   95.43969727    0.05000000    0.09000000
   21.99138832   95.73139954    0.05000000    0.09000000
   21.99472237   97.49690247    0.05000000    0.09000000
   21.99777794   93.71489716    0.05000000    0.09000000
   22.00083351   94.91729736    0.05000000    0.09000000
   22.00166702   93.11479950    0.05000000    0.09000000
   22.00499916   94.74569702    0.05000000    0.09000000
   22.00833321   93.37129974    0.05000000    0.09000000
   22.01138878  105.20500183    0.05000000    0.09000000
   22.01722145  105.20500183    0.05000000    0.09000000
   22.02194405  113.57499695    0.05000000    0.09000000
   22.02527809  159.84300232    0.05000000    0.09000000
   22.02861023  172.61999512    0.05000000    0.09000000
   22.03194427  218.43600464    0.05000000    0.09000000
   22.03416634  115.65799713    0.05000000    0.09000000
   22.03527641   -1.00000000    0.05000000    0.09000000
