    HOUR (UT)   FLARE FACTOR    SKY TESTER    SUN TESTER
   11.12388897   -1.00000000   -1.00000000   -1.00000000
   11.29833412  100.92099762    4.07999992    2.36999989
   11.30138874   98.76650238    4.05999994    2.34999990
   11.30472279  118.25099945    4.05999994    2.34999990
   11.30805588  114.48799896    4.05999994    2.36999989
   11.31111145  100.88600159    4.05999994    2.36999989
   11.31444454  106.97799683    4.03999996    2.36999989
   11.31861115  106.97799683    4.03999996    2.36999989
   11.32277775  101.18399811    4.01999998    2.36999989
   11.32583332  106.33599854    4.01999998    2.36999989
   11.32916641  111.54000092    4.01999998    2.36999989
   11.33138847  106.31400299    4.00000000    2.36999989
   11.33277798  116.26100159    4.00000000    2.36999989
   11.33611107   92.62480164    3.99000001    2.36999989
   11.33916664  108.79299927    3.99000001    2.36999989
   11.34249973  106.18399811    3.99000001    2.36999989
   11.34583282  100.54699707    3.99000001    2.36999989
   11.34888840   96.26180267    3.99000001    2.36999989
   11.35222244   94.24389648    3.97000003    2.36999989
   11.35527802   95.41799927    3.97000003    2.36999989
   11.36138916   95.41799927    3.95000005    2.39000010
   11.36555576   86.42040253    3.95000005    2.39000010
   11.36861134   91.31250000    3.95000005    2.39000010
   11.37194443   92.03119659    3.95000005    2.39000010
   11.37527752   94.75029755    3.93000007    2.39000010
   11.37833309  103.30200195    3.91000009    2.39000010
   11.38166714   87.98059845    3.93000007    2.39000010
   11.38500023  100.44999695    3.91000009    2.39000010
   11.38805580   98.62470245    3.91000009    2.39000010
   11.39138889  104.30000305    3.91000009    2.39000010
   11.39444447   94.17189789    3.91000009    2.39000010
   11.39777756   95.25160217    3.91000009    2.40000010
   11.39833355   97.62490082    3.91000009    2.40000010
   11.40416622   97.62490082    3.91000009    2.40000010
   11.40833282   98.09140015    3.91000009    2.40000010
   11.41166592  100.39800262    3.89000010    2.39000010
   11.41472149   93.76110077    3.89000010    2.40000010
   11.41805553   98.55030060    3.89000010    2.40000010
   11.42138958  100.15599823    3.86999989    2.40000010
   11.42444515   92.09449768    3.86999989    2.40000010
   11.42777824   87.22930145    3.84999990    2.40000010
   11.43083382   97.05139923    3.84999990    2.40000010
   11.43166733  102.35099792    3.82999992    2.40000010
   11.43472195  105.62699890    3.82999992    2.40000010
   11.43777752   98.08830261    3.82999992    2.42000008
   11.44111156  109.08899689    3.82999992    2.40000010
   11.44694424  109.08899689    3.80999994    2.40000010
   11.45111084   95.24500275    3.80999994    2.40000010
   11.45444393   97.17220306    3.80999994    2.40000010
   11.45777798   93.09159851    3.80999994    2.42000008
   11.46083355   95.29940033    3.80999994    2.42000008
   11.46416664   94.16200256    3.80999994    2.44000006
   11.46500015   94.20960236    3.80999994    2.42000008
   11.46777725  103.86599731    3.80999994    2.42000008
   11.47083282   96.85079956    3.80999994    2.42000008
   11.47416592   93.94229889    3.80999994    2.42000008
   11.47749996  100.84600067    3.80999994    2.42000008
   11.48055553   92.44219971    3.80999994    2.40000010
   11.48388958   90.27839661    3.78999996    2.42000008
   11.49000072   90.27839661    3.78999996    2.42000008
   11.49416733   97.72019958    3.78999996    2.42000008
   11.49722290   94.76879883    3.78999996    2.42000008
   11.49833393   96.74169922    3.78999996    2.44000006
   11.50111103   95.18599701    3.78999996    2.42000008
   11.50416660   99.18350220    3.78999996    2.44000006
   11.50749969   94.83969879    3.76999998    2.44000006
   11.51083374   93.96189880    3.76999998    2.44000006
   11.51388931   95.87809753    3.76999998    2.44000006
   11.51722240   92.51799774    3.75000000    2.42000008
   11.52027798  104.07700348    3.76999998    2.46000004
   11.52361107   96.02089691    3.75000000    2.44000006
   11.52694416   90.76010132    3.75000000    2.44000006
   11.53277779   90.76010132    3.73000002    2.44000006
   11.53694534   95.12650299    3.73000002    2.44000006
   11.54000092   96.34870148    3.72000003    2.44000006
   11.54333401   85.50180054    3.72000003    2.46000004
   11.54666710   91.78420258    3.72000003    2.46000004
   11.54972267  105.52300262    3.70000005    2.46000004
   11.55305576   98.88970184    3.70000005    2.46000004
   11.55638885   96.32890320    3.68000007    2.46000004
   11.55944443  104.06400299    3.68000007    2.46000004
   11.56277752  103.44400024    3.68000007    2.46000004
   11.56500053  103.37100220    3.66000009    2.46000004
   11.56638908  100.84700012    3.66000009    2.46000004
   11.56944466  101.79599762    3.66000009    2.46000004
   11.57555580  101.79599762    3.66000009    2.48000002
   11.57972240  111.72699738    3.66000009    2.48000002
   11.58305550   94.12270355    3.66000009    2.46000004
   11.58611107  104.92900085    3.66000009    2.46000004
   11.58944416  100.84500122    3.64000010    2.48000002
   11.59277725   91.29910278    3.64000010    2.46000004
   11.59583282   88.08180237    3.64000010    2.46000004
   11.59833336  101.90100098    3.64000010    2.46000004
   11.59972191   91.51809692    3.64000010    2.46000004
   11.60277843  104.36699677    3.61999989    2.46000004
   11.60611153   98.48840332    3.61999989    2.46000004
   11.60944462  102.20999908    3.61999989    2.48000002
   11.61250019   95.14949799    3.61999989    2.48000002
   11.61833382   95.14949799    3.61999989    2.48000002
   11.62250042   87.14749908    3.61999989    2.48000002
   11.62583351   91.74299622    3.61999989    2.48000002
   11.62916660  100.45400238    3.61999989    2.46000004
   11.63166714   90.10620117    3.59999990    2.50000000
   11.63277817   95.20339966    3.61999989    2.48000002
   11.63583279   90.53700256    3.59999990    2.46000004
   11.63916683   92.41979980    3.59999990    2.48000002
   11.64249992   93.42839813    3.57999992    2.48000002
   11.64555550   87.19219971    3.57999992    2.48000002
   11.64888859   87.88179779    3.57999992    2.48000002
   11.65194416   84.24179840    3.57999992    2.48000002
   11.65527725   93.53289795    3.57999992    2.48000002
   11.66138840   93.53289795    3.55999994    2.48000002
   11.66555500   89.80879974    3.55999994    2.50000000
   11.66861153   92.19029999    3.55999994    2.50000000
   11.67194462   95.02269745    3.55999994    2.50000000
   11.67500019   89.01830292    3.53999996    2.48000002
   11.67833328   79.92680359    3.55999994    2.50000000
   11.68166733   85.31089783    3.53999996    2.50000000
   11.68472195   93.56790161    3.53999996    2.50000000
   11.68805599   86.54309845    3.51999998    2.51999998
   11.69138908   91.84690094    3.53999996    2.50000000
   11.69444466   89.55259705    3.51999998    2.50000000
   11.69777775  102.16999817    3.51999998    2.50000000
   11.69833374   94.11170197    3.51999998    2.50000000
   11.70416641   94.11170197    3.50000000    2.50000000
   11.70833302   97.42120361    3.51999998    2.51999998
   11.71138859   95.35050201    3.50000000    2.50000000
   11.71472168   99.96790314    3.50000000    2.51999998
   11.71805477   97.08830261    3.48000002    2.51999998
   11.72111034  100.25000000    3.48000002    2.51999998
   11.72444439   98.58670044    3.48000002    2.51999998
   11.72777748  107.05599976    3.48000002    2.50000000
   11.73083305   91.25029755    3.46000004    2.51999998
   11.73166656   92.05049896    3.48000002    2.50000000
   11.73444462   92.67569733    3.46000004    2.51999998
   11.73750019  107.13200378    3.46000004    2.51999998
   11.74083328  101.05500031    3.46000004    2.51999998
   11.74694443  101.05500031    3.46000004    2.51999998
   11.75111103   95.54570007    3.46000004    2.51999998
   11.75444412  103.18099976    3.45000005    2.51999998
   11.75749969  103.70400238    3.46000004    2.53999996
   11.76083374   97.52999878    3.45000005    2.51999998
   11.76416683   96.25779724    3.45000005    2.51999998
   11.76500034   88.03939819    3.45000005    2.51999998
   11.76777744   87.38120270    3.45000005    2.51999998
   11.77083302   99.01309967    3.43000007    2.51999998
   11.77416611  101.43299866    3.43000007    2.51999998
   11.77750015   96.22779846    3.43000007    2.53999996
   11.78055573   97.89379883    3.43000007    2.53999996
   11.78416729   96.71839905    3.43000007    2.51999998
   11.78972244   96.71839905    3.41000009    2.53999996
   11.79388905  101.41600037    3.41000009    2.51999998
   11.79722309  100.21600342    3.41000009    2.51999998
   11.79833412   99.67150116    3.41000009    2.53999996
   11.80083370  102.30799866    3.41000009    2.53999996
   11.80388927   94.68730164    3.41000009    2.53999996
   11.80722237   99.11940002    3.39000010    2.51999998
   11.81055546   94.37709808    3.39000010    2.53999996
   11.81361103  107.75000000    3.36999989    2.53999996
   11.81694412   88.89510345    3.36999989    2.53999996
   11.82027817  100.73400116    3.36999989    2.51999998
   11.82333374   97.65730286    3.36999989    2.53999996
   11.82666683   99.10729980    3.34999990    2.53999996
   11.83277798   99.10729980    3.34999990    2.53999996
   11.83694458   92.98370361    3.32999992    2.53999996
   11.84000015   99.22219849    3.32999992    2.53999996
   11.84333324   96.28230286    3.32999992    2.53999996
   11.84638882   94.21679688    3.30999994    2.53999996
   11.84972191   94.72599792    3.30999994    2.55999994
   11.85305595   98.41290283    3.30999994    2.53999996
   11.85611153  101.26699829    3.30999994    2.53999996
   11.85944462  100.49099731    3.30999994    2.53999996
   11.86277771  100.38700104    3.28999996    2.55999994
   11.86500072   94.92939758    3.28999996    2.55999994
   11.86638927   93.42819977    3.28999996    2.55999994
   11.86944485  102.11499786    3.28999996    2.55999994
   11.87555599  102.11499786    3.26999998    2.55999994
   11.87972260  102.37799835    3.26999998    2.55999994
   11.88277817   96.60070038    3.26999998    2.55999994
   11.88638878  105.73100281    3.25000000    2.55999994
   11.88972187  103.84700012    3.25000000    2.53999996
   11.89277744  103.60299683    3.25000000    2.55999994
   11.89611053  104.00399780    3.25000000    2.55999994
   11.89833355  105.15000153    3.23000002    2.55999994
   11.89972210   93.82649994    3.23000002    2.53999996
   11.90305519  106.42800140    3.23000002    2.55999994
   11.90611076  106.41999817    3.21000004    2.55999994
   11.90944386  109.47699738    3.21000004    2.55999994
   11.91249943  108.35900116    3.21000004    2.55999994
   11.91833401  108.35900116    3.21000004    2.55999994
   11.92250061  101.08000183    3.20000005    2.55999994
   11.92583370  113.06999969    3.18000007    2.55999994
   11.92888927  107.48300171    3.18000007    2.55999994
   11.93166733  101.43199921    3.18000007    2.55999994
   11.93277836  100.35500336    3.16000009    2.55999994
   11.93611145  112.21399689    3.16000009    2.55999994
   11.93916702  101.89199829    3.16000009    2.55999994
   11.94250011   99.89900208    3.14000010    2.55999994
   11.94555569   99.19319916    3.16000009    2.57999992
   11.94888878  104.32900238    3.14000010    2.55999994
   11.95222187  103.58399963    3.14000010    2.57999992
   11.95527744   95.45020294    3.14000010    2.57999992
   11.96111107   95.45020294    3.14000010    2.57999992
   11.96527767  100.68900299    3.11999989    2.57999992
   11.96861076  105.52300262    3.11999989    2.57999992
   11.97194386  107.97499847    3.11999989    2.57999992
   11.97499943  101.87999725    3.11999989    2.57999992
   11.97833252  105.73799896    3.11999989    2.57999992
   11.98166656   99.07550049    3.11999989    2.59999990
   11.98472214   90.90689850    3.09999990    2.57999992
   11.98805618   90.47460175    3.09999990    2.57999992
   11.99138927   94.19110107    3.09999990    2.57999992
   11.99444485   91.28410339    3.09999990    2.57999992
   11.99777794  109.35299683    3.09999990    2.57999992
   11.99833393   85.61270142    3.09999990    2.57999992
   12.00416660   85.61270142    3.09999990    2.57999992
   12.00833321   89.21990204    3.09999990    2.57999992
   12.01138878   95.98919678    3.07999992    2.57999992
   12.01472187   97.47660065    3.07999992    2.57999992
   12.01777744  101.01499939    3.07999992    2.57999992
   12.02111053   97.92800140    3.07999992    2.59999990
   12.02444458   98.38790131    3.05999994    2.57999992
   12.02750015   92.06340027    3.05999994    2.57999992
   12.03083324   86.59130096    3.05999994    2.59999990
   12.03166676  106.76399994    3.05999994    2.57999992
   12.03444481   98.55509949    3.05999994    2.57999992
   12.03777790  109.75000000    3.03999996    2.57999992
   12.04083347   94.45140076    3.03999996    2.59999990
   12.04694462   94.45140076    3.01999998    2.59999990
   12.05111122  109.16699982    3.00000000    2.59999990
   12.05416679   97.04900360    3.00000000    2.59999990
   12.05749989  107.59100342    3.00000000    2.59999990
   12.06083393  111.69000244    2.98000002    2.59999990
   12.06416702  107.41000366    2.98000002    2.59999990
   12.06500053  103.26599884    2.96000004    2.59999990
   12.06777763  112.83200073    2.98000002    2.59999990
   12.07111073  103.07700348    2.96000004    2.59999990
   12.07416630  104.71800232    2.96000004    2.59999990
   12.07750034  111.78600311    2.94000006    2.59999990
   12.08055592  115.36799622    2.94000006    2.59999990
   12.08388901  119.52400208    2.94000006    2.59999990
   12.08972168  119.52400208    2.94000006    2.59999990
   12.09388828  101.12599945    2.94000006    2.59999990
   12.09722233  113.64600372    2.93000007    2.59999990
   12.09833336  100.59700012    2.94000006    2.61999989
   12.10083389  103.24500275    2.93000007    2.61999989
   12.10416698  107.94899750    2.94000006    2.59999990
   12.10722256  102.87500000    2.93000007    2.59999990
   12.11055565   94.70089722    2.93000007    2.59999990
   12.11388969  106.25900269    2.91000009    2.61999989
   12.11694431  107.54799652    2.91000009    2.59999990
   12.12027836   99.71430206    2.91000009    2.61999989
   12.12333393   98.70179749    2.91000009    2.59999990
   12.12666702  104.19200134    2.91000009    2.61999989
   12.13249969  104.19200134    2.91000009    2.59999990
   12.13666630  107.86299896    2.91000009    2.61999989
   12.14000034  111.62899780    2.91000009    2.61999989
   12.14333344   99.52639771    2.91000009    2.59999990
   12.14638901   98.30899811    2.91000009    2.61999989
   12.14972210  106.01300049    2.91000009    2.61999989
   12.15277767   95.28160095    2.91000009    2.61999989
   12.15611076   99.08499908    2.91000009    2.61999989
   12.15944386   97.11750031    2.91000009    2.61999989
   12.16249943   99.75050354    2.91000009    2.61999989
   12.16499996  109.09799957    2.91000009    2.61999989
   12.16611099  104.50199890    2.91000009    2.61999989
   12.16944504   96.79080200    2.89000010    2.61999989
   12.17555618   96.79080200    2.89000010    2.61999989
   12.17972279  100.08100128    2.89000010    2.61999989
   12.18277836  104.73200226    2.86999989    2.61999989
   12.18611145  101.59100342    2.86999989    2.61999989
   12.18916702  101.89800262    2.86999989    2.61999989
   12.19250011  103.35099792    2.86999989    2.64000010
   12.19583321  102.26799774    2.86999989    2.61999989
   12.19833374  108.80300140    2.84999990    2.61999989
   12.19944477  100.14900208    2.84999990    2.61999989
   12.20277786  107.09899902    2.86999989    2.64000010
   12.20583344  104.66300201    2.84999990    2.61999989
   12.20916653   86.33139801    2.84999990    2.61999989
   12.21249962   95.87519836    2.84999990    2.61999989
   12.21833324   95.87519836    2.82999992    2.64000010
   12.22249985  116.97000122    2.80999994    2.64000010
   12.22555542  107.24700165    2.78999996    2.64000010
   12.22888851   98.13500214    2.78999996    2.64000010
   12.23166656   99.60279846    2.78999996    2.64000010
   12.23249912   91.65859985    2.78999996    2.64000010
   12.23583317  100.55599976    2.76999998    2.61999989
   12.23888874  102.37599945    2.76999998    2.64000010
   12.24222279  108.26899719    2.76999998    2.64000010
   12.24555588  104.54299927    2.76999998    2.64000010
   12.24861145   94.69619751    2.76999998    2.64000010
   12.25194454  106.58399963    2.76999998    2.66000009
   12.25500011  102.32499695    2.76999998    2.64000010
   12.26111126  102.32499695    2.75000000    2.64000010
   12.26527786  109.70300293    2.75000000    2.64000010
   12.26861095  100.44699860    2.75000000    2.64000010
   12.27166653  112.83899689    2.75000000    2.64000010
   12.27499962  104.59400177    2.73000002    2.64000010
   12.27833271  107.87599945    2.73000002    2.64000010
   12.28138828   94.69409943    2.75000000    2.64000010
   12.28472233   96.22139740    2.73000002    2.64000010
   12.28777790  114.43399811    2.75000000    2.64000010
   12.29111195   99.65740204    2.75000000    2.64000010
   12.29444504  100.95600128    2.73000002    2.64000010
   12.29750061  114.24700165    2.73000002    2.66000009
   12.29833412  110.49400330    2.73000002    2.64000010
   12.31916618  110.49400330    2.73000002    2.64000010
   12.32333374  104.11799622    2.73000002    2.66000009
   12.32666683   99.23690033    2.73000002    2.66000009
   12.32972240  105.44200134    2.73000002    2.64000010
   12.33166695  104.31300354    2.73000002    2.64000010
   12.33333302  104.36699677    2.73000002    2.66000009
   12.33666611   97.65869904    2.73000002    2.67000008
   12.33972168  102.52200317    2.73000002    2.66000009
   12.34305477  110.05500031    2.73000002    2.66000009
   12.34638882  106.49299622    2.71000004    2.66000009
   12.34944439   97.28769684    2.71000004    2.64000010
   12.35277843  103.84600067    2.71000004    2.66000009
   12.35583401   99.01290131    2.71000004    2.66000009
   12.36194515   99.01290131    2.71000004    2.66000009
   12.36611176  100.81099701    2.71000004    2.66000009
   12.36916637   96.21170044    2.71000004    2.66000009
   12.37250042   98.95469666    2.71000004    2.66000009
   12.37583351   95.09809875    2.71000004    2.67000008
   12.37888908   88.22129822    2.69000006    2.67000008
   12.38222218   98.29789734    2.69000006    2.66000009
   12.38555527   96.91239929    2.69000006    2.66000009
   12.38861084  101.83100128    2.69000006    2.66000009
   12.39194393  108.22799683    2.67000008    2.67000008
   12.39499950  104.32499695    2.69000006    2.66000009
   12.39833355  103.30300140    2.69000006    2.66000009
   12.39888859   99.47899628    2.69000006    2.66000009
   12.40472221   99.47899628    2.67000008    2.67000008
   12.40888882  105.70400238    2.67000008    2.66000009
   12.41222191  107.17299652    2.67000008    2.67000008
   12.41527748  106.09600067    2.67000008    2.66000009
   12.41861153  100.96199799    2.67000008    2.67000008
   12.42194462  106.15599823    2.67000008    2.67000008
   12.42500019  103.07099915    2.67000008    2.66000009
   12.42833328  109.30200195    2.67000008    2.67000008
   12.43138885  103.28900146    2.69000006    2.66000009
   12.43222237  108.48899841    2.69000006    2.66000009
   12.43527794  108.98400116    2.69000006    2.67000008
   12.43833351  105.58599854    2.69000006    2.67000008
   12.44166660  107.76200104    2.69000006    2.66000009
   12.44750023  107.76200104    2.69000006    2.67000008
   12.45166683  101.51699829    2.69000006    2.67000008
   12.45499992   99.05930328    2.69000006    2.66000009
   12.45805550   95.72789764    2.69000006    2.66000009
   12.46138859  100.86199951    2.69000006    2.67000008
   12.46472168  109.65299988    2.69000006    2.67000008
   12.46555519   99.43329620    2.69000006    2.67000008
   12.46833324   93.58799744    2.69000006    2.66000009
   12.47138882  111.92600250    2.71000004    2.66000009
   12.47472191  105.24900055    2.71000004    2.67000008
   12.47805500   99.59239960    2.71000004    2.67000008
   12.48111057  103.10399628    2.71000004    2.66000009
   12.48444462  104.60099792    2.71000004    2.67000008
   12.49055576  104.60099792    2.71000004    2.66000009
   12.49444485   96.33879852    2.71000004    2.66000009
   12.49777794  107.41400146    2.71000004    2.67000008
   12.49888897  114.66699982    2.71000004    2.67000008
   12.50138855  107.45999908    2.71000004    2.69000006
   12.50444412  108.09100342    2.71000004    2.67000008
   12.50777817  116.46800232    2.71000004    2.67000008
   12.51111126  102.47799683    2.71000004    2.67000008
   12.51416683  115.13400269    2.71000004    2.67000008
   12.51749992  109.96600342    2.71000004    2.67000008
   12.52055550  102.88400269    2.71000004    2.69000006
   12.52388859  116.09200287    2.69000006    2.67000008
   12.52722168  112.01399994    2.69000006    2.67000008
   12.53333378  112.01399994    2.69000006    2.67000008
   12.53750038  113.36799622    2.67000008    2.67000008
   12.54055595  112.47399902    2.69000006    2.69000006
   12.54388905  108.58000183    2.67000008    2.67000008
   12.54722309  112.03399658    2.67000008    2.69000006
   12.55027771  107.12899780    2.67000008    2.69000006
   12.55361176  110.99700165    2.67000008    2.69000006
   12.55694485  119.62500000    2.66000009    2.67000008
   12.56000042  102.09799957    2.66000009    2.69000006
   12.56333351  115.54599762    2.66000009    2.67000008
   12.56555557  115.90000153    2.64000010    2.69000006
   12.56694412  110.65200043    2.64000010    2.67000008
   12.56999969  103.45400238    2.64000010    2.69000006
   12.57611084  103.45400238    2.64000010    2.67000008
   12.58027744  117.53299713    2.64000010    2.69000006
   12.58361053  123.52300262    2.64000010    2.67000008
   12.58666611  107.97399902    2.61999989    2.69000006
   12.59000015  117.62300110    2.61999989    2.69000006
   12.59305477  101.64299774    2.61999989    2.69000006
   12.59638882  122.13899994    2.61999989    2.69000006
   12.59888840  110.61499786    2.59999990    2.69000006
   12.60000038  116.76599884    2.61999989    2.69000006
   12.60305595  116.38400269    2.59999990    2.69000006
   12.60638905  123.52500153    2.59999990    2.67000008
   12.60972214  118.59799957    2.57999992    2.69000006
   12.61277771  116.97799683    2.57999992    2.69000006
   12.61888885  116.97799683    2.57999992    2.67000008
   12.62305546  116.50000000    2.57999992    2.69000006
   12.62638855  114.37899780    2.57999992    2.69000006
   12.62972260  122.41300201    2.57999992    2.69000006
   12.63222218  118.71099854    2.57999992    2.69000006
   12.63333321  120.95800018    2.55999994    2.69000006
   12.63638878  112.98100281    2.55999994    2.71000004
   12.63972187  106.10500336    2.53999996    2.69000006
   12.64305496  115.04699707    2.53999996    2.69000006
   12.64611053  121.80799866    2.51999998    2.69000006
   12.64944458  111.16999817    2.51999998    2.69000006
   12.65277767  114.49099731    2.51999998    2.69000006
   12.65583324  116.73899841    2.51999998    2.67000008
   12.66194439  116.73899841    2.51999998    2.71000004
   12.66583252   96.65489960    2.50000000    2.71000004
   12.66916656  111.63999939    2.50000000    2.69000006
   12.67250061  123.37599945    2.50000000    2.69000006
   12.67555618  117.22200012    2.50000000    2.71000004
   12.67888927  113.93800354    2.50000000    2.71000004
   12.68222237  109.54900360    2.50000000    2.71000004
   12.68527794  120.89399719    2.50000000    2.71000004
   12.68861103  104.30500031    2.50000000    2.69000006
   12.69166660  107.96299744    2.48000002    2.69000006
   12.69499969  111.39399719    2.48000002    2.69000006
   12.69833374  109.43299866    2.48000002    2.71000004
   12.69888878  104.99800110    2.48000002    2.71000004
   12.70472240  104.99800110    2.48000002    2.69000006
   12.70888901  105.68699646    2.46000004    2.69000006
   12.71194458  118.55000305    2.46000004    2.69000006
   12.71527767  104.76200104    2.44000006    2.69000006
   12.71861076  108.65499878    2.44000006    2.71000004
   12.72166634  106.10600281    2.44000006    2.71000004
   12.72499943  110.94499969    2.44000006    2.71000004
   12.72833252  119.15000153    2.42000008    2.71000004
   12.73138809  117.77600098    2.42000008    2.71000004
   12.73222160  118.34500122    2.42000008    2.71000004
   12.73500061  103.33799744    2.42000008    2.71000004
   12.73833370  115.18900299    2.42000008    2.71000004
   12.74138927  117.44400024    2.40000010    2.71000004
   12.74750042  117.44400024    2.40000010    2.71000004
   12.75166702  116.52700043    2.40000010    2.71000004
   12.75500011  111.65599823    2.40000010    2.71000004
   12.75805569  110.48400116    2.39000010    2.71000004
   12.76138878  115.47200012    2.39000010    2.71000004
   12.76472187  116.81099701    2.36999989    2.71000004
   12.76555538  108.36900330    2.39000010    2.71000004
   12.76833344  113.90399933    2.36999989    2.71000004
   12.77138901  115.72499847    2.36999989    2.71000004
   12.77472210  111.26699829    2.36999989    2.71000004
   12.77805519  112.11599731    2.36999989    2.71000004
   12.78111076  113.54799652    2.34999990    2.71000004
   12.78444481  113.67299652    2.34999990    2.71000004
   12.79027843  113.67299652    2.34999990    2.73000002
   12.79444504  124.70999908    2.34999990    2.71000004
   12.79777813  117.31400299    2.34999990    2.71000004
   12.79888916  121.38600159    2.34999990    2.73000002
   12.80138874  112.95600128    2.34999990    2.71000004
   12.80444431  112.83000183    2.34999990    2.71000004
   12.80777836  111.72000122    2.34999990    2.71000004
   12.81111145  107.30799866    2.34999990    2.73000002
   12.81416702  111.73300171    2.34999990    2.71000004
   12.81750011  122.78600311    2.32999992    2.73000002
   12.82055569  107.89299774    2.32999992    2.71000004
   12.82388878  104.71199799    2.32999992    2.73000002
   12.82722187  118.03600311    2.32999992    2.73000002
   12.83333302  118.03600311    2.32999992    2.71000004
   12.83722210  109.13899994    2.32999992    2.71000004
   12.84055519  109.95700073    2.30999994    2.73000002
   12.84388828   95.66359711    2.30999994    2.73000002
   12.84694386  106.89099884    2.30999994    2.73000002
   12.85027790  109.71700287    2.32999992    2.73000002
   12.85333347   99.51969910    2.30999994    2.73000002
   12.85666752  101.28500366    2.30999994    2.75000000
   12.86000061   97.25689697    2.30999994    2.73000002
   12.86305618  108.41200256    2.30999994    2.71000004
   12.86555576  110.06099701    2.30999994    2.73000002
   12.86694431  109.68900299    2.28999996    2.73000002
   12.86999989  103.77600098    2.28999996    2.71000004
   12.87611103  103.77600098    2.30999994    2.73000002
   12.88027763  105.57800293    2.30999994    2.73000002
   12.88333321  103.89700317    2.28999996    2.73000002
   12.88666630  113.18499756    2.28999996    2.73000002
   12.88972187  115.23300171    2.30999994    2.73000002
   12.89305496  110.24099731    2.30999994    2.73000002
   12.89638901  106.79799652    2.28999996    2.73000002
   12.89888859  108.41200256    2.28999996    2.73000002
   12.89999962  101.68099976    2.28999996    2.73000002
   12.90333271  121.38500214    2.28999996    2.75000000
   12.90638828  105.49099731    2.28999996    2.73000002
   12.90972137  114.59600067    2.28999996    2.73000002
   12.91277695   90.51570129    2.28999996    2.75000000
   12.91888905   90.51570129    2.26999998    2.75000000
   12.92305565  108.67800140    2.26999998    2.75000000
   12.92638874  100.87100220    2.26999998    2.73000002
   12.92944431  101.60600281    2.26999998    2.73000002
   12.93222237  105.14700317    2.25000000    2.73000002
   12.93305588  108.98200226    2.25000000    2.73000002
   12.93638897  109.65100098    2.25000000    2.73000002
   12.93944454  112.31999969    2.25000000    2.75000000
   12.94277763  112.66100311    2.25000000    2.75000000
   12.94583321  113.49500275    2.23000002    2.73000002
   12.94916630  112.95600128    2.23000002    2.75000000
   12.95249939   99.90100098    2.23000002    2.75000000
   12.95555496  110.69999695    2.23000002    2.73000002
   12.96166611  110.69999695    2.21000004    2.76999998
   12.96583271  107.94699860    2.23000002    2.73000002
   12.96916580  108.84500122    2.21000004    2.75000000
   12.97222137  115.79900360    2.21000004    2.73000002
   12.97555542  106.30400085    2.21000004    2.76999998
   12.97888851  116.03900146    2.21000004    2.75000000
   12.98194408  111.85399628    2.21000004    2.75000000
   12.98527813  104.23699951    2.21000004    2.75000000
   12.98861122   98.45690155    2.21000004    2.75000000
   12.99166679  109.71900177    2.21000004    2.75000000
   12.99499989  116.92400360    2.21000004    2.76999998
   12.99805546  114.70600128    2.21000004    2.75000000
   12.99888897  115.51100159    2.21000004    2.75000000
   13.00472260  115.51100159    2.21000004    2.75000000
   13.00861073  109.09799957    2.21000004    2.75000000
   13.01194477  101.88200378    2.21000004    2.75000000
   13.01527786  102.85900116    2.21000004    2.75000000
   13.01833344  114.69000244    2.21000004    2.75000000
   13.02166653  111.40299988    2.21000004    2.75000000
   13.02499962  118.18399811    2.21000004    2.75000000
   13.02805519  118.06400299    2.21000004    2.75000000
   13.03138828  116.22699738    2.21000004    2.75000000
   13.03222179  113.23799896    2.21000004    2.76999998
   13.03500080  112.08799744    2.23000002    2.75000000
   13.03833389  114.73500061    2.21000004    2.75000000
   13.04138947  112.24299622    2.21000004    2.75000000
   13.04750061  112.24299622    2.21000004    2.75000000
   13.05166721  113.44300079    2.23000002    2.75000000
   13.05472279  101.63300323    2.21000004    2.76999998
   13.05805588  127.01799774    2.19000006    2.75000000
   13.06138897  113.27799988    2.19000006    2.75000000
   13.09777737  119.32099915    2.17000008    2.75000000
   13.10111141  109.31900024    2.17000008    2.76999998
   13.10416698  113.64399719    2.17000008    2.76999998
   13.10750008  115.80300140    2.19000006    2.75000000
   13.11055565  110.56400299    2.19000006    2.75000000
   13.11388969  110.11399841    2.19000006    2.76999998
   13.11805534  110.11399841    2.19000006    2.75000000
   13.12222195  108.03299713    2.19000006    2.75000000
   13.12527752  113.77500153    2.19000006    2.75000000
   13.12861156  122.10500336    2.17000008    2.76999998
   13.13111115  115.67600250    2.17000008    2.75000000
   13.13249969  113.44499969    2.17000008    2.76999998
   13.13555527  119.76200104    2.17000008    2.76999998
   13.13888836  109.84400177    2.17000008    2.75000000
   13.14194393  112.34600067    2.17000008    2.76999998
   13.14527798  115.64199829    2.15000010    2.75000000
   13.14861107  117.63500214    2.17000008    2.75000000
   13.15166664  109.42800140    2.17000008    2.76999998
   13.15499973  115.42400360    2.15000010    2.76999998
   13.16083336  115.42400360    2.15000010    2.76999998
   13.16499996  119.40399933    2.13000011    2.76999998
   13.16833401  126.43499756    2.13000011    2.75000000
   13.17138958  116.59600067    2.13000011    2.76999998
   13.17472267  123.89399719    2.13000011    2.76999998
   13.17777824  125.95300293    2.13000011    2.76999998
   13.18111134  116.45700073    2.13000011    2.76999998
   13.18444443  106.79699707    2.13000011    2.76999998
   13.18750000  122.53500366    2.13000011    2.76999998
   13.19083309  100.83899689    2.11999989    2.75000000
   13.19416714  114.30500031    2.11999989    2.78999996
   13.19722271  114.31400299    2.11999989    2.76999998
   13.19777775  137.14500427    2.13000011    2.75000000
   13.20361137  137.14500427    2.13000011    2.76999998
   13.20777798  108.14399719    2.13000011    2.76999998
   13.21111107  114.39399719    2.15000010    2.76999998
   13.21416664  123.77400208    2.15000010    2.76999998
   13.21749973  114.32700348    2.15000010    2.76999998
   13.22083282  110.97899628    2.15000010    2.76999998
   13.22388840  123.98200226    2.17000008    2.76999998
   13.22722149  119.78700256    2.15000010    2.76999998
   13.23055553  115.76399994    2.15000010    2.76999998
   13.23111057  102.05599976    2.15000010    2.76999998
   13.23416710  104.93699646    2.15000010    2.76999998
   13.23750019  106.74700165    2.15000010    2.78999996
   13.24055576  106.99700165    2.13000011    2.76999998
   13.24666691  106.99700165    2.13000011    2.75000000
   13.25083351  104.43800354    2.13000011    2.76999998
   13.25388908  104.77899933    2.15000010    2.76999998
   13.25722218  105.12200165    2.13000011    2.76999998
   13.26027775  105.92400360    2.13000011    2.76999998
   13.26361084  105.08100128    2.13000011    2.76999998
   13.26444435  112.04399872    2.13000011    2.76999998
   13.26722240  109.40799713    2.13000011    2.76999998
   13.27027798  116.19599915    2.13000011    2.76999998
   13.27361107  115.18699646    2.11999989    2.76999998
   13.27694416  109.69499969    2.11999989    2.76999998
   13.27999973  127.63500214    2.11999989    2.76999998
   13.28333378  117.15399933    2.11999989    2.78999996
   13.28944492  117.15399933    2.13000011    2.76999998
   13.29361153  115.12599945    2.11999989    2.76999998
   13.29694462  124.57399750    2.11999989    2.76999998
   13.29777813  114.55699921    2.11999989    2.76999998
   13.30055618  113.02799988    2.11999989    2.76999998
   13.30361176  111.40499878    2.11999989    2.76999998
   13.30694485  109.10399628    2.11999989    2.75000000
   13.31027794  114.42600250    2.11999989    2.76999998
   13.31333351  108.67299652    2.11999989    2.76999998
   13.31666660  119.80599976    2.11999989    2.76999998
   13.31999969  105.72299957    2.13000011    2.78999996
   13.32305527  117.65100098    2.11999989    2.76999998
   13.32638836  118.26699829    2.11999989    2.76999998
   13.33222198  118.26699829    2.11999989    2.76999998
   13.33638859  119.02100372    2.11999989    2.76999998
   13.33972168  112.09100342    2.11999989    2.76999998
   13.34277725  107.48100281    2.09999990    2.76999998
   13.34611034  110.75800323    2.11999989    2.76999998
   13.34916592  120.11499786    2.09999990    2.76999998
   13.35249996  110.98400116    2.11999989    2.78999996
   13.35583401  110.08799744    2.11999989    2.76999998
   13.35888958  109.46199799    2.13000011    2.76999998
   13.36222267  116.71299744    2.11999989    2.76999998
   13.36444473  109.67600250    2.11999989    2.76999998
   13.36583328  112.76499939    2.13000011    2.78999996
   13.36888885  113.29199982    2.11999989    2.78999996
   13.37500000  113.29199982    2.13000011    2.76999998
   13.37916660  121.00000000    2.13000011    2.76999998
   13.38249969  106.79599762    2.11999989    2.76999998
   13.38555527  108.38099670    2.11999989    2.78999996
   13.38888836  118.72200012    2.11999989    2.78999996
   13.39222240  109.09799957    2.09999990    2.78999996
   13.39527798  103.76200104    2.09999990    2.78999996
   13.39777756  110.07099915    2.09999990    2.76999998
   13.39916611  114.03099823    2.09999990    2.76999998
   13.40222168  108.66300201    2.07999992    2.76999998
   13.40555477  110.31900024    2.07999992    2.76999998
   13.40888882  110.88600159    2.07999992    2.76999998
   13.41194439  112.73999786    2.07999992    2.76999998
   13.41805553  112.73999786    2.07999992    2.76999998
   13.42194462  114.81099701    2.07999992    2.78999996
   13.42527771  114.00099945    2.07999992    2.78999996
   13.42861176  111.22299957    2.07999992    2.78999996
   13.43111134  117.97599792    2.09999990    2.76999998
   13.43222237  115.91899872    2.07999992    2.78999996
   13.43527794  112.87599945    2.07999992    2.76999998
   13.43861103  112.26699829    2.09999990    2.76999998
   13.44194412  108.14900208    2.07999992    2.76999998
   13.44499969  105.43900299    2.07999992    2.76999998
   13.44833374  106.46800232    2.07999992    2.78999996
   13.45166683  120.65399933    2.07999992    2.78999996
   13.45472240  107.13899994    2.07999992    2.78999996
   13.46083355  107.13899994    2.07999992    2.78999996
   13.46500015  110.18399811    2.07999992    2.78999996
   13.46805477  110.20200348    2.07999992    2.76999998
   13.47138882  115.89800262    2.09999990    2.78999996
   13.47472191  113.02200317    2.09999990    2.76999998
   13.47777748  111.47000122    2.09999990    2.76999998
   13.48111057  112.13200378    2.09999990    2.76999998
   13.48416710  107.09500122    2.09999990    2.76999998
   13.48750019  115.08999634    2.09999990    2.78999996
   13.49083328  104.75700378    2.09999990    2.76999998
   13.49388885  115.97100067    2.09999990    2.78999996
   13.49722290  108.68699646    2.09999990    2.76999998
   13.49777794  114.19599915    2.09999990    2.78999996
   13.50361156  114.19599915    2.09999990    2.76999998
   13.50777817  103.52100372    2.09999990    2.78999996
   13.51111126  109.98200226    2.09999990    2.76999998
   13.51416683  107.21499634    2.09999990    2.78999996
   13.51749992  109.60299683    2.09999990    2.78999996
   13.52055550  109.70099640    2.09999990    2.78999996
   13.52388859  104.90499878    2.07999992    2.78999996
   13.52722168  113.11799622    2.07999992    2.78999996
   13.53027725  104.63200378    2.09999990    2.76999998
   13.53111076  105.74199677    2.07999992    2.80999994
   13.53388977  112.59300232    2.07999992    2.78999996
   13.53722286  107.56700134    2.05999994    2.78999996
   13.54027843  117.02300262    2.07999992    2.78999996
   13.54638958  117.02300262    2.05999994    2.78999996
   13.55055618  122.16400146    2.05999994    2.78999996
   13.55388927  109.62500000    2.03999996    2.76999998
   13.55722237  116.38899994    2.03999996    2.78999996
   13.56027794  109.23899841    2.03999996    2.78999996
   13.56361103  113.26699829    2.03999996    2.78999996
   13.56444454  114.95999908    2.03999996    2.78999996
   13.56722260  117.05999756    2.03999996    2.78999996
   13.57055569  111.31700134    2.01999998    2.78999996
   13.57361126  115.03199768    2.03999996    2.78999996
   13.57694435  114.08599854    2.03999996    2.78999996
   13.58027744  110.46399689    2.03999996    2.80999994
   13.58333302  104.63200378    2.03999996    2.78999996
   13.58944416  104.63200378    2.03999996    2.78999996
   13.59333324  106.70600128    2.01999998    2.78999996
   13.59666634  100.26899719    2.01999998    2.78999996
   13.59777737  108.44799805    2.00000000    2.78999996
   13.60027790   88.71849823    2.00000000    2.78999996
   13.60361195  107.91300201    2.00000000    2.78999996
   13.60666752  109.82199860    4.90999985    2.71000004
   13.61000061  115.53199768    4.90999985    2.69000006
   13.61305618  119.85099792    4.90999985    2.71000004
   13.61638927  111.31400299    4.90999985    2.69000006
   13.61972237  100.69599915    4.90999985    2.71000004
   13.62277794  109.22599792    4.90999985    2.71000004
   13.62611103  117.18699646    4.90999985    2.71000004
   13.63222218  117.18699646    4.90999985    2.71000004
   13.63638878  105.39499664    4.90999985    2.71000004
   13.63944435  109.57399750    4.90999985    2.69000006
   13.64277744  111.70300293    4.90999985    2.71000004
   13.64611053  108.24700165    4.90999985    2.71000004
   13.64916611  109.97399902    4.90999985    2.71000004
   13.65249920  102.97200012    4.90999985    2.71000004
   13.65583324  111.02700043    4.90999985    2.69000006
   13.65888882  109.92299652    4.90999985    2.71000004
   13.66222191  109.66799927    4.90999985    2.71000004
   13.66444397  114.73500061    4.90999985    2.71000004
   13.66583252  107.89499664    4.90999985    2.71000004
   13.66916656  109.51699829    4.90999985    2.71000004
   13.67500019  109.51699829    4.90999985    2.71000004
   13.67916679  112.05999756    4.90999985    2.71000004
   13.68249989  111.40100098    4.90999985    2.71000004
   13.68555546  107.63099670    4.90999985    2.71000004
   13.68888855  104.58300018    4.90999985    2.71000004
   13.69194412  117.58999634    4.90999985    2.71000004
   13.69527817  114.07199860    4.90999985    2.71000004
   13.69777775  121.78600311    4.90999985    2.71000004
   13.69888878  112.90399933    4.90999985    2.71000004
   13.70222187  110.80300140    4.90999985    2.71000004
   13.70527744  106.48300171    4.90999985    2.71000004
   13.70861053  116.92199707    4.90999985    2.71000004
   13.71166611  117.75700378    4.90999985    2.71000004
   13.71777725  117.75700378    4.90999985    2.71000004
   13.72194386  114.58300018    4.90999985    2.71000004
   13.72527695   99.15110016    4.90999985    2.71000004
   13.72833252  108.87400055    4.90999985    2.71000004
   13.73111057  119.14499664    4.90999985    2.71000004
   13.73222160  104.25099945    4.90999985    2.71000004
   13.73555565  115.26899719    4.90999985    2.71000004
   13.73861122  115.37799835    4.90999985    2.71000004
   13.74194431  121.43800354    4.90999985    2.71000004
   13.74499989  119.69499969    4.90999985    2.71000004
   13.74833393  101.43099976    4.90999985    2.71000004
   13.75166702  115.72499847    4.90999985    2.71000004
   13.75472260  112.51499939    4.90999985    2.71000004
   13.76083374  112.51499939    4.90999985    2.71000004
   13.76472187  112.72299957    4.90999985    2.71000004
   13.76805496  117.02400208    4.90999985    2.73000002
   13.77138901  108.35700226    4.90999985    2.71000004
   13.77444458  110.36000061    4.90999985    2.71000004
   13.77777767  109.63600159    4.90999985    2.71000004
   13.78111076  123.18099976    4.90999985    2.71000004
   13.78416729  109.42500305    4.90999985    2.71000004
   13.78750038  122.78500366    4.90999985    2.71000004
   13.79055595  104.05300140    4.90999985    2.71000004
   13.79388905  117.01499939    4.90999985    2.71000004
   13.79722309  119.34999847    4.90999985    2.71000004
   13.79777813  117.98899841    4.90999985    2.71000004
   13.80361176  117.98899841    4.90999985    2.71000004
   13.80777836  104.73100281    4.90999985    2.71000004
   13.81083393  116.57700348    4.90999985    2.71000004
   13.81416702  110.54799652    4.90999985    2.71000004
   13.81750011  107.81099701    4.90999985    2.73000002
   13.82055569  121.73699951    4.90999985    2.73000002
   13.82388878  121.43499756    4.90999985    2.71000004
   13.82694435  113.10600281    4.90999985    2.71000004
   13.83027744  119.74600220    4.90999985    2.73000002
   13.83111095  109.46499634    4.90999985    2.73000002
   13.83388901  116.16600037    4.90999985    2.71000004
   13.83722210  104.66400146    4.90999985    2.73000002
   13.84027767  114.39600372    4.90999985    2.71000004
   13.84638882  114.39600372    4.90999985    2.73000002
   13.85055637  114.14499664    4.90999985    2.71000004
   13.85388947  106.44699860    4.90999985    2.71000004
   13.85694504  109.42600250    4.90999985    2.73000002
   13.86027813  108.35099792    4.90999985    2.71000004
   13.86333370  109.88400269    4.90999985    2.71000004
   13.86444473  101.18099976    4.90999985    2.73000002
   13.86694431  113.08300018    4.90999985    2.73000002
   13.87027836  112.37200165    4.90999985    2.71000004
   13.87333393  103.43900299    4.90999985    2.73000002
   13.87666702  110.93599701    4.90999985    2.73000002
   13.88000011  117.98999786    4.90999985    2.73000002
   13.88305569  111.67299652    4.90999985    2.71000004
   13.88916683  111.67299652    4.90999985    2.73000002
   13.89333344  106.81900024    4.90999985    2.73000002
   13.89666653   91.18930054    4.90999985    2.71000004
   13.89777756   99.54360199    4.90999985    2.73000002
   13.90027714  107.99400330    4.90999985    2.73000002
   13.90361118  106.88700104    4.90999985    2.73000002
   13.90666676  108.93299866    4.90999985    2.71000004
   13.90999985  105.22100067    4.90999985    2.71000004
   13.91333294  111.62300110    4.90999985    2.73000002
   13.91638851  104.72200012    4.90999985    2.73000002
   13.91972256  118.20300293    4.90999985    2.71000004
   13.92277813  105.01699829    4.90999985    2.73000002
   13.92611122  105.60700226    4.90999985    2.71000004
   13.93222237  105.60700226    4.90999985    2.71000004
   13.93611145  105.24600220    4.90999985    2.71000004
   13.93944454  109.61799622    4.90999985    2.73000002
   13.94277763  116.56800079    4.90999985    2.73000002
   13.94583321  113.27700043    4.90999985    2.73000002
   13.94916630  111.09999847    4.90999985    2.73000002
   13.95249939  106.04900360    4.90999985    2.71000004
   13.95555496  112.39900208    4.90999985    2.73000002
   13.95888901  100.54499817    4.90999985    2.73000002
   13.96194458  112.69799805    4.90999985    2.73000002
   13.96472168  112.66500092    4.90999985    2.71000004
   13.96555519  108.02300262    4.90999985    2.73000002
   13.96888828   99.12200165    4.90999985    2.71000004
   13.97499943   99.12200165    4.90999985    2.73000002
   13.97916603  117.17299652    4.90999985    2.71000004
   13.98222160  106.89399719    4.90999985    2.73000002
   13.98555565  109.27799988    4.90999985    2.71000004
   13.98888874  113.08100128    4.90999985    2.73000002
   13.99222279  116.66799927    4.90999985    2.73000002
   13.99527836  110.74900055    4.90999985    2.73000002
   13.99805546  106.16999817    4.90999985    2.73000002
   13.99888897  116.14700317    4.90999985    2.71000004
   14.00222206  112.32199860    4.90999985    2.73000002
   14.00527763  114.87100220    4.90999985    2.73000002
   14.00861073  120.37599945    4.90999985    2.71000004
   14.01194477  112.19799805    4.90999985    2.73000002
   14.01777744  112.19799805    4.90999985    2.71000004
   14.02194405  116.20700073    4.90999985    2.71000004
   14.02527714  110.56700134    4.90999985    2.71000004
   14.02833271  123.07599640    4.90999985    2.71000004
   14.03138828  117.55000305    4.90999985    2.71000004
   14.03194427  121.46700287    4.90999985    2.73000002
   14.03527832  120.18800354    4.90999985    2.71000004
   14.03833389  117.36799622    4.90999985    2.71000004
   14.04166698  117.53199768    4.90999985    2.73000002
   14.04500008  115.33000183    4.90999985    2.71000004
   14.04805565  117.75700378    4.90999985    2.71000004
   14.05138874  117.04199982    4.90999985    2.71000004
   14.05472279  113.13400269    4.90999985    2.73000002
   14.06055546  113.13400269    4.90999985    2.73000002
   14.06472206  111.70400238    4.90999985    2.73000002
   14.06805515  118.63500214    4.90999985    2.73000002
   14.07138920  120.70400238    4.90999985    2.73000002
   14.07444477  104.13600159    4.90999985    2.73000002
   14.07777786  111.21399689    4.90999985    2.71000004
   14.08111095  105.46600342    4.90999985    2.71000004
   14.08416653  108.56099701    4.90999985    2.73000002
   14.08749962  114.53500366    4.90999985    2.71000004
   14.09083271  107.84999847    4.90999985    2.73000002
   14.09388828  118.08000183    4.90999985    2.71000004
   14.09722233  108.69400024    4.90999985    2.73000002
   14.09805489  117.85199738    4.90999985    2.73000002
   14.11861134  117.85199738    4.90999985    2.73000002
   14.12277794  111.75700378    4.90999985    2.73000002
   14.12583351  113.27600098    4.90999985    2.73000002
   14.12916660  106.82199860    4.90999985    2.71000004
   14.13138866  111.13400269    4.90999985    2.73000002
   14.13277817  109.58000183    4.90999985    2.73000002
   14.13611126  112.62799835    4.90999985    2.73000002
   14.13916683  121.06700134    4.90999985    2.73000002
   14.14249992  108.13099670    4.90999985    2.73000002
   14.14583302  104.93299866    4.90999985    2.71000004
   14.14888859  116.64900208    4.90999985    2.73000002
   14.15222168  117.37699890    4.90999985    2.73000002
   14.15555477  118.65100098    4.90999985    2.73000002
   14.16138840  118.65100098    4.90999985    2.73000002
   14.16555500  116.60299683    4.90999985    2.73000002
   14.16861153  121.34500122    4.90999985    2.73000002
   14.17194462  107.68900299    4.90999985    2.73000002
   14.17527771  107.17299652    4.90999985    2.73000002
   14.17833328  116.94400024    4.90999985    2.71000004
   14.18166733  109.28900146    4.90999985    2.75000000
   14.18472195  115.86699677    4.90999985    2.75000000
   14.18805599  115.90799713    4.90999985    2.71000004
   14.19138908  115.21600342    4.90999985    2.73000002
   14.19444466  112.81400299    4.90999985    2.73000002
   14.19777775  107.40100098    4.90999985    2.73000002
   14.19833374  110.04599762    4.90999985    2.73000002
   14.20416641  110.04599762    4.90999985    2.73000002
   14.20833302  118.88999939    4.90999985    2.73000002
   14.21166611  114.53600311    4.90999985    2.73000002
   14.21472168  116.73300171    4.90999985    2.71000004
   14.21805477  108.93499756    4.90999985    2.71000004
   14.22111034  113.34700012    4.90999985    2.73000002
   14.22444439  113.99400330    4.90999985    2.71000004
   14.22777748  110.95700073    4.90999985    2.71000004
   14.23083305  113.59400177    4.90999985    2.69000006
   14.23166656  111.25099945    4.90999985    2.71000004
   14.23472214  108.58999634    4.90999985    2.71000004
   14.23777771  102.28299713    4.90999985    2.73000002
   14.24111176  110.59500122    4.90999985    2.69000006
   14.24694443  110.59500122    4.90999985    2.73000002
   14.25111103  115.30200195    4.90999985    2.71000004
   14.25444412  109.80400085    4.90999985    2.73000002
   14.25749969  101.71499634    4.90999985    2.73000002
   14.26083374  108.66000366    4.90999985    2.71000004
   14.26416683  106.00299835    4.90999985    2.75000000
   14.26500034  109.06999969    4.90999985    2.73000002
   14.26777744  106.07299805    4.90999985    2.73000002
   14.27083302  110.51100159    4.90999985    2.71000004
   14.27416611  115.58000183    4.90999985    2.71000004
   14.27722168  107.84999847    4.90999985    2.71000004
   14.28055573  101.15699768    4.90999985    2.71000004
   14.28388977  102.57399750    4.90999985    2.73000002
   14.29000092  102.57399750    4.90999985    2.73000002
   14.29388905  111.94899750    4.90999985    2.73000002
   14.29722309  107.96299744    4.90999985    2.73000002
   14.29833412  111.07800293    4.90999985    2.73000002
   14.30111122  106.84600067    4.90999985    2.75000000
   14.30416679  115.51499939    4.90999985    2.71000004
   14.30749989  112.60500336    4.90999985    2.73000002
   14.31055546  112.03199768    4.90999985    2.71000004
   14.31388950  101.89399719    4.90999985    2.73000002
   14.31722260  113.93900299    4.90999985    2.73000002
   14.32027817  106.21900177    4.90999985    2.73000002
   14.32361126  112.10800171    4.90999985    2.73000002
   14.32694435  109.82700348    4.90999985    2.73000002
   14.33277798  109.82700348    4.90999985    2.73000002
   14.33694458  107.31600189    4.90999985    2.73000002
   14.34000015  109.29299927    4.90999985    2.73000002
   14.34333324  113.90299988    4.90999985    2.73000002
   14.34666634  113.70099640    4.90999985    2.73000002
   14.34972191  116.50599670    4.90999985    2.73000002
   14.35305595  117.50599670    4.90999985    2.73000002
   14.35611153  117.70800018    4.90999985    2.73000002
   14.35944462  120.51699829    4.90999985    2.73000002
   14.36277771  128.06700134    4.90999985    2.73000002
   14.36500072  111.31600189    4.90999985    2.73000002
   14.36638927  112.37500000    4.90999985    2.73000002
   14.36944485  121.10600281    4.90999985    2.75000000
   14.37555599  121.10600281    4.90999985    2.73000002
   14.37972260  101.19300079    4.90999985    2.71000004
   15.45666695   -1.00000000   -1.00000000   -1.00000000
   17.43138885   -1.00000000   -1.00000000   -1.00000000
   17.46861076   74.23840332    0.11000000    0.15000001
   17.47194481   74.33920288    0.11000000    0.15000001
   17.47527885   75.37419891    0.11000000    0.15000001
   17.47833443   76.67320251    0.11000000    0.15000001
   17.48166656   76.23429871    0.11000000    0.15000001
   17.48472214   73.98899841    0.11000000    0.15000001
   17.48888969   73.98899841    0.11000000    0.15000001
   17.49305534  157.37300110    0.11000000    0.15000001
   17.49638939   76.19039917    0.11000000    0.15000001
   17.49972153   78.58429718    0.11000000    0.15000001
   17.50194359   76.95890045    0.11000000    0.15000001
   17.50333405   76.51799774    0.11000000    0.15000001
   17.50638962   77.03099823    0.11000000    0.15000001
   17.50972176   78.47820282    0.11000000    0.15000001
   17.51305580   75.21849823    0.11000000    0.15000001
   17.51611137   78.95480347    0.11000000    0.15000001
   17.51944351   77.67939758    0.11000000    0.15000001
   17.52249908   78.33080292    0.11000000    0.15000001
   17.52583313   80.54540253    0.11000000    0.15000001
   17.53194427   80.54540253    0.11000000    0.15000001
   17.53610992   79.10019684    0.11000000    0.15000001
   17.53916550   80.24089813    0.11000000    0.15000001
   17.54249954   79.23709869    0.11000000    0.15000001
   17.54555511   76.29460144    0.11000000    0.15000001
   17.54888916   78.17120361    0.11000000    0.15000001
   17.55222130   76.53530121    0.11000000    0.15000001
   17.55527687   74.45860291    0.11000000    0.15000001
   17.55861092   75.44850159    0.11000000    0.15000001
   17.56194305   78.30539703    0.11000000    0.15000001
   17.56499863   79.82759857    0.11000000    0.15000001
   17.56833458   77.88400269    0.11000000    0.15000001
   17.56888962   77.38240051    0.11000000    0.15000001
   17.57472229   77.38240051    0.11000000    0.15000001
   17.57888985   83.62789917    0.11000000    0.15000001
   17.58194542   80.26480103    0.11000000    0.15000001
   17.58527756   85.27089691    0.11000000    0.15000001
   17.58861160   80.10540009    0.11000000    0.15000001
   17.59166718   76.61889648    0.11000000    0.15000001
   17.59500122   79.31459808    0.11000000    0.15000001
   17.59833336   76.60720062    0.11000000    0.15000001
   17.60138893   75.48419952    0.11000000    0.15000001
   17.60222244   77.29380035    0.11000000    0.15000001
   17.60499954   79.43849945    0.11000000    0.15000001
   17.60833359   78.65229797    0.11000000    0.15000001
   17.61166763   81.40689850    0.11000000    0.15000001
   17.61750031   81.40689850    0.11000000    0.15000001
   17.62166595   78.97440338    0.11000000    0.15000001
   17.62500000   79.19740295    0.11000000    0.15000001
   17.62805557   79.72149658    0.11000000    0.15000001
   17.63138962   83.83049774    0.11000000    0.15000001
   17.63444519   77.01840210    0.11000000    0.15000001
   17.63555527   78.34889984    0.11000000    0.15000001
   17.63805580   79.68530273    0.11000000    0.15000001
   17.64138794   80.98290253    0.11000000    0.15000001
   17.64472198   84.47180176    0.11000000    0.15000001
   17.64777756   85.90440369    0.11000000    0.15000001
   17.65111160   82.80220032    0.11000000    0.15000001
   17.65444374   83.81909943    0.11000000    0.15000001
   17.66027832   83.81909943    0.11000000    0.15000001
   17.66444397   86.14019775    0.11000000    0.15000001
   17.66777802   85.19869995    0.11000000    0.15000001
   17.66888809   85.15000153    0.11000000    0.15000001
   17.67111015   85.15190125    0.11000000    0.15000001
   17.67444420   85.82089996    0.11000000    0.15000001
   17.67777634   83.12870026    0.11000000    0.15000001
   17.68083191   87.73729706    0.11000000    0.15000001
   17.68416595   94.29340363    0.11000000    0.15000001
   17.68750000   88.80719757    0.11000000    0.15000001
   17.69055557   98.63339996    0.11000000    0.15000001
   17.69388771   95.21499634    0.11000000    0.15000001
   17.69694328   84.82189941    0.11000000    0.15000001
   17.70333481   84.82189941    0.11000000    0.15000001
   17.70750046   95.70369720    0.11000000    0.15000001
   17.71055603   91.49440002    0.11000000    0.15000001
   17.71389008   94.21990204    0.11000000    0.15000001
   17.71694565   92.14060211    0.11000000    0.15000001
   17.72027779  104.07099915    0.11000000    0.15000001
   17.72361183   99.94480133    0.11000000    0.15000001
   17.72694588   96.60440063    0.11000000    0.15000001
   17.73000145  103.18399811    0.11000000    0.15000001
   17.73333359   95.95069885    0.11000000    0.15000001
   17.73555565   96.94010162    0.11000000    0.15000001
   17.73694420   95.39880371    0.11000000    0.15000001
   17.73999977   99.54570007    0.11000000    0.15000001
   17.74611092   99.54570007    0.11000000    0.15000001
   17.75027847   95.24130249    0.11000000    0.15000001
   17.75333405   98.34329987    0.11000000    0.15000001
   17.75666618   95.36930084    0.11000000    0.15000001
   17.76000023  106.38500214    0.11000000    0.15000001
   17.76305580   97.21990204    0.11000000    0.15000001
   17.76638794  104.21099854    0.11000000    0.15000001
   17.76888847  104.68699646    0.11000000    0.15000001
   17.77027702  100.28099823    0.11000000    0.15000001
   17.77333260   97.04419708    0.11000000    0.15000001
   17.77666664   98.28079987    0.11000000    0.15000001
   17.77972221   97.72969818    0.11000000    0.15000001
   17.78305435   99.24549866    0.11000000    0.15000001
   17.78888893   99.24549866    0.11000000    0.15000001
   17.79305458  106.23799896    0.11000000    0.15000001
   17.79638863   99.07800293    0.11000000    0.15000001
   17.79944420   99.01989746    0.11000000    0.15000001
   17.80222130   98.15090179    0.11000000    0.15000001
   17.80333328  109.09100342    0.11000000    0.15000001
   17.80638885  102.17299652    0.11000000    0.15000001
   17.80972099  101.62100220    0.11000000    0.15000001
   17.81277657  106.10099792    0.11000000    0.15000001
   17.81611061  101.86399841    0.11000000    0.15000001
   17.81944466  103.45999908    0.11000000    0.15000001
   17.82250023  100.91999817    0.11000000    0.15000001
   17.82583427  104.78900146    0.11000000    0.15000001
   17.83166695  104.78900146    0.11000000    0.15000001
   17.83583450  104.59500122    0.11000000    0.15000001
   17.83916664  104.82399750    0.11000000    0.15000001
   17.84222221  107.23400116    0.11000000    0.15000001
   17.84555626  108.60399628    0.11000000    0.15000001
   17.84889030  102.96099854    0.11000000    0.15000001
   17.85194397  105.84500122    0.11000000    0.15000001
   17.85527802  114.04199982    0.11000000    0.15000001
   17.85861206  107.58300018    0.11000000    0.15000001
   17.86166763  106.94000244    0.11000000    0.15000001
   17.86499977  107.97000122    0.11000000    0.15000001
   17.86805534  100.52100372    0.11000000    0.15000001
   17.86888885  101.58399963    0.11000000    0.15000001
   17.87472153  101.58399963    0.11000000    0.15000001
   17.87861061  106.71700287    0.11000000    0.15000001
   17.88194466  105.44799805    0.11000000    0.15000001
   17.88527679  106.89299774    0.11000000    0.15000001
   17.88833237  105.87200165    0.11000000    0.15000001
   17.89166641  108.80100250    0.11000000    0.15000001
   17.89500046  112.57499695    0.11000000    0.15000001
   17.89805603  107.03299713    0.11000000    0.15000001
   17.90138817  110.98300171    0.11000000    0.15000001
   17.90222168  108.55500031    0.11000000    0.15000001
   17.90499878  107.36199951    0.11000000    0.15000001
   17.90805435  104.82399750    0.11000000    0.15000001
   17.91138840  111.97699738    0.11000000    0.15000001
   17.91749954  111.97699738    0.11000000    0.15000001
   17.92166519  110.72200012    0.11000000    0.15000001
   17.92472076  104.60600281    0.11000000    0.15000001
   17.92805481  108.09799957    0.11000000    0.15000001
   17.93138885  109.10900116    0.11000000    0.15000001
   17.93444443  103.41600037    0.11000000    0.15000001
   17.93555450  101.66400146    0.11000000    0.15000001
   17.93833160  111.87300110    0.11000000    0.15000001
   17.94138718  107.68900299    0.11000000    0.15000001
   17.94472122  102.03299713    0.11000000    0.15000001
   17.94777679  105.24299622    0.11000000    0.15000001
   17.95111275  113.81500244    0.11000000    0.15000001
   17.95444489  113.61799622    0.11000000    0.15000001
   17.96027946  113.61799622    0.11000000    0.15000001
   17.96444511  104.48200226    0.11000000    0.15000001
   17.96777916  112.36900330    0.11000000    0.15000001
   17.96888924  110.70899963    0.11000000    0.15000001
   17.97138977  106.85700226    0.11000000    0.15000001
   17.97444534  105.70300293    0.11000000    0.15000001
   17.97777748  109.95400238    0.11000000    0.15000001
   17.98083305  106.40200043    0.11000000    0.15000001
   17.98416710  118.14299774    0.11000000    0.15000001
   17.98750114  103.22499847    0.11000000    0.15000001
   17.99055672  115.96900177    0.11000000    0.15000001
   17.99388885  110.65200043    0.11000000    0.15000001
   17.99722290  106.81199646    0.11000000    0.15000001
   18.00305557  106.81199646    0.11000000    0.15000001
   18.00722313  108.11399841    0.11000000    0.15000001
   18.01055527  110.91000366    0.11000000    0.15000001
   18.01361084  104.59999847    0.11000000    0.15000001
   18.01694489  102.26899719    0.11000000    0.15000001
   18.02027702  103.23400116    0.11000000    0.15000001
   18.02333260  110.22299957    0.11000000    0.15000001
   18.02666664  105.59200287    0.11000000    0.15000001
   18.03000069   99.53289795    0.11000000    0.15000001
   18.03305435  106.28199768    0.11000000    0.15000001
   18.03555489  105.33599854    0.11000000    0.15000001
   18.03694344  106.16200256    0.11000000    0.15000001
   18.03999901  105.60399628    0.11000000    0.15000001
   18.04611015  105.60399628    0.11000000    0.15000001
   18.04999924  105.24299622    0.11000000    0.15000001
   18.05333328  113.01899719    0.11000000    0.15000001
   18.05666542  105.53199768    0.11000000    0.15000001
   18.05972099  107.13400269    0.11000000    0.15000001
   18.06305504  104.51100159    0.11000000    0.15000001
   18.06638718  109.01599884    0.11000000    0.15000001
   18.06888962  106.23400116    0.11000000    0.15000001
   18.07000160  106.09200287    0.11000000    0.15000001
   18.07305717  109.78800201    0.11000000    0.15000001
   18.07638931  110.97000122    0.11000000    0.15000001
   18.07972336  112.00499725    0.11000000    0.15000001
   18.08277893  104.83999634    0.11000000    0.15000001
   18.08889008  104.83999634    0.11000000    0.15000001
   18.09305573  105.25700378    0.11000000    0.15000001
   18.09611130  103.67099762    0.11000000    0.15000001
   18.09944534  107.80699921    0.11000000    0.15000001
   18.10222244  110.32800293    0.11000000    0.15000001
   18.10305595  106.86799622    0.11000000    0.15000001
   18.10611153  110.54000092    0.11000000    0.15000001
   18.10944557  115.36900330    0.11000000    0.15000001
   18.11277771  102.45800018    0.11000000    0.15000001
   18.11583328  103.46600342    0.11000000    0.15000001
   18.11916733  105.09100342    0.11000000    0.15000001
   18.12222290  109.85900116    0.11000000    0.15000001
   18.12555504  109.32700348    0.11000000    0.15000001
   18.13166618  109.32700348    0.11000000    0.15000001
   18.13583374  106.87000275    0.11000000    0.15000001
   18.13916588  111.62699890    0.11000000    0.15000001
   18.14222145  111.00299835    0.11000000    0.15000001
   18.14555550  109.61900330    0.11000000    0.15000001
   18.14861107  108.19899750    0.11000000    0.15000001
   18.15194321  113.41899872    0.11000000    0.15000001
   18.15527725  112.02500153    0.11000000    0.15000001
   18.15833282  110.90100098    0.11000000    0.15000001
   18.16166687  105.02999878    0.11000000    0.15000001
   18.16499901  105.16100311    0.11000000    0.15000001
   18.16805458  109.90899658    0.11000000    0.15000001
   18.16888809  104.11900330    0.11000000    0.15000001
   18.17444420  104.11900330    0.11000000    0.15000001
   18.17860985  106.08599854    0.11000000    0.15000001
   18.18194389  104.00199890    0.11000000    0.15000001
   18.18499947  101.33000183    0.11000000    0.15000001
   18.18833160  100.63099670    0.11000000    0.15000001
   18.19166565  105.72799683    0.11000000    0.15000001
   18.19472122  108.06199646    0.11000000    0.15000001
   18.19805527   99.21640015    0.11000000    0.15000001
   18.20138931  105.78800201    0.11000000    0.15000001
   18.20222282   99.85749817    0.11000000    0.15000001
   18.20499992  101.00499725    0.11000000    0.15000001
   18.20805550  101.61199951    0.11000000    0.15000001
   18.21138954  100.28800201    0.11000000    0.15000001
   18.21750069  100.28800201    0.11000000    0.15000001
   18.22138977  106.50000000    0.11000000    0.15000001
   18.22472191  106.98400116    0.11000000    0.15000001
   18.22805595  102.51300049    0.11000000    0.15000001
   18.23111153  104.62400055    0.11000000    0.15000001
   18.23444557  112.60800171    0.11000000    0.15000001
   18.23555565  111.10299683    0.11000000    0.15000001
   18.23805618  105.66000366    0.11000000    0.15000001
   18.24111176  107.41200256    0.11000000    0.15000001
   18.24444389  108.76499939    0.11000000    0.15000001
   18.24777794  109.14900208    0.11000000    0.15000001
   18.25083351  106.68099976    0.11000000    0.15000001
   18.25416756  112.34200287    0.11000000    0.15000001
   18.26027870  112.34200287    0.11000000    0.15000001
   18.26444435  105.06500244    0.11000000    0.15000001
   18.26749992  110.26699829    0.11000000    0.15000001
   18.26888847  103.53700256    0.11000000    0.15000001
   18.27138901  109.54499817    0.11000000    0.15000001
   18.27444458  102.54399872    0.11000000    0.15000001
   18.27777672  109.64900208    0.11000000    0.15000001
   18.28111076  104.42600250    0.11000000    0.15000001
   18.28416634  103.95300293    0.11000000    0.15000001
   18.28750038  112.63300323    0.11000000    0.15000001
   18.29055595  112.96600342    0.11000000    0.15000001
   18.29388809  104.31400299    0.11000000    0.15000001
   18.29722214  108.78600311    0.11000000    0.15000001
   18.30305481  108.78600311    0.11000000    0.15000001
   18.30722237  113.70500183    0.11000000    0.15000001
   18.31055450  107.25199890    0.11000000    0.15000001
   18.31361008  106.11900330    0.11000000    0.15000001
   18.31694603  112.12899780    0.11000000    0.15000001
   18.32000160  108.07099915    0.11000000    0.15000001
   18.32333374  104.96099854    0.11000000    0.15000001
   18.32666779  112.05699921    0.11000000    0.15000001
   18.32972336  107.21499634    0.11000000    0.15000001
   18.33305550  108.86199951    0.11000000    0.15000001
   18.33555603  107.28600311    0.11000000    0.15000001
   18.33666801  111.30599976    0.11000000    0.15000001
   18.33972359   99.89530182    0.11000000    0.15000001
   18.34583473   99.89530182    0.11000000    0.15000001
   18.35000038  112.13800049    0.11000000    0.15000001
   18.35333443  106.55200195    0.11000000    0.15000001
   18.35639000  107.84700012    0.11000000    0.15000001
   18.35972214  114.45600128    0.11000000    0.15000001
   18.36305618  106.70300293    0.11000000    0.15000001
   18.36611176  110.99299622    0.11000000    0.15000001
   18.36888885  109.09899902    0.11000000    0.15000001
   18.37000084  110.53099823    0.11000000    0.15000001
   18.37305641  107.52799988    0.11000000    0.15000001
   18.37638855  110.78700256    0.11000000    0.15000001
   18.37972260  103.91500092    0.11000000    0.15000001
   18.38277817  110.37899780    0.11000000    0.15000001
   18.38888931  110.37899780    0.11000000    0.15000001
   18.39277840  110.90899658    0.11000000    0.15000001
   18.39611053  100.89299774    0.11000000    0.15000001
   18.39944458  112.50199890    0.11000000    0.15000001
   18.40222168  109.19100189    0.11000000    0.15000001
   18.40305519  108.40299988    0.11000000    0.15000001
   18.40611076  113.53800201    0.11000000    0.15000001
   18.40944481  106.19999695    0.11000000    0.15000001
   18.41277695  111.82599640    0.11000000    0.15000001
   18.41583252  117.58799744    0.11000000    0.15000001
   18.41916656  111.40000153    0.11000000    0.15000001
   18.42249870  115.59799957    0.11000000    0.15000001
   18.42555428  105.07099915    0.11000000    0.15000001
   18.43166542  105.07099915    0.11000000    0.15000001
   18.43583298  105.88999939    0.11000000    0.15000001
   18.43888855  107.00599670    0.11000000    0.15000001
   18.44222069  117.80799866    0.11000000    0.15000001
   18.44555473  108.88899994    0.11000000    0.15000001
   18.44861031  108.39199829    0.11000000    0.15000001
   18.45194435  112.83999634    0.11000000    0.15000001
   18.45499992  103.59300232    0.11000000    0.15000001
   18.45833397  109.02899933    0.11000000    0.15000001
   18.46166801  102.28500366    0.11000000    0.15000001
   18.46472359  102.97399902    0.11000000    0.15000001
   18.46805573  106.22799683    0.11000000    0.15000001
   18.46888924  101.31700134    0.11000000    0.15000001
   18.48972321  101.31700134    0.11000000    0.15000001
   18.49361229  105.76999664    0.11000000    0.15000001
   18.49694443  108.48400116    0.11000000    0.15000001
   18.50027847  103.02700043    0.11000000    0.15000001
   18.50222206  111.51499939    0.11000000    0.15000001
   18.50388908  104.54000092    0.11000000    0.15000001
   18.50722313  101.16200256    0.11000000    0.15000001
   18.51027870  108.10299683    0.11000000    0.15000001
   18.51361084  106.57700348    0.11000000    0.15000001
   18.51694489  104.53900146    0.11000000    0.15000001
   18.52000046  105.90899658    0.11000000    0.15000001
   18.52333260  107.81900024    0.11000000    0.15000001
   18.52638817  100.51100159    0.11000000    0.15000001
   18.53222275  100.51100159    0.11000000    0.15000001
   18.53638840  103.92700195    0.11000000    0.15000001
   18.53972244  110.68399811    0.11000000    0.15000001
   18.54305458  106.60399628    0.11000000    0.15000001
   18.54611015  110.26200104    0.11000000    0.15000001
   18.54944420  104.64600372    0.11000000    0.15000001
   18.55249977  103.87100220    0.11000000    0.15000001
   18.55583191  110.38899994    0.11000000    0.15000001
   18.55916595  106.86100006    0.11000000    0.15000001
   18.56222153  109.57900238    0.11000000    0.15000001
   18.56555557  107.61499786    0.11000000    0.15000001
   18.56888962  104.74400330    0.11000000    0.15000001
   18.56944466  106.61199951    0.11000000    0.15000001
   18.57527924  106.61199951    0.11000000    0.15000001
   18.57944489  111.06999969    0.11000000    0.15000001
   18.58250046  113.78800201    0.11000000    0.15000001
   18.58583450  111.43000031    0.11000000    0.15000001
   18.58889008  112.79699707    0.11000000    0.15000001
   18.59222221  107.41799927    0.11000000    0.15000001
   18.59555626  109.09999847    0.11000000    0.15000001
   18.59861183  109.53099823    0.11000000    0.15000001
   18.60194397  108.49099731    0.11000000    0.15000001
   18.60277748  107.88300323    0.11000000    0.15000001
   18.60555649  114.12100220    0.11000000    0.15000001
   18.60888863  108.22200012    0.11000000    0.15000001
   18.61194420  105.67099762    0.11000000    0.15000001
   18.61805534  105.67099762    0.11000000    0.15000001
   18.62222290  104.37100220    0.11000000    0.15000001
   18.62527847  110.38899994    0.11000000    0.15000001
   18.62861061  107.24299622    0.11000000    0.15000001
   18.63194466  107.86399841    0.11000000    0.15000001
   18.63500023  108.75199890    0.11000000    0.15000001
   18.63611031  102.85900116    0.11000000    0.15000001
   18.63861084  111.96099854    0.11000000    0.15000001
   18.64194489  109.00599670    0.11000000    0.15000001
   18.64500046  111.32900238    0.11000000    0.15000001
   18.64833260  110.19300079    0.11000000    0.15000001
   18.65166664  109.90699768    0.11000000    0.15000001
   18.65472221  109.12400055    0.11000000    0.15000001
   18.66083336  109.12400055    0.11000000    0.15000001
   18.66499901  111.24500275    0.11000000    0.15000001
   18.66833305  117.41200256    0.11000000    0.15000001
   18.66944313  111.66799927    0.11000000    0.15000001
   18.67194366  109.64700317    0.11000000    0.15000001
   18.67527771  114.78399658    0.11000000    0.15000001
   18.67833328  115.30999756    0.11000000    0.15000001
   18.68166542  109.39800262    0.11000000    0.15000001
   18.68499947  107.13999939    0.11000000    0.15000001
   18.68805504  106.30599976    0.11000000    0.15000001
   18.69138718  111.88899994    0.11000000    0.15000001
   18.69472122  108.67099762    0.11000000    0.15000001
   18.69777679  110.09500122    0.11000000    0.15000001
   18.70361137  110.09500122    0.11000000    0.15000001
   18.70777893  115.69300079    0.11000000    0.15000001
   18.71111107  115.43800354    0.11000000    0.15000001
   18.71444511  106.59200287    0.11000000    0.15000001
   18.71750069  127.19599915    0.11000000    0.15000001
   18.72083473  115.77100372    0.11000000    0.15000001
   18.72389030  121.66200256    0.11000000    0.15000001
   18.72722244  116.08599854    0.11000000    0.15000001
   18.73055649  119.11799622    0.11000000    0.15000001
   18.73361206  117.78800201    0.11000000    0.15000001
   18.73611069  116.05500031    0.11000000    0.15000001
   18.73722267  124.01399994    0.11000000    0.15000001
   18.74055672  108.62599945    0.11000000    0.15000001
   18.74666786  108.62599945    0.11000000    0.15000001
   18.75083351  117.46199799    0.11000000    0.15000001
   18.75388908  115.64499664    0.11000000    0.15000001
   18.75722313  126.35199738    0.11000000    0.15000001
   18.76027870  122.10600281    0.11000000    0.15000001
   18.76361084  122.71399689    0.11000000    0.15000001
   18.76694489  108.26000214    0.11000000    0.15000001
   18.76944351  124.58999634    0.11000000    0.15000001
   18.77055550  129.30000305    0.11000000    0.15000001
   18.77388954  130.38499451    0.11000000    0.15000001
   18.77694511  126.19000244    0.11000000    0.15000001
   18.78027725  107.14900208    0.11000000    0.15000001
   18.78361130  117.82199860    0.11000000    0.15000001
   18.78944397  117.82199860    0.11000000    0.15000001
   18.79361153  128.31500244    0.11000000    0.15000001
   18.79666710  121.45899963    0.11000000    0.15000001
   18.79999924  122.58300018    0.11000000    0.15000001
   18.80277634  123.35099792    0.11000000    0.15000001
   18.80360985  125.69300079    0.11000000    0.15000001
   18.80694389  123.17199707    0.11000000    0.15000001
   18.81027794  119.73000336    0.11000000    0.15000001
   18.81333351  108.90100098    0.11000000    0.15000001
   18.81666756  112.99500275    0.11000000    0.15000001
   18.81972313  125.74800110    0.11000000    0.15000001
   18.82305717  121.69200134    0.11000000    0.15000001
   18.82638931  127.04799652    0.11000000    0.15000001
   18.83222389  127.04799652    0.11000000    0.15000001
   18.83638954  126.14800262    0.11000000    0.15000001
   18.83972359  121.38200378    0.11000000    0.15000001
   18.84277916  124.18000031    0.11000000    0.15000001
   18.84611130  112.70700073    0.11000000    0.15000001
   18.84944534  116.34400177    0.11000000    0.15000001
   18.85250092  112.53600311    0.11000000    0.15000001
   18.85583305  111.85099792    0.11000000    0.15000001
   18.85888863  112.26000214    0.11000000    0.15000001
   18.86222267  109.12400055    0.11000000    0.15000001
   18.86555672  113.23899841    0.11000000    0.15000001
   18.86861038  110.84300232    0.11000000    0.15000001
   18.86944389  114.08799744    0.11000000    0.15000001
   18.87500000  114.08799744    0.11000000    0.15000001
   18.87916756  109.17900085    0.11000000    0.15000001
   18.88249969  109.91200256    0.11000000    0.15000001
   18.88583374  111.34500122    0.11000000    0.15000001
   18.88888931  106.73000336    0.11000000    0.15000001
   18.89222145  119.14600372    0.11000000    0.15000001
   18.89527702  123.13400269    0.11000000    0.15000001
   18.89861107  121.21600342    0.11000000    0.15000001
   18.90194321  114.35700226    0.11000000    0.15000001
   18.90277672  124.96900177    0.11000000    0.15000001
   18.90527725  117.53700256    0.11000000    0.15000001
   18.90861130  116.87200165    0.11000000    0.15000001
   18.91194344  118.97899628    0.11000000    0.15000001
   18.91805458  118.97899628    0.11000000    0.15000001
   18.92194366  121.03600311    0.11000000    0.15000001
   18.92527771  113.46900177    0.11000000    0.15000001
   18.92860985  114.36299896    0.11000000    0.15000001
   18.93166542  121.39900208    0.11000000    0.15000001
   18.93499947  113.43800354    0.11000000    0.15000001
   18.93610954  110.42600250    0.11000000    0.15000001
   18.93861008  112.23999786    0.11000000    0.15000001
   18.94194412  119.00599670    0.11000000    0.15000001
   18.94527626  117.07800293    0.11000000    0.15000001
   18.94833183   99.17299652    0.11000000    0.15000001
   18.95166779  116.30500031    0.11000000    0.15000001
   18.95472336  123.52200317    0.11000000    0.15000001
   18.96083450  123.52200317    0.11000000    0.15000001
   18.96500015  120.11799622    0.11000000    0.15000001
   18.96805573  118.17600250    0.11000000    0.15000001
   18.96944427  115.08599854    0.11000000    0.15000001
   18.97166634  119.19499969    0.11000000    0.15000001
   18.97500038  112.66000366    0.11000000    0.15000001
   18.97833443  114.07199860    0.11000000    0.15000001
   18.98139000  118.08000183    0.11000000    0.15000001
   18.98472214  112.89600372    0.11000000    0.15000001
   18.98777771  114.40499878    0.11000000    0.15000001
   18.99111176  118.54399872    0.11000000    0.15000001
   18.99444389  115.85900116    0.11000000    0.15000001
   18.99749947  120.06300354    0.11000000    0.15000001
   19.00361061  120.06300354    0.11000000    0.15000001
   19.00777817  117.66999817    0.11000000    0.15000001
   19.01111031  117.91000366    0.11000000    0.15000001
   19.01416588  118.01399994    0.11000000    0.15000001
   19.01749992  111.01000214    0.11000000    0.15000001
   19.02055550  118.48899841    0.11000000    0.15000001
   19.02388954  107.60199738    0.11000000    0.15000001
   19.02722168  114.55899811    0.11000000    0.15000001
   19.03027725  110.10600281    0.11000000    0.15000001
   19.03361130  108.88300323    0.11000000    0.15000001
   19.03610992  107.63600159    0.11000000    0.15000001
   19.03722191  114.43099976    0.11000000    0.15000001
   19.04055595  115.03500366    0.11000000    0.15000001
   19.04638863  115.03500366    0.11000000    0.15000001
   19.05055428  111.46199799    0.11000000    0.15000001
   19.05388832  115.11599731    0.11000000    0.15000001
   19.05694389  117.59600067    0.11000000    0.15000001
   19.06027794  121.46700287    0.11000000    0.15000001
   19.06361008  121.10500336    0.11000000    0.15000001
   19.06666756  111.83999634    0.11000000    0.15000001
   19.06944466  114.07399750    0.11000000    0.15000001
   19.07027817  116.18399811    0.11000000    0.15000001
   19.07361221  120.91000366    0.11000000    0.15000001
   19.07694626  116.49600220    0.11000000    0.15000001
   19.08000183  111.11599731    0.11000000    0.15000001
   19.08333397  116.45700073    0.11000000    0.15000001
   19.08944511  116.45700073    0.11000000    0.15000001
   19.09333420  114.84100342    0.11000000    0.15000001
   19.09666824  119.50900269    0.11000000    0.15000001
   19.10000038  112.41999817    0.11000000    0.15000001
   19.10277748  112.29699707    0.11000000    0.15000001
   19.10333443  128.93499756    0.11000000    0.15000001
   19.10666656  113.86199951    0.11000000    0.15000001
   19.11000061  119.70400238    0.11000000    0.15000001
   19.11305618  126.93299866    0.11000000    0.15000001
   19.11638832  126.02899933    0.11000000    0.15000001
   19.11972237  121.13300323    0.11000000    0.15000001
   19.12277794  110.84999847    0.11000000    0.15000001
   19.12611198  114.02500153    0.11000000    0.15000001
   19.13222313  114.02500153    0.11000000    0.15000001
   19.13638878  107.84100342    0.11000000    0.15000001
   19.13944435  113.54799652    0.11000000    0.15000001
   19.14277840  103.90599823    0.11000000    0.15000001
   19.14611053  115.44000244    0.11000000    0.15000001
   19.14916611  114.54599762    0.11000000    0.15000001
   19.15250015  103.99400330    0.11000000    0.15000001
   19.15555573  108.67400360    0.11000000    0.15000001
   19.15888786  115.01000214    0.11000000    0.15000001
   19.16222191  114.92099762    0.11000000    0.15000001
   19.16527748  120.35099792    0.11000000    0.15000001
   19.16860962  122.69999695    0.11000000    0.15000001
   19.16944313  117.13999939    0.11000000    0.15000001
   19.17499924  117.13999939    0.11000000    0.15000001
   19.17916679  118.36399841    0.11000000    0.15000001
   19.18249893  116.11399841    0.11000000    0.15000001
   19.18555450  106.52600098    0.11000000    0.15000001
   19.18888855  113.27799988    0.11000000    0.15000001
   19.19222069  111.41899872    0.11000000    0.15000001
   19.19527626  113.18000031    0.11000000    0.15000001
   19.19861031  123.78700256    0.11000000    0.15000001
   19.20194435  117.42600250    0.11000000    0.15000001
   19.20277786  116.75700378    0.11000000    0.15000001
   19.20527840  120.98100281    0.11000000    0.15000001
   19.20861244  116.05200195    0.11000000    0.15000001
   19.21194458  116.72899628    0.11000000    0.15000001
   19.21777916  116.72899628    0.11000000    0.15000001
   19.22194481  116.05699921    0.11000000    0.15000001
   19.22527885  116.10399628    0.11000000    0.15000001
   19.22833443  119.40799713    0.11000000    0.15000001
   19.23166656  118.73999786    0.11000000    0.15000001
   19.23500061  118.49900055    0.11000000    0.15000001
   19.23611069  121.37799835    0.11000000    0.15000001
   19.23833275  112.60900116    0.11000000    0.15000001
   19.24166679  114.69899750    0.11000000    0.15000001
   19.24500084  121.33699799    0.11000000    0.15000001
   19.24805641  115.69699860    0.11000000    0.15000001
   19.25138855  110.11599731    0.11000000    0.15000001
   19.25472260  118.42400360    0.11000000    0.15000001
   19.26083374  118.42400360    0.11000000    0.15000001
   19.26472282  108.85800171    0.11000000    0.15000001
   19.26805496  116.01799774    0.11000000    0.15000001
   19.26944351  108.17900085    0.11000000    0.15000001
   19.27166557  112.24500275    0.11000000    0.15000001
   19.27499962  104.39299774    0.11000000    0.15000001
   19.27833366  111.43499756    0.11000000    0.15000001
   19.28138924  106.66899872    0.11000000    0.15000001
   19.28472137  108.79699707    0.11000000    0.15000001
   19.28805542  113.19200134    0.11000000    0.15000001
   19.29111099  104.46199799    0.11000000    0.15000001
   19.29444313  108.73400116    0.11000000    0.15000001
   19.29749870  106.61199951    0.11000000    0.15000001
   19.30360985  106.61199951    0.11000000    0.15000001
   19.30777740  104.66200256    0.11000000    0.15000001
   19.31083298  120.10299683    0.11000000    0.15000001
   19.31416512  110.29599762    0.11000000    0.15000001
   19.31750107  113.81400299    0.11000000    0.15000001
   19.32055664  106.48899841    0.11000000    0.15000001
   19.32389069  114.41899872    0.11000000    0.15000001
   19.32694626  115.52500153    0.11000000    0.15000001
   19.33027840  114.80000305    0.11000000    0.15000001
   19.33361244  125.79799652    0.11000000    0.15000001
   19.33611107  114.21199799    0.11000000    0.15000001
   19.33694458  116.96499634    0.11000000    0.15000001
   19.34027863  108.57900238    0.11000000    0.15000001
   19.34638977  108.57900238    0.11000000    0.15000001
   19.35055542  111.16000366    0.11000000    0.15000001
   19.35388947  112.16300201    0.11000000    0.15000001
   19.35694504  108.98400116    0.11000000    0.15000001
   19.36027908  107.76000214    0.11000000    0.15000001
   19.36333466  117.49400330    0.11000000    0.15000001
   19.36666679  113.80599976    0.11000000    0.15000001
   19.36944389  109.57399750    0.11000000    0.15000001
   19.37055588  109.56400299    0.11000000    0.15000001
   19.37361145  110.88899994    0.11000000    0.15000001
   19.37694550  107.68800354    0.11000000    0.15000001
   19.38000107  103.87400055    0.11000000    0.15000001
   19.38333321  107.90799713    0.11000000    0.15000001
   19.38916588  107.90799713    0.11000000    0.15000001
   19.39333344  120.40200043    0.11000000    0.15000001
   19.39666748  107.83300018    0.11000000    0.15000001
   19.39972115  117.66300201    0.11000000    0.15000001
   19.40277672  106.67600250    0.11000000    0.15000001
   19.40361023  115.46399689    0.11000000    0.15000001
   19.40666580  116.05000305    0.11000000    0.15000001
   19.40999985  105.57800293    0.11000000    0.15000001
   19.41305542  115.88099670    0.11000000    0.15000001
   19.41638756  118.26000214    0.11000000    0.15000001
   19.41972160  116.89600372    0.11000000    0.15000001
   19.42277718  110.12999725    0.11000000    0.15000001
   19.42611122  109.26100159    0.11000000    0.15000001
   19.43222237  109.26100159    0.11000000    0.15000001
   19.43610954  108.53399658    0.11000000    0.15000001
   19.43944359  111.86199951    0.11000000    0.15000001
   19.44277763  104.96900177    0.11000000    0.15000001
   19.44583321  112.12500000    0.11000000    0.15000001
   19.44916534  107.51699829    0.11000000    0.15000001
   19.45250130  121.68800354    0.11000000    0.15000001
   19.45555687  113.91000366    0.11000000    0.15000001
   19.45888901  108.58699799    0.11000000    0.15000001
   19.46194458  115.54199982    0.11000000    0.15000001
   19.46527863  113.05000305    0.11000000    0.15000001
   19.46861076  104.86499786    0.11000000    0.15000001
   19.46944427  107.79799652    0.11000000    0.15000001
   19.47500038  107.79799652    0.11000000    0.15000001
   19.47916794  113.68199921    0.11000000    0.15000001
   19.48222351  110.59300232    0.11000000    0.15000001
   19.48555565  122.12100220    0.11000000    0.15000001
   19.50305557  110.22699738    0.11000000    0.15000001
   19.50555611  111.61299896    0.11000000    0.15000001
   19.50861168  116.48500061    0.11000000    0.15000001
   19.51194382  114.18199921    0.11000000    0.15000001
   19.51805496  114.18199921    0.11000000    0.15000001
   19.52222252  113.40000153    0.11000000    0.15000001
   19.52527809  115.24199677    0.11000000    0.15000001
   19.52861023  104.46499634    0.11000000    0.15000001
   19.53166580  112.08300018    0.11000000    0.15000001
   19.53499985  111.67199707    0.11000000    0.15000001
   19.53638840  118.99500275    0.11000000    0.15000001
   19.53888893  108.44999695    0.11000000    0.15000001
   19.54194450  109.33699799    0.11000000    0.15000001
   19.54527664  117.70500183    0.11000000    0.15000001
   19.54833221  115.50099945    0.11000000    0.15000001
   19.55166626  115.28099823    0.11000000    0.15000001
   19.55499840  120.79399872    0.11000000    0.15000001
   19.56083298  120.79399872    0.11000000    0.15000001
   19.56499863  113.53600311    0.11000000    0.15000001
   19.56805611  121.90299988    0.11000000    0.15000001
   19.56972313  120.14600372    0.11000000    0.15000001
   19.57166672  124.56800079    0.11000000    0.15000001
   19.57500076  114.53299713    0.11000000    0.15000001
   19.57833481  113.65000153    0.11000000    0.15000001
   19.58139038  110.76999664    0.11000000    0.15000001
   19.58472252  113.98500061    0.11000000    0.15000001
   19.58805656  113.98200226    0.11000000    0.15000001
   19.59111214  106.36599731    0.11000000    0.15000001
   19.59444427  109.99299622    0.11000000    0.15000001
   19.59749985  108.02700043    0.11000000    0.15000001
   19.60361099  108.02700043    0.11000000    0.15000001
   19.60777855  106.01899719    0.11000000    0.15000001
   19.61111069  108.49800110    0.11000000    0.15000001
   19.61416626  110.52700043    0.11000000    0.15000001
   19.61750031  114.50900269    0.11000000    0.15000001
   19.62083435  108.34799957    0.11000000    0.15000001
   19.62388992  122.93699646    0.11000000    0.15000001
   19.62722206  115.46099854    0.11000000    0.15000001
   19.63055611  112.20800018    0.11000000    0.15000001
   19.63361168  120.63800049    0.11000000    0.15000001
   19.63638878  106.82499695    0.11000000    0.15000001
   19.63722229  118.70999908    0.11000000    0.15000001
   19.64055634  118.79699707    0.11000000    0.15000001
   19.64638901  118.79699707    0.11000000    0.15000001
   19.65055466  110.76999664    0.11000000    0.15000001
   19.65388870  118.26399994    0.11000000    0.15000001
   19.65722275  120.60199738    0.11000000    0.15000001
   19.66027832  127.45200348    0.11000000    0.15000001
   19.66361046  123.33599854    0.11000000    0.15000001
   19.66666603  118.79799652    0.11000000    0.15000001
   19.66972160  120.39499664    0.11000000    0.15000001
   19.67027664  112.97599792    0.11000000    0.15000001
   19.67361069  118.66200256    0.11000000    0.15000001
   19.67694473  112.56099701    0.11000000    0.15000001
   19.68000031  115.11399841    0.11000000    0.15000001
   19.68333244  114.20500183    0.11000000    0.15000001
   19.68944359  114.20500183    0.11000000    0.15000001
   19.69361115  115.97699738    0.11000000    0.15000001
   19.69666672  119.48400116    0.11000000    0.15000001
   19.70000076  112.42400360    0.11000000    0.15000001
   19.70305634  114.08499908    0.11000000    0.15000001
   19.70333481  108.89700317    0.11000000    0.15000001
   19.70666695  122.06400299    0.11000000    0.15000001
   19.71000099  109.20300293    0.11000000    0.15000001
   19.71333504  113.56800079    0.11000000    0.15000001
   19.71638870  114.69000244    0.11000000    0.15000001
   19.71972275  118.13200378    0.11000000    0.15000001
   19.72277832  118.00299835    0.11000000    0.15000001
   19.72611237  112.36699677    0.11000000    0.15000001
   19.73222351  112.36699677    0.11000000    0.15000001
   19.73638916  121.78299713    0.11000000    0.15000001
   19.73944473  107.10600281    0.11000000    0.15000001
   19.74277878  122.30300140    0.11000000    0.15000001
   19.74611092  114.97899628    0.11000000    0.15000001
   19.74916649  113.65499878    0.11000000    0.15000001
   19.75250053  116.94599915    0.11000000    0.15000001
   19.75583267  122.95999908    0.11000000    0.15000001
   19.75888824  117.44799805    0.11000000    0.15000001
   19.76222229  122.46800232    0.11000000    0.15000001
   19.76527786  110.54000092    0.11000000    0.15000001
   19.76861000  118.36599731    0.11000000    0.15000001
   19.76972198  118.84500122    0.11000000    0.15000001
   19.77499962  118.84500122    0.11000000    0.15000001
   19.77916718  115.20700073    0.11000000    0.15000001
   19.78249931  115.61000061    0.11000000    0.15000001
   19.78555489  115.00599670    0.11000000    0.15000001
   19.78888893  116.97200012    0.11000000    0.15000001
   19.79222107  123.33699799    0.11000000    0.15000001
   19.79527664  115.50900269    0.11000000    0.15000001
   19.79861069  120.92299652    0.11000000    0.15000001
   19.80166626  105.09100342    0.11000000    0.15000001
   19.80305481  118.33899689    0.11000000    0.15000001
   19.80555534  104.76200104    0.11000000    0.15000001
   19.80861092  104.33999634    0.11000000    0.15000001
   19.81194305  107.38500214    0.11000000    0.15000001
   19.81777954  107.38500214    0.11000000    0.15000001
   19.82194519  110.79699707    0.11000000    0.15000001
   19.82527924  116.08399963    0.11000000    0.15000001
   19.82861137  106.50000000    0.11000000    0.15000001
   19.83166695  111.62899780    0.11000000    0.15000001
   19.83500099  108.73899841    0.11000000    0.15000001
   19.83638954  115.83599854    0.11000000    0.15000001
   19.83861160  112.78900146    0.11000000    0.15000001
   19.84166718  119.00299835    0.11000000    0.15000001
   19.84500122  110.75399780    0.11000000    0.15000001
   19.84805679  104.08699799    0.11000000    0.15000001
   19.85138893  110.03900146    0.11000000    0.15000001
   19.85472298  111.30599976    0.11000000    0.15000001
   19.86083412  111.30599976    0.11000000    0.15000001
   19.86472321  110.03399658    0.11000000    0.15000001
   19.86805534  119.99600220    0.11000000    0.15000001
   19.86972237  118.63200378    0.11000000    0.15000001
   19.87194443  119.63400269    0.11000000    0.15000001
   19.87500000  112.48799896    0.11000000    0.15000001
   19.87833405  118.31199646    0.11000000    0.15000001
   19.88138962  108.97399902    0.11000000    0.15000001
   19.88472176  104.66300201    0.11000000    0.15000001
   19.88805580  116.32199860    0.11000000    0.15000001
   19.89111137  115.15100098    0.11000000    0.15000001
   19.89444351  114.65399933    0.11000000    0.15000001
   19.89777756  120.58699799    0.11000000    0.15000001
   19.90361023  120.58699799    0.11000000    0.15000001
   19.90777779  116.98799896    0.11000000    0.15000001
   19.91083336  116.11900330    0.11000000    0.15000001
   19.91416550  116.23400116    0.11000000    0.15000001
   19.91749954  121.67199707    0.11000000    0.15000001
   19.92055511  112.56700134    0.11000000    0.15000001
   19.92388916  116.54299927    0.11000000    0.15000001
   19.92694473  116.41600037    0.11000000    0.15000001
   19.93027687  112.89900208    0.11000000    0.15000001
   19.93361092  119.51399994    0.11000000    0.15000001
   19.93638802  125.07900238    0.11000000    0.15000001
   19.93694305  119.16200256    0.11000000    0.15000001
   19.94027710  128.87300110    0.11000000    0.15000001
   19.94638824  128.87300110    0.11000000    0.15000001
   19.95055580  112.32700348    0.11000000    0.15000001
   19.95388985  114.15299988    0.11000000    0.15000001
   19.95694542  113.05000305    0.11000000    0.15000001
   19.96027946  108.87200165    0.11000000    0.15000001
   19.96333504  107.47000122    0.11000000    0.15000001
   19.96666718  116.86199951    0.11000000    0.15000001
   19.96972275  114.17099762    0.11000000    0.15000001
   19.97055626  122.56199646    0.11000000    0.15000001
   19.97361183  120.15899658    0.11000000    0.15000001
   19.97694588  117.18499756    0.11000000    0.15000001
   19.98000145  116.20600128    0.11000000    0.15000001
   19.98333359  113.48899841    0.11000000    0.15000001
   19.98916626  113.48899841    0.11000000    0.15000001
   19.99333382  111.77400208    0.11000000    0.15000001
   19.99666786  122.01100159    0.11000000    0.15000001
   19.99972153  110.32800293    0.11000000    0.15000001
   20.00305557  112.67900085    0.11000000    0.15000001
   20.00361061  110.87999725    0.11000000    0.15000001
   20.00666618  116.88300323    0.11000000    0.15000001
   20.01000023  117.89800262    0.11000000    0.15000001
   20.01305580  109.11399841    0.11000000    0.15000001
   20.01638794  113.39399719    0.11000000    0.15000001
   20.01972198  110.07099915    0.11000000    0.15000001
   20.02277756  110.54100037    0.11000000    0.15000001
   20.02611160  115.90000153    0.11000000    0.15000001
   20.03222275  115.90000153    0.11000000    0.15000001
   20.03610992  108.45999908    0.11000000    0.15000001
   20.03666687  112.97899628    0.11000000    0.15000001
   20.03999901  112.54199982    0.11000000    0.15000001
   20.04333305  103.00000000    0.11000000    0.15000001
   20.04638863  111.80799866    0.11000000    0.15000001
   20.04972076  107.66100311    0.11000000    0.15000001
   20.05305481  116.36599731    0.11000000    0.15000001
   20.05611038  113.36100006    0.11000000    0.15000001
   20.05944443  112.80200195    0.11000000    0.15000001
   20.06277657  112.47299957    0.11000000    0.15000001
   20.06583214  117.79900360    0.11000000    0.15000001
   20.06916809  117.12999725    0.11000000    0.15000001
   20.07000160  112.46099854    0.11000000    0.15000001
   20.07500076  112.46099854    0.11000000    0.15000001
   20.07916832  123.34999847    0.11000000    0.15000001
   20.08222389  114.65799713    0.11000000    0.15000001
   20.08555603  118.36900330    0.11000000    0.15000001
   20.08889008  117.03700256    0.11000000    0.15000001
   20.09194565  123.51499939    0.11000000    0.15000001
   20.09527779  121.67700195    0.11000000    0.15000001
   20.09833336  125.25599670    0.11000000    0.15000001
   20.10166740  112.02100372    0.11000000    0.15000001
   20.10333443  123.45700073    0.11000000    0.15000001
   20.10527802  108.89900208    0.11000000    0.15000001
   20.10861206  124.07299805    0.11000000    0.15000001
   20.11166763  119.37799835    0.11000000    0.15000001
   20.11777878  119.37799835    0.11000000    0.15000001
   20.12194443  117.28700256    0.11000000    0.15000001
   20.12527847  121.47100067    0.11000000    0.15000001
   20.12833405  111.75499725    0.11000000    0.15000001
   20.13166618  114.65299988    0.11000000    0.15000001
   20.13472176  112.92700195    0.11000000    0.15000001
   20.13666725  113.01200104    0.11000000    0.15000001
   20.13861084  114.60500336    0.11000000    0.15000001
   20.14194489  116.73400116    0.11000000    0.15000001
   20.14500046  113.11399841    0.11000000    0.15000001
   20.14833260  114.42199707    0.11000000    0.15000001
   20.15166664  109.63999939    0.11000000    0.15000001
   20.15472221  114.22299957    0.11000000    0.15000001
   20.16055489  114.22299957    0.11000000    0.15000001
   20.16472244  111.03500366    0.11000000    0.15000001
   20.16805458  120.88200378    0.11000000    0.15000001
   20.17000008  119.11699677    0.11000000    0.15000001
   20.17166519  114.34400177    0.11000000    0.15000001
   20.17499924  116.17199707    0.11000000    0.15000001
   20.17805481  113.92199707    0.11000000    0.15000001
   20.18138885  109.96800232    0.11000000    0.15000001
   20.18472099  118.94200134    0.11000000    0.15000001
   20.18777657  113.49199677    0.11000000    0.15000001
   20.19111061  118.25199890    0.11000000    0.15000001
   20.19416618  109.49400330    0.11000000    0.15000001
   20.19749832  111.41799927    0.11000000    0.15000001
   20.20361137  111.41799927    0.11000000    0.15000001
   20.20750046  107.73600006    0.11000000    0.15000001
   20.21083450  110.14499664    0.11000000    0.15000001
   20.21416664  110.62500000    0.11000000    0.15000001
   20.21722221  106.43900299    0.11000000    0.15000001
   20.22055626  110.12300110    0.11000000    0.15000001
   20.22389030  109.15399933    0.11000000    0.15000001
   20.22694588  109.29000092    0.11000000    0.15000001
   20.23027802  100.59100342    0.11000000    0.15000001
   20.23333359  117.75900269    0.11000000    0.15000001
   20.23666763  116.44699860    0.11000000    0.15000001
   20.23722267  112.06999969    0.11000000    0.15000001
   20.24055672  109.88999939    0.11000000    0.15000001
   20.24638939  109.88999939    0.11000000    0.15000001
   20.25055504  113.71600342    0.11000000    0.15000001
   20.25361061  115.82800293    0.11000000    0.15000001
   20.25694466  112.84400177    0.11000000    0.15000001
   20.26027870  121.97599792    0.11000000    0.15000001
   20.26333427  120.92800140    0.11000000    0.15000001
   20.26666641  121.33000183    0.11000000    0.15000001
   20.26972198  111.26499939    0.11000000    0.15000001
   20.27055550  117.05200195    0.11000000    0.15000001
   20.27361107  116.09300232    0.11000000    0.15000001
   20.27666664  114.53399658    0.11000000    0.15000001
   20.28000069  120.04399872    0.11000000    0.15000001
   20.28333282  110.68699646    0.11000000    0.15000001
   20.28916550  110.68699646    0.11000000    0.15000001
   20.29333305  119.09400177    0.11000000    0.15000001
   20.29666710  120.15100098    0.11000000    0.15000001
   20.29972076  131.21800232    0.11000000    0.15000001
   20.30305481  114.69200134    0.11000000    0.15000001
   20.30388832  124.99400330    0.11000000    0.15000001
   20.30666542  118.01899719    0.11000000    0.15000001
   20.30972099  123.37999725    0.11000000    0.15000001
   20.31305504  119.09400177    0.11000000    0.15000001
   20.31638718  110.89900208    0.11000000    0.15000001
   20.31944466  117.27100372    0.11000000    0.15000001
   20.32277870  120.79100037    0.11000000    0.15000001
   20.32583427  117.85500336    0.11000000    0.15000001
   20.33194542  117.85500336    0.11000000    0.15000001
   20.33611107  129.38099670    0.11000000    0.15000001
   20.33722305  115.27500153    0.11000000    0.15000001
   20.34000015  118.72000122    0.11000000    0.15000001
   20.34305573  109.76399994    0.11000000    0.15000001
   20.34638977  116.27799988    0.11000000    0.15000001
   20.34972191  119.04799652    0.11000000    0.15000001
   20.35277748  112.44200134    0.11000000    0.15000001
   20.35611153  117.49600220    0.11000000    0.15000001
   20.35916710  112.41899872    0.11000000    0.15000001
   20.36250114  113.95700073    0.11000000    0.15000001
   20.36583328  105.39399719    0.11000000    0.15000001
   20.36888885  112.33000183    0.11000000    0.15000001
   20.37055588  124.38200378    0.11000000    0.15000001
   20.37472153  124.38200378    0.11000000    0.15000001
   20.37888908  115.32900238    0.11000000    0.15000001
   20.38222313  120.68699646    0.11000000    0.15000001
   20.38555527  112.38500214    0.11000000    0.15000001
   20.38861084  117.67199707    0.11000000    0.15000001
   20.39194489  121.37999725    0.11000000    0.15000001
   20.39527702  119.67299652    0.11000000    0.15000001
   20.39833260  110.91799927    0.11000000    0.15000001
   20.40166664  116.42299652    0.11000000    0.15000001
   20.40388870  111.56400299    0.11000000    0.15000001
   20.40527725  114.75099945    0.11000000    0.15000001
   20.40833282  116.27200317    0.11000000    0.15000001
   20.41166687  121.54299927    0.11000000    0.15000001
   20.41777802  121.54299927    0.11000000    0.15000001
   20.42194366  111.51200104    0.11000000    0.15000001
   20.42499924  114.91400146    0.11000000    0.15000001
   20.42833328  112.86000061    0.11000000    0.15000001
   20.43166542  125.97200012    0.11000000    0.15000001
   20.43472099  114.24800110    0.11000000    0.15000001
   20.43722153  108.79900360    0.11000000    0.15000001
   20.43861008  120.11399841    0.11000000    0.15000001
   20.44166565  124.06800079    0.11000000    0.15000001
   20.44499969  117.19599915    0.11000000    0.15000001
   20.44833183  122.84799957    0.11000000    0.15000001
   20.45138931  108.02300262    0.11000000    0.15000001
   20.45472336  124.04900360    0.11000000    0.15000001
   20.46055603  124.04900360    0.11000000    0.15000001
   20.46472359  131.74499512    0.11000000    0.15000001
   20.46805573  113.30699921    0.11000000    0.15000001
   20.47055626  117.53600311    0.11000000    0.15000001
   20.47166634  118.25000000    0.11000000    0.15000001
   20.47472191  123.68399811    0.11000000    0.15000001
   20.47805595  119.96399689    0.11000000    0.15000001
   20.48139000  128.43200684    0.11000000    0.15000001
   20.48444557  122.89299774    0.11000000    0.15000001
   20.48777771  116.09999847    0.11000000    0.15000001
   20.49083328  119.40699768    0.11000000    0.15000001
   20.49416733  118.82099915    0.11000000    0.15000001
   20.49749947  113.45800018    0.11000000    0.15000001
   20.50333405  113.45800018    0.11000000    0.15000001
   20.52166557  111.89800262    0.11000000    0.15000001
   20.52499962  119.30100250    0.11000000    0.15000001
   20.52833366  113.48100281    0.11000000    0.15000001
   20.53138924  115.25800323    0.11000000    0.15000001
   20.53472137  114.47000122    0.11000000    0.15000001
   20.53777695  121.51699829    0.11000000    0.15000001
   20.54111099  119.18399811    0.11000000    0.15000001
   20.54638863  119.18399811    0.11000000    0.15000001
   20.55055428  118.13700104    0.11000000    0.15000001
   20.55388832  113.92400360    0.11000000    0.15000001
   20.55472183  115.44200134    0.11000000    0.15000001
   20.55749893  125.84100342    0.11000000    0.15000001
   20.56083298  115.20899963    0.11000000    0.15000001
   20.56388855  107.37599945    0.11000000    0.15000001
   20.56722260  116.23600006    0.11000000    0.15000001
   20.57027817  120.71099854    0.11000000    0.15000001
   20.57361221  106.98699951    0.11000000    0.15000001
   20.57694626  118.94300079    0.11000000    0.15000001
   20.58000183  126.96099854    0.11000000    0.15000001
   20.58333397  115.70600128    0.11000000    0.15000001
   20.58944511  115.70600128    0.11000000    0.15000001
   20.59333420  109.42700195    0.11000000    0.15000001
   20.59666824  115.37999725    0.11000000    0.15000001
   20.60000038  106.66000366    0.11000000    0.15000001
   20.60305595  112.67700195    0.11000000    0.15000001
   20.60639000  114.67600250    0.11000000    0.15000001
   20.60972214  111.58799744    0.11000000    0.15000001
   20.61277771  118.28600311    0.11000000    0.15000001
   20.61611176  118.36399841    0.11000000    0.15000001
   20.61916733  110.05500031    0.11000000    0.15000001
   20.62138939  110.81199646    0.11000000    0.15000001
   20.62305641  115.44200134    0.11000000    0.15000001
   20.62638855  108.66899872    0.11000000    0.15000001
   20.63222313  108.66899872    0.11000000    0.15000001
   20.63638878  110.63300323    0.11000000    0.15000001
   20.63944435  114.00800323    0.11000000    0.15000001
   20.64277840  115.41999817    0.11000000    0.15000001
   20.64611053  115.47000122    0.11000000    0.15000001
   20.64916611  110.40699768    0.11000000    0.15000001
   20.65250015  118.18499756    0.11000000    0.15000001
   20.65472221  109.64399719    0.11000000    0.15000001
   20.65611076  120.98200226    0.11000000    0.15000001
   20.65944481  114.85500336    0.11000000    0.15000001
   20.66250038  111.04900360    0.11000000    0.15000001
   20.66583252  117.42099762    0.11000000    0.15000001
   20.66916656  118.40200043    0.11000000    0.15000001
   20.67499924  118.40200043    0.11000000    0.15000001
   20.67916679  118.37400055    0.11000000    0.15000001
   20.68249893  115.71700287    0.11000000    0.15000001
   20.68555450  119.15200043    0.11000000    0.15000001
   20.68805504  107.30500031    0.11000000    0.15000001
   20.68916512  113.98100281    0.11000000    0.15000001
   20.69249916  112.57499695    0.11000000    0.15000001
   20.69555473  116.07700348    0.11000000    0.15000001
   20.69888878  109.56300354    0.11000000    0.15000001
   20.70222282  117.46600342    0.11000000    0.15000001
   20.70527840  120.83200073    0.11000000    0.15000001
   20.70861244  126.09700012    0.11000000    0.15000001
   20.71166801  124.14199829    0.11000000    0.15000001
   20.71777916  124.14199829    0.11000000    0.15000001
   20.72194481  117.51799774    0.11000000    0.15000001
   20.72527885  121.13200378    0.11000000    0.15000001
   20.72833443  115.99099731    0.11000000    0.15000001
   20.73166656  120.70999908    0.11000000    0.15000001
   20.73500061  119.55699921    0.11000000    0.15000001
   20.73805618  126.33899689    0.11000000    0.15000001
   20.74138832  114.65200043    0.11000000    0.15000001
   20.74472237  120.62500000    0.11000000    0.15000001
   20.74777794  108.66400146    0.11000000    0.15000001
   20.75111198  124.05599976    0.11000000    0.15000001
   20.75444412  118.76999664    0.11000000    0.15000001
   20.75499916  118.75000000    0.11000000    0.15000001
   20.76083374  118.75000000    0.11000000    0.15000001
   20.76472282  117.74600220    0.11000000    0.15000001
   20.76805496  115.68699646    0.11000000    0.15000001
   20.77138901  115.62699890    0.11000000    0.15000001
   20.77444458  113.88700104    0.11000000    0.15000001
   20.77777672  121.48799896    0.11000000    0.15000001
   20.78111076  129.51199341    0.11000000    0.15000001
   20.78416634  123.02400208    0.11000000    0.15000001
   20.78750038  122.16100311    0.11000000    0.15000001
   20.78833199  115.72699738    0.11000000    0.15000001
   20.79111099  124.98400116    0.11000000    0.15000001
   20.79444313  119.94799805    0.11000000    0.15000001
   20.79777718  123.89199829    0.11000000    0.15000001
   20.80360985  123.89199829    0.11000000    0.15000001
   20.80777740  116.87200165    0.11000000    0.15000001
   20.81083298  122.47200012    0.11000000    0.15000001
   20.81416512  116.83799744    0.11000000    0.15000001
   20.81750107  112.79199982    0.11000000    0.15000001
   20.82055664  119.79499817    0.11000000    0.15000001
   20.82166672  124.16300201    0.11000000    0.15000001
   20.82444572  113.97799683    0.11000000    0.15000001
   20.82750130  115.45400238    0.11000000    0.15000001
   20.83083344  120.32499695    0.11000000    0.15000001
   20.83388901  123.01999664    0.11000000    0.15000001
   20.83722305  125.46800232    0.11000000    0.15000001
   20.84055710  120.79199982    0.11000000    0.15000001
   20.84638977  120.79199982    0.11000000    0.15000001
   20.85055542  121.05100250    0.11000000    0.15000001
   20.85388947  124.74700165    0.11000000    0.15000001
   20.85499954  123.06400299    0.11000000    0.15000001
   20.85722351  122.18900299    0.11000000    0.15000001
   20.86055565  128.87800598    0.11000000    0.15000001
   20.86388969  118.16300201    0.11000000    0.15000001
   20.86694527  118.30100250    0.11000000    0.15000001
   20.87027740  131.80900574    0.11000000    0.15000001
   20.87333298  125.07299805    0.11000000    0.15000001
   20.87666702  126.18800354    0.11000000    0.15000001
   20.88000107  129.24099731    0.11000000    0.15000001
   20.88305473  128.33200073    0.11000000    0.15000001
   20.88916588  128.33200073    0.11000000    0.15000001
   20.89333344  116.26100159    0.11000000    0.15000001
   20.89666748  127.78800201    0.11000000    0.15000001
   20.89972115  117.90000153    0.11000000    0.15000001
   20.90305519  120.29299927    0.11000000    0.15000001
   20.90638924  119.71900177    0.11000000    0.15000001
   20.90944481  120.44000244    0.11000000    0.15000001
   20.91277695  126.07299805    0.11000000    0.15000001
   20.91611099  113.90399933    0.11000000    0.15000001
   20.91916656  126.03600311    0.11000000    0.15000001
   20.92166519  126.69799805    0.11000000    0.15000001
   20.92277718  125.16999817    0.11000000    0.15000001
   20.92611122  121.45899963    0.11000000    0.15000001
   20.93222237  121.45899963    0.11000000    0.15000001
   20.93610954  121.05899811    0.11000000    0.15000001
   20.93944359  121.62699890    0.11000000    0.15000001
   20.94277763  125.69499969    0.11000000    0.15000001
   20.94583321  118.00599670    0.11000000    0.15000001
   20.94916534  125.90200043    0.11000000    0.15000001
   20.95222282  116.66400146    0.11000000    0.15000001
   20.95499992  111.65499878    0.11000000    0.15000001
   20.95583344  123.16400146    0.11000000    0.15000001
   20.95916748  130.35200500    0.11000000    0.15000001
   20.96250153  121.05999756    0.11000000    0.15000001
   20.96555710  119.91699982    0.11000000    0.15000001
   20.96888924  124.19799805    0.11000000    0.15000001
   20.97500038  124.19799805    0.11000000    0.15000001
   20.97916794  124.79699707    0.11000000    0.15000001
   20.98222351  123.36799622    0.11000000    0.15000001
   20.98555565  122.61499786    0.11000000    0.15000001
   20.98833275  125.69300079    0.11000000    0.15000001
   20.98916626  125.06199646    0.11000000    0.15000001
   20.99250031  121.37899780    0.11000000    0.15000001
   20.99583435  124.86799622    0.11000000    0.15000001
   20.99888992  119.07800293    0.11000000    0.15000001
   21.00222206  121.82800293    0.11000000    0.15000001
   21.00527763  126.90899658    0.11000000    0.15000001
   21.00861168  126.19300079    0.11000000    0.15000001
   21.01194382  129.47700500    0.11000000    0.15000001
   21.01777840  129.47700500    0.11000000    0.15000001
   21.02194405  136.20799255    0.11000000    0.15000001
   21.02499962  129.85600281    0.11000000    0.15000001
   21.02833366  135.13800049    0.11000000    0.15000001
   21.03166580  151.42900085    0.11000000    0.15000001
   21.03472137  138.25399780    0.11000000    0.15000001
   21.03805542  137.35899353    0.11000000    0.15000001
   21.04138756  119.63700104    0.11000000    0.15000001
   21.04444313  140.07000732    0.11000000    0.15000001
   21.04777718  142.33500671    0.11000000    0.15000001
   21.05083275  135.81700134    0.11000000    0.15000001
   21.05416679  126.67099762    0.11000000    0.15000001
   21.05499840  126.65399933    0.11000000    0.15000001
   21.06055450  126.65399933    0.11000000    0.15000001
   21.06472206  130.04200745    0.11000000    0.15000001
   21.06805611  126.63600159    0.11000000    0.15000001
   21.07111168  134.92599487    0.11000000    0.15000001
   21.07444572  130.63900757    0.11000000    0.15000001
   21.07777786  121.70400238    0.11000000    0.15000001
   21.08083344  129.48399353    0.11000000    0.15000001
   21.08416748  124.14299774    0.11000000    0.15000001
   21.08750153  130.39700317    0.11000000    0.15000001
   21.08833313  128.93600464    0.11000000    0.15000001
   21.09083366  140.55400085    0.11000000    0.15000001
   21.09416771  138.35600281    0.11000000    0.15000001
   21.09749985  128.70100403    0.11000000    0.15000001
   21.10361099  128.70100403    0.11000000    0.15000001
   21.10750008  137.58200073    0.11000000    0.15000001
   21.11083412  136.24400330    0.11000000    0.15000001
   21.11416626  129.00300598    0.11000000    0.15000001
   21.11722183  138.19200134    0.11000000    0.15000001
   21.12055588  138.59700012    0.11000000    0.15000001
   21.12166595  135.31599426    0.11000000    0.15000001
   21.12388992  134.50199890    0.11000000    0.15000001
   21.12722206  139.70700073    0.11000000    0.15000001
   21.13055611  124.36100006    0.11000000    0.15000001
   21.13361168  128.11000061    0.11000000    0.15000001
   21.13694382  127.99600220    0.11000000    0.15000001
   21.14027786  133.32200623    0.11000000    0.15000001
   21.14638901  133.32200623    0.11000000    0.15000001
   21.15055466  139.99000549    0.11000000    0.15000001
   21.15361023  110.32800293    0.11000000    0.15000001
   21.15499878  122.12400055    0.11000000    0.15000001
   21.15722275  125.72000122    0.11000000    0.15000001
   21.16055489  132.65299988    0.11000000    0.15000001
   21.16388893  130.60899353    0.11000000    0.15000001
   21.16694450  127.31099701    0.11000000    0.15000001
   21.17027664  125.43099976    0.11000000    0.15000001
   21.17361069  118.28099823    0.11000000    0.15000001
   21.17666626  133.80799866    0.11000000    0.15000001
   21.18000031  132.17199707    0.11000000    0.15000001
   21.18305397  122.81800079    0.11000000    0.15000001
   21.18916512  122.81800079    0.11000000    0.15000001
   21.19333267  185.13999939    0.11000000    0.15000001
   21.19666672  122.76399994    0.11000000    0.15000001
   21.19972038  135.69400024    0.11000000    0.15000001
   21.20305634  125.41899872    0.11000000    0.15000001
   21.20611191  127.12599945    0.11000000    0.15000001
   21.20944595  133.50599670    0.11000000    0.15000001
   21.21277809  129.42900085    0.11000000    0.15000001
   21.21583366  134.40699768    0.11000000    0.15000001
   21.21916771  136.94299316    0.11000000    0.15000001
   21.22166634  132.85299683    0.11000000    0.15000001
   21.22305679  122.55100250    0.11000000    0.15000001
   21.22611237  131.86199951    0.11000000    0.15000001
   21.23194504  131.86199951    0.11000000    0.15000001
   21.23611069  119.25499725    0.11000000    0.15000001
   21.23944473  134.36399841    0.11000000    0.15000001
   21.24250031  126.23799896    0.11000000    0.15000001
   21.24583435  130.35600281    0.11000000    0.15000001
   21.24916649  132.69900513    0.11000000    0.15000001
   21.25222206  129.08099365    0.11000000    0.15000001
   21.25499916  127.67500305    0.11000000    0.15000001
   21.25611115  127.24900055    0.11000000    0.15000001
   21.25916672  137.13499451    0.11000000    0.15000001
   21.26250076  123.57800293    0.11000000    0.15000001
   21.26555634  126.65299988    0.11000000    0.15000001
   21.26888847  122.01100159    0.11000000    0.15000001
   21.27499962  122.01100159    0.11000000    0.15000001
   21.27888870  127.77300262    0.11000000    0.15000001
   21.28222275  118.43199921    0.11000000    0.15000001
   21.28555489  140.86199951    0.11000000    0.15000001
   21.28833199  130.28300476    0.11000000    0.15000001
   21.28916550  127.65200043    0.11000000    0.15000001
   21.29222107  122.47299957    0.11000000    0.15000001
   21.29555511  124.42099762    0.11000000    0.15000001
   21.29861069  131.24899292    0.11000000    0.15000001
   21.30194283  128.80900574    0.11000000    0.15000001
   21.30527687  135.73399353    0.11000000    0.15000001
   21.30833244  137.66000366    0.11000000    0.15000001
   21.31166649  140.00500488    0.11000000    0.15000001
   21.31777954  140.00500488    0.11000000    0.15000001
   21.32194519  134.50700378    0.11000000    0.15000001
   21.32500076  137.15499878    0.11000000    0.15000001
   21.32833481  125.80999756    0.11000000    0.15000001
   21.33139038  136.91400146    0.11000000    0.15000001
   21.33472252  128.94099426    0.11000000    0.15000001
   21.33805656  132.02699280    0.11000000    0.15000001
   21.34111214  141.35400391    0.11000000    0.15000001
   21.34444427  143.43699646    0.11000000    0.15000001
   21.34777832  124.23799896    0.11000000    0.15000001
   21.35083389  139.33700562    0.11000000    0.15000001
   21.35416794  141.21699524    0.11000000    0.15000001
   21.35499954  126.33399963    0.11000000    0.15000001
   21.36055565  126.33399963    0.11000000    0.15000001
   21.36472321  131.76300049    0.11000000    0.15000001
   21.36777878  135.29400635    0.11000000    0.15000001
   21.37111092  136.26100159    0.11000000    0.15000001
   21.37444496  138.62600708    0.11000000    0.15000001
   21.37750053  139.92999268    0.11000000    0.15000001
   21.38083267  145.18499756    0.11000000    0.15000001
   21.38416672  138.31900024    0.11000000    0.15000001
   21.38722229  135.53700256    0.11000000    0.15000001
   21.38833237  135.06700134    0.11000000    0.15000001
   21.39111137  133.40199280    0.11000000    0.15000001
   21.39416695  135.94099426    0.11000000    0.15000001
   21.39749908  129.86300659    0.11000000    0.15000001
   21.40333366  129.86300659    0.11000000    0.15000001
   21.40749931  136.53199768    0.11000000    0.15000001
   21.41083336  133.79499817    0.11000000    0.15000001
   21.41388893  146.06300354    0.11000000    0.15000001
   21.41722107  141.85200500    0.11000000    0.15000001
   21.42055511  134.15299988    0.11000000    0.15000001
   21.42166519  139.07600403    0.11000000    0.15000001
   21.42416573  140.15899658    0.11000000    0.15000001
   21.42722130  137.17300415    0.11000000    0.15000001
   21.43055534  156.58099365    0.11000000    0.15000001
   21.43361092  136.73899841    0.11000000    0.15000001
   21.43694305  133.97799683    0.11000000    0.15000001
   21.44027710  138.85400391    0.11000000    0.15000001
   21.44638824  138.85400391    0.11000000    0.15000001
   21.45027924  135.36399841    0.11000000    0.15000001
   21.45361137  132.05999756    0.11000000    0.15000001
   21.45499992  154.89500427    0.11000000    0.15000001
   21.45722389  139.66099548    0.11000000    0.15000001
   21.46027946  152.22900391    0.11000000    0.15000001
   21.46361160  135.12800598    0.11000000    0.15000001
   21.46666718  135.11599731    0.11000000    0.15000001
   21.47000122  131.86799622    0.11000000    0.15000001
   21.47333336  133.52900696    0.11000000    0.15000001
   21.47638893  145.07000732    0.11000000    0.15000001
   21.47972298  144.70500183    0.11000000    0.15000001
   21.48305511  139.56500244    0.11000000    0.15000001
   21.48916626  139.56500244    0.11000000    0.15000001
   21.49333382  300.03500366    0.11000000    0.15000001
   21.49527740  132.60200500    0.11000000    0.15000001
   21.49527740  144.70500183    0.11000000    0.15000001
   21.49555588  139.56500244    0.11000000    0.15000001
   21.49555588  300.03500366    0.11000000    0.15000001
   21.49583435  152.22900391    0.11000000    0.15000001
   21.49583435  135.12800598    0.11000000    0.15000001
   21.49583435  135.11599731    0.11000000    0.15000001
   21.49611092  131.86799622    0.11000000    0.15000001
   21.49611092  133.52900696    0.11000000    0.15000001
   21.49611092  145.07000732    0.11000000    0.15000001
   21.49805641  136.00599670    0.11000000    0.15000001
   21.50138855  140.79899597    0.11000000    0.15000001
   21.50472260  135.29299927    0.11000000    0.15000001
   21.50777817  135.19099426    0.11000000    0.15000001
   21.51111031  132.70199585    0.11000000    0.15000001
   21.51611137  132.70199585    0.11000000    0.15000001
   21.52027702  138.17599487    0.11000000    0.15000001
   21.53861046  141.53399658    0.11000000    0.15000001
   21.54027748  143.55200195    0.11000000    0.15000001
   21.54333305  146.96600342    0.11000000    0.15000001
   21.54666710  148.00599670    0.11000000    0.15000001
   21.54972076  155.04499817    0.11000000    0.15000001
   21.55305481  145.11300659    0.11000000    0.15000001
   21.55916595  145.11300659    0.11000000    0.15000001
   21.56305504  144.22099304    0.11000000    0.15000001
   21.56638718  140.52200317    0.11000000    0.15000001
   21.56972313  133.08599854    0.11000000    0.15000001
   21.57194519  142.81199646    0.11000000    0.15000001
   21.57333374  142.17700195    0.11000000    0.15000001
   21.57666779  140.16900635    0.11000000    0.15000001
   21.58000183  140.24400330    0.11000000    0.15000001
   21.58305550  135.56599426    0.11000000    0.15000001
   21.58638954  136.05200195    0.11000000    0.15000001
   21.58972359  131.58399963    0.11000000    0.15000001
   21.59277916  139.63000488    0.11000000    0.15000001
   21.59611130  140.25399780    0.11000000    0.15000001
   21.60194397  140.25399780    0.11000000    0.15000001
   21.60611153  140.59899902    0.11000000    0.15000001
   21.60916710  143.30400085    0.11000000    0.15000001
   21.61250114  142.12399292    0.11000000    0.15000001
   21.61583328  139.44700623    0.11000000    0.15000001
   21.61888885  134.28900146    0.11000000    0.15000001
   21.62222290  141.03799438    0.11000000    0.15000001
   21.62527847  141.77499390    0.11000000    0.15000001
   21.62861061  140.01400757    0.11000000    0.15000001
   21.63194466  138.40100098    0.11000000    0.15000001
   21.63500023  134.66600037    0.11000000    0.15000001
   21.63833237  140.41200256    0.11000000    0.15000001
   21.63888931  143.24699402    0.11000000    0.15000001
   21.64472198  143.24699402    0.11000000    0.15000001
   21.64888954  133.62100220    0.11000000    0.15000001
   21.65222168  135.37100220    0.11000000    0.15000001
   21.65527725  135.23100281    0.11000000    0.15000001
   21.65861130  143.70799255    0.11000000    0.15000001
   21.66166687  138.15100098    0.11000000    0.15000001
   21.66499901  129.68400574    0.11000000    0.15000001
   21.66833305  144.63299561    0.11000000    0.15000001
   21.67138863  141.34700012    0.11000000    0.15000001
   21.67222214  137.72300720    0.11000000    0.15000001
   21.67527771  138.03900146    0.11000000    0.15000001
   21.67833328  122.27100372    0.11000000    0.15000001
   21.68166542  133.52699280    0.11000000    0.15000001
   21.68750000  133.52699280    0.11000000    0.15000001
   21.69166565  147.38099670    0.11000000    0.15000001
   21.69499969  142.32200623    0.11000000    0.15000001
   21.69805527  136.33000183    0.11000000    0.15000001
   21.70138931  147.15600586    0.11000000    0.15000001
   21.70472336  132.74400330    0.11000000    0.15000001
   21.70555687  141.11700439    0.11000000    0.15000001
   21.70833397  138.17599487    0.11000000    0.15000001
   21.71138954  140.85299683    0.11000000    0.15000001
   21.71472359  150.77499390    0.11000000    0.15000001
   21.71777916  144.23100281    0.11000000    0.15000001
   21.72111130  140.56399536    0.11000000    0.15000001
   21.72444534  135.80900574    0.11000000    0.15000001
   21.73055649  135.80900574    0.11000000    0.15000001
   21.73444557  134.17199707    0.11000000    0.15000001
   21.73777771  141.97799683    0.11000000    0.15000001
   21.73888969  141.66600037    0.11000000    0.15000001
   21.74166679  141.83000183    0.11000000    0.15000001
   21.74472237  125.09400177    0.11000000    0.15000001
   21.74805641  142.96600342    0.11000000    0.15000001
   21.75111198  149.89399719    0.11000000    0.15000001
   21.75444412  144.86099243    0.11000000    0.15000001
   21.75777817  146.26899719    0.11000000    0.15000001
   21.76083374  139.61399841    0.11000000    0.15000001
   21.76416588  143.15499878    0.11000000    0.15000001
   21.76749992  139.11000061    0.11000000    0.15000001
   21.77333260  139.11000061    0.11000000    0.15000001
   21.77750015  146.30900574    0.11000000    0.15000001
   21.78055573  147.23699951    0.11000000    0.15000001
   21.78388786  140.87600708    0.11000000    0.15000001
   21.78722191  145.71499634    0.11000000    0.15000001
   21.79027748  144.69799805    0.11000000    0.15000001
   21.79361153  140.36599731    0.11000000    0.15000001
   21.79666710  141.91600037    0.11000000    0.15000001
   21.79999924  137.53999329    0.11000000    0.15000001
   21.80333328  149.45500183    0.11000000    0.15000001
   21.80555534  141.74400330    0.11000000    0.15000001
   21.80694389  142.25399780    0.11000000    0.15000001
   21.80999947  155.93899536    0.11000000    0.15000001
   21.81611061  155.93899536    0.11000000    0.15000001
   21.82027817  148.24200439    0.11000000    0.15000001
   21.82361221  155.39199829    0.11000000    0.15000001
   21.82666779  150.86300659    0.11000000    0.15000001
   21.83000183  153.50599670    0.11000000    0.15000001
   21.83305550  147.80099487    0.11000000    0.15000001
   21.83638954  150.03599548    0.11000000    0.15000001
   21.83889008  145.94700623    0.11000000    0.15000001
   21.84027863  154.79100037    0.11000000    0.15000001
   21.84333420  150.99299622    0.11000000    0.15000001
   21.84666824  153.05499268    0.11000000    0.15000001
   21.84972191  139.09100342    0.11000000    0.15000001
   21.85305595  148.50999451    0.11000000    0.15000001
   21.85888863  148.50999451    0.11000000    0.15000001
   21.86305618  138.99200439    0.11000000    0.15000001
   21.86638832  157.56700134    0.11000000    0.15000001
   21.86944389  155.57400513    0.11000000    0.15000001
   21.87222290  152.23100281    0.11000000    0.15000001
   21.87333298  156.36399841    0.11000000    0.15000001
   21.87638855  160.93200684    0.11000000    0.15000001
   21.87972260  145.28399658    0.11000000    0.15000001
   21.88277817  152.61700439    0.11000000    0.15000001
   21.88611031  154.92100525    0.11000000    0.15000001
   21.88944435  161.48800659    0.11000000    0.15000001
   21.89249992  148.98599243    0.11000000    0.15000001
   21.89583397  150.35099792    0.11000000    0.15000001
   21.90194321  150.35099792    0.11000000    0.15000001
   21.90583229  140.41499329    0.11000000    0.15000001
   21.90916634  152.06199646    0.11000000    0.15000001
   21.91250038  148.27699280    0.11000000    0.15000001
   21.91555595  136.80599976    0.11000000    0.15000001
   21.91888809  142.68400574    0.11000000    0.15000001
   21.92194366  130.44900513    0.11000000    0.15000001
   21.94222069  144.86199951    0.11000000    0.15000001
   21.94555473  156.65100098    0.11000000    0.15000001
   21.94888878  166.29899597    0.11000000    0.15000001
   21.95194435  153.52799988    0.11000000    0.15000001
   21.95527840  168.82000732    0.11000000    0.15000001
   21.95861244  156.36300659    0.11000000    0.15000001
   21.96277809  156.36300659    0.11000000    0.15000001
   21.96666718  165.80299377    0.11000000    0.15000001
   21.97000122  151.88999939    0.11000000    0.15000001
   21.97333336  176.39199829    0.11000000    0.15000001
   21.97555542  160.12899780    0.11000000    0.15000001
   21.97694588  159.19200134    0.11000000    0.15000001
   21.98027802  168.66600037    0.11000000    0.15000001
   21.98333359  180.27900696    0.11000000    0.15000001
   21.98666763  160.63800049    0.11000000    0.15000001
   21.98999977  165.80999756    0.11000000    0.15000001
   21.99305534  150.22000122    0.11000000    0.15000001
   21.99638939  154.55400085    0.11000000    0.15000001
   21.99944496  158.67999268    0.11000000    0.15000001
   22.00555611  158.67999268    0.11000000    0.15000001
   22.00972176  148.99600220    0.11000000    0.15000001
   22.01277733  155.76100159    0.11000000    0.15000001
   22.01611137  150.36399841    0.11000000    0.15000001
   22.01972198  148.05200195    0.11000000    0.15000001
   22.02361107  163.10800171    0.11000000    0.15000001
   22.02694511  156.97099304    0.11000000    0.15000001
   22.03027725  152.55099487    0.11000000    0.15000001
   22.03472137  151.98800659    0.11000000    0.15000001
   22.03861046  156.01400757    0.11000000    0.15000001
   22.04194450  166.44999695    0.11000000    0.15000001
   22.04277802  164.92399597    0.11000000    0.15000001
   22.04888916  164.92399597    0.11000000    0.15000001
   22.05360985  168.76100159    0.11000000    0.15000001
   22.05749893  179.36700439    0.11000000    0.15000001
   22.06110954  155.05200195    0.11000000    0.15000001
   22.06527710  180.80499268    0.11000000    0.15000001
   22.06888962  169.90299988    0.11000000    0.15000001
   22.07194519  177.38400269    0.11000000    0.15000001
   22.07527924  176.18800354    0.11000000    0.15000001
   22.07583427  174.54699707    0.11000000    0.15000001
   22.07888985  183.98899841    0.11000000    0.15000001
   22.08222389  168.25000000    0.11000000    0.15000001
   22.08527756  166.11599731    0.11000000    0.15000001
   22.09166718  166.11599731    0.11000000    0.15000001
   22.09583473  179.33700562    0.11000000    0.15000001
   22.09889030  170.78399658    0.11000000    0.15000001
   22.10222244  158.68899536    0.11000000    0.15000001
   22.10555649  175.44000244    0.11000000    0.15000001
   22.10888863  172.64599609    0.11000000    0.15000001
   22.10944557  175.26199341    0.11000000    0.15000001
   22.11222267  176.47999573    0.11000000    0.15000001
   22.11638832  166.05499268    0.11000000    0.15000001
   22.12027740  168.21600342    0.11000000    0.15000001
   22.12416649  163.49699402    0.11000000    0.15000001
   22.12750053  172.41400146    0.11000000    0.15000001
   22.13444519  172.41400146    0.11000000    0.15000001
   22.13861084  191.71099854    0.11000000    0.15000001
   22.14194489  177.58099365    0.11000000    0.15000001
   22.14277840  185.57000732    0.11000000    0.15000001
   22.14583397  188.37800598    0.11000000    0.15000001
   22.14916611  178.86700439    0.11000000    0.15000001
   22.15222168  200.11999512    0.11000000    0.15000001
   22.15555573  185.36199951    0.11000000    0.15000001
   22.15999985  194.42900085    0.11000000    0.15000001
   22.16361046  183.62500000    0.11000000    0.15000001
   22.16722107  178.87899780    0.11000000    0.15000001
   22.17027664  193.53100586    0.11000000    0.15000001
   22.17749977  193.53100586    0.11000000    0.15000001
   22.18166542  373.56799316    0.11000000    0.15000001
   22.18388748  178.55999756    0.11000000    0.15000001
   22.18416595  178.87899780    0.11000000    0.15000001
   22.18444443  193.53100586    0.11000000    0.15000001
   22.18444443  373.56799316    0.11000000    0.15000001
   22.18472099  188.37800598    0.11000000    0.15000001
   22.18499947  178.86700439    0.11000000    0.15000001
   22.18499947  200.11999512    0.11000000    0.15000001
   22.18527603  185.36199951    0.11000000    0.15000001
   22.18555450  194.42900085    0.11000000    0.15000001
   22.18555450  183.62500000    0.11000000    0.15000001
   22.18777657  172.81100464    0.11000000    0.15000001
   22.19111061  184.44599915    0.11000000    0.15000001
   22.19444275  178.35099792    0.11000000    0.15000001
   22.19777679  161.20599365    0.11000000    0.15000001
   22.20111275  178.19400024    0.11000000    0.15000001
   22.20527840  178.19400024    0.11000000    0.15000001
   22.20944595  168.67700195    0.11000000    0.15000001
   22.21277809  193.39300537    0.11000000    0.15000001
   22.21638870  187.77900696    0.11000000    0.15000001
   22.21805573  189.63699341    0.11000000    0.15000001
   22.22000122  193.18099976    0.11000000    0.15000001
   22.22361183  180.96000671    0.11000000    0.15000001
   22.22694588  199.01199341    0.11000000    0.15000001
   22.23027802  190.31100464    0.11000000    0.15000001
   22.23361206  195.98300171    0.11000000    0.15000001
   22.23666763  178.67700195    0.11000000    0.15000001
   22.23999977  184.50300598    0.11000000    0.15000001
   22.24333382  186.21800232    0.11000000    0.15000001
   22.24805641  186.21800232    0.11000000    0.15000001
   22.25250053  178.58700562    0.11000000    0.15000001
   22.25555611  183.49200439    0.11000000    0.15000001
   22.25916672  180.44299316    0.11000000    0.15000001
   22.26250076  200.21800232    0.11000000    0.15000001
   22.26555634  197.08500671    0.11000000    0.15000001
   22.26888847  206.36599731    0.11000000    0.15000001
   22.27222252  188.53300476    0.11000000    0.15000001
   22.27555466  174.80000305    0.11000000    0.15000001
   22.27888870  223.51199341    0.11000000    0.15000001
   22.28222275  200.94599915    0.11000000    0.15000001
   22.28472137  205.15800476    0.11000000    0.15000001
   22.28583336  197.42599487    0.11000000    0.15000001
   22.29083252  197.42599487    0.11000000    0.15000001
   22.29500008  185.40400696    0.11000000    0.15000001
   22.29833221  203.39799500    0.11000000    0.15000001
   22.30166626  165.20700073    0.11000000    0.15000001
   22.30499840  169.29400635    0.11000000    0.15000001
   22.30833244  204.27499390    0.11000000    0.15000001
   22.31194305  202.51499939    0.11000000    0.15000001
   22.31555557  191.89799500    0.11000000    0.15000001
   22.31805611  192.69500732    0.11000000    0.15000001
   22.31944466  195.45100403    0.11000000    0.15000001
   22.32250023  207.77099609    0.11000000    0.15000001
   22.32583427  211.50700378    0.11000000    0.15000001
   22.32916832  199.14599609    0.11000000    0.15000001
   22.33361244  199.14599609    0.11000000    0.15000001
   22.33777809  200.83799744    0.11000000    0.15000001
   22.34111214  192.52699280    0.11000000    0.15000001
   22.34444427  203.46000671    0.11000000    0.15000001
   22.34777832  151.58999634    0.11000000    0.15000001
   22.35083389  205.01300049    0.11000000    0.15000001
   22.35138893  215.22799683    0.11000000    0.15000001
   22.35472298  205.32699585    0.11000000    0.15000001
   22.35805511  186.70399475    0.11000000    0.15000001
   22.36111069  210.81199646    0.11000000    0.15000001
   22.36444473  197.32800293    0.11000000    0.15000001
   22.36777878  188.25999451    0.11000000    0.15000001
   22.37111092  194.61500549    0.11000000    0.15000001
   22.37666702  194.61500549    0.11000000    0.15000001
   22.38083267  202.12500000    0.11000000    0.15000001
   22.38388824  214.49899292    0.11000000    0.15000001
   22.38472176  206.72999573    0.11000000    0.15000001
   22.38777733  199.85000610    0.11000000    0.15000001
   22.39111137  210.70500183    0.11000000    0.15000001
   22.39416695  206.38000488    0.11000000    0.15000001
   22.39749908  206.53500366    0.11000000    0.15000001
   22.40083313  220.21400452    0.11000000    0.15000001
   22.40388870  207.99400330    0.11000000    0.15000001
   22.40722275  190.42399597    0.11000000    0.15000001
   22.41027832  199.98899841    0.11000000    0.15000001
   22.41361046  158.52299500    0.11000000    0.15000001
   22.41944313  158.52299500    0.11000000    0.15000001
   22.42388916  211.38800049    0.11000000    0.15000001
   22.42722130  228.33500671    0.11000000    0.15000001
   22.43055534  212.36900330    0.11000000    0.15000001
   22.43388748  221.76899719    0.11000000    0.15000001
   22.43722153  202.94400024    0.11000000    0.15000001
   22.44055557  220.28900146    0.11000000    0.15000001
   22.44416618  216.72399902    0.11000000    0.15000001
   22.44749832  240.27400208    0.11000000    0.15000001
   22.45083427  229.75399780    0.11000000    0.15000001
   22.45166779  213.20599365    0.11000000    0.15000001
   22.45472336  220.53599548    0.11000000    0.15000001
   22.45805550  189.69999695    0.11000000    0.15000001
   22.46250153  189.69999695    0.11000000    0.15000001
   22.46666718  251.70799255    0.11000000    0.15000001
   22.47000122   96.04350281    0.11000000    0.15000001
   22.47333336   23.57019997    0.11000000    0.15000001
   22.47666740   -1.00000000    0.11000000    0.15000001
   22.48000145   -1.00000000    0.11000000    0.15000001
   22.48333359   -1.00000000    0.11000000    0.15000001
   22.48694420   -1.00000000    0.11000000    0.15000001
   22.49027824   -1.00000000    0.11000000    0.15000001
   22.49388885   -1.00000000    0.11000000    0.15000001
   22.49722290   -1.00000000    0.11000000    0.15000001
