    HOUR (UT)   FLARE FACTOR    SKY TESTER    SUN TESTER
   10.69694424   -1.00000000   -1.00000000   -1.00000000
   10.72277737   -1.00000000    1.23000002    1.51999998
   10.72611046   -1.00000000    1.25000000    1.51999998
   10.72916603   -1.00000000    1.25000000    1.51999998
   10.73249912   -1.00000000    1.26999998    1.53999996
   10.73555565   -1.00000000    1.26999998    1.51999998
   10.73888874   -1.00000000    1.26999998    1.51999998
   10.74222279   23.57019997    1.28999996    1.53999996
   10.74527836   50.13729858    1.30999994    1.55999994
   10.74861145   37.31819916    1.30999994    1.55999994
   10.75222206   -1.00000000    1.33000004    1.55999994
   10.75555515   -1.00000000    1.33000004    1.55999994
   10.75861073   -1.00000000    1.33000004    1.55999994
   10.76194477   50.82880020    1.34000003    1.55999994
   10.76527786   -1.00000000    1.36000001    1.58000004
   10.76833344   78.17350006    1.36000001    1.60000002
   10.77166653   58.93920135    1.38000000    1.60000002
   10.77472210   71.40959930    1.38000000    1.60000002
   10.77805519   23.57019997    1.38000000    1.61000001
   10.78138828   74.78140259    1.39999998    1.61000001
   10.78388977   75.00920105    1.39999998    1.61000001
   10.78472233   81.86949921    1.39999998    1.61000001
   10.78805637   68.94550323    1.39999998    1.61000001
   10.79138947  147.48699951    1.41999996    1.63000000
   10.79444504  130.70599365    1.41999996    1.63000000
   10.79777813  118.67700195    1.41999996    1.63000000
   10.80111122  144.95899963    1.44000006    1.63000000
   10.80416679  164.64599609    1.46000004    1.64999998
   10.80749989  186.58599854    1.46000004    1.64999998
   10.81055546  196.65499878    1.46000004    1.64999998
   10.81388950  206.01199341    1.46000004    1.64999998
   10.81722260  239.12899780    1.48000002    1.66999996
   10.81750011  246.95700073    1.48000002    1.66999996
   10.82083321  261.45498657    1.48000002    1.66999996
   10.82416630  219.28599548    1.48000002    1.66999996
   10.82722187  272.01300049    1.50000000    1.66999996
   10.83055592  295.35400391    1.50000000    1.69000006
   10.83361053  300.94699097    1.50000000    1.69000006
   10.83583260  320.55300903    1.51999998    1.69000006
   10.83694458  369.42999268    1.51999998    1.69000006
   10.83833313  334.49200439    1.51999998    1.69000006
   10.83972168  362.59201050    1.51999998    1.71000004
   10.84111118  348.12899780    1.51999998    1.71000004
   10.84249973  326.01300049    1.51999998    1.71000004
   10.84388828  331.09600830    1.53999996    1.71000004
   10.84527779  396.19299316    1.53999996    1.71000004
   10.84666634  363.52099609    1.53999996    1.71000004
   10.84805489  460.65600586    1.53999996    1.71000004
   10.84944439  335.11599731    1.53999996    1.71000004
   10.85083389  413.51800537    1.53999996    1.71000004
   10.85222244  327.01300049    1.53999996    1.71000004
   10.85361195  301.33801270    1.53999996    1.71000004
   10.85500050  322.24600220    1.53999996    1.71000004
   10.85638905  322.93200684    1.53999996    1.73000002
   10.85777855  262.29998779    1.53999996    1.71000004
   10.85916710  355.84100342    1.53999996    1.71000004
   10.86055565  330.89199829    1.53999996    1.71000004
   10.86194515  308.90798950    1.53999996    1.73000002
   10.86333370  319.04501343    1.53999996    1.73000002
   10.86472225  314.20098877    1.53999996    1.73000002
   10.86611176  281.38198853    1.53999996    1.73000002
   10.86750031  316.47900391    1.53999996    1.75000000
   10.86888885  252.23300171    1.53999996    1.75000000
   10.87027836  247.28199768    1.53999996    1.73000002
   10.87055588  196.65499878    1.46000004    1.64999998
   10.87055588  206.01199341    1.46000004    1.64999998
   10.87055588  246.95700073    1.48000002    1.66999996
   10.87083340  261.45498657    1.48000002    1.66999996
   10.87083340  219.28599548    1.48000002    1.66999996
   10.87083340  272.01300049    1.50000000    1.66999996
   10.87111092  295.35400391    1.50000000    1.69000006
   10.87111092  300.94699097    1.50000000    1.69000006
   10.87111092  186.58599854    1.46000004    1.64999998
   10.87194443  313.45999146    1.53999996    1.75000000
   10.87388897  234.89799500    1.53999996    1.75000000
   10.87555599  251.30200195    1.53999996    1.75000000
   10.87888908  266.60101318    1.55999994    1.75000000
   10.88194466  328.48199463    1.53999996    1.75000000
   10.88416672  258.99200439    1.55999994    1.76999998
   10.88527775  224.84899902    1.55999994    1.76999998
   10.88555527  251.30200195    1.53999996    1.75000000
   10.88555527  266.60101318    1.55999994    1.75000000
   10.88555527  328.48199463    1.53999996    1.75000000
   10.88666630  308.44601440    1.55999994    1.76999998
   10.88888836  312.27499390    1.55999994    1.75000000
   10.89000034  355.15200806    1.55999994    1.76999998
   10.89138889  238.26899719    1.55999994    1.76999998
   10.89166641  308.44601440    1.55999994    1.76999998
   10.89222240  290.58300781    1.55999994    1.76999998
   10.89527798  285.61199951    1.55999994    1.76999998
   10.89861107  262.47900391    1.55999994    1.76999998
   10.90194416  241.66299438    1.55999994    1.78999996
   10.90499973  273.93701172    1.55999994    1.78999996
   10.90833282  245.46299744    1.55999994    1.78999996
   10.91249943  245.46299744    1.55999994    1.78999996
   10.91666698  238.77299500    1.55999994    1.80999994
   10.91972256  209.06599426    1.53999996    1.80999994
   10.92305565  240.57099915    1.53999996    1.80999994
   10.92527771  270.91900635    1.53999996    1.80999994
   10.92666721  231.73699951    1.53999996    1.83000004
   10.93000031  246.18800354    1.53999996    1.80999994
   10.93305588  221.32699585    1.53999996    1.80999994
   10.93638897  220.62500000    1.51999998    1.83000004
   10.93944454  190.99400330    2.57999992    1.76999998
   10.94277763  201.66700745    2.57999992    1.76999998
   10.94611073  196.88400269    2.59999990    1.78999996
   10.94916630  187.43600464    2.59999990    1.78999996
   10.95527744  187.43600464    2.59999990    1.78999996
   10.95944405  188.67999268    2.59999990    1.78999996
   10.96277714  196.12399292    2.59999990    1.80999994
   10.96583271  197.92500305    2.57999992    1.78999996
   10.96916580  225.79800415    2.57999992    1.80999994
   10.97222137  229.33700562    2.57999992    1.78999996
   10.97555542  231.89799500    2.55999994    1.83000004
   10.97888851  234.71600342    2.55999994    1.80999994
   10.98194408  223.52400208    2.55999994    1.83000004
   10.98527813  200.75399780    2.55999994    1.83000004
   10.98861122  223.66299438    2.53999996    1.83000004
   10.99166679  199.53999329    2.53999996    1.83000004
   10.99222279  155.92300415    2.53999996    1.83000004
   10.99805546  155.92300415    2.53999996    1.83000004
   11.00222206  163.85499573    2.51999998    1.83000004
   11.00555515  159.27299500    2.51999998    1.85000002
   11.00861073  157.06399536    2.51999998    1.86000001
   11.01194477  194.77600098    2.51999998    1.85000002
   11.01527786  176.63099670    2.50000000    1.85000002
   11.01833344  201.09300232    2.50000000    1.86000001
   11.02166653  168.05000305    2.50000000    1.86000001
   11.02499962  157.43699646    2.50000000    1.86000001
   11.02555561  156.95799255    2.50000000    1.86000001
   11.02861118  211.97799683    2.50000000    1.86000001
   11.03166676  188.93699646    2.50000000    1.86000001
   11.03500080  180.64999390    2.48000002    1.86000001
   11.04111195  180.64999390    2.48000002    1.86000001
   11.04500008  173.82099915    2.46000004    1.88000000
   11.04833412  194.90100098    2.46000004    1.88000000
   11.05166721  199.42999268    2.44000006    1.88000000
   11.05472279  197.83299255    2.44000006    1.88000000
   11.05805588  182.76400757    2.44000006    1.88000000
   11.05888939  163.45700073    2.44000006    1.89999998
   11.06166649  138.87100220    2.42000008    1.89999998
   11.06472206  198.07099915    2.42000008    1.89999998
   11.06805515  179.86300659    2.42000008    1.89999998
   11.07138920  173.59199524    2.42000008    1.89999998
   11.07444477  186.33200073    2.40000010    1.89999998
   11.07777786  178.13999939    2.40000010    1.89999998
   11.08388901  178.13999939    2.39000010    1.91999996
   11.08805561  162.49400330    2.39000010    1.91999996
   11.09111118  171.12800598    2.39000010    1.91999996
   11.09222221  179.03399658    2.39000010    1.91999996
   11.09499931  170.24200439    2.39000010    1.91999996
   11.09805489  154.64999390    2.36999989    1.91999996
   11.10138893  195.38200378    2.36999989    1.94000006
   11.10472298  153.14999390    2.36999989    1.94000006
   11.10777855  167.26300049    2.34999990    1.94000006
   11.11111164  153.11599731    2.34999990    1.94000006
   11.11444473  154.61199951    2.32999992    1.94000006
   11.11750031  174.33299255    2.32999992    1.94000006
   11.12083340  156.74400330    2.30999994    1.96000004
   11.12666702  156.74400330    2.30999994    1.96000004
   11.13083363  147.75799561    2.28999996    1.98000002
   11.13416672  177.92199707    2.28999996    1.98000002
   11.13722229  158.21499634    2.26999998    1.98000002
   11.14055538  162.90499878    2.26999998    1.98000002
   11.14361095  158.40400696    2.26999998    1.98000002
   11.14694405  162.62100220    2.25000000    1.98000002
   11.15027714  169.60099792    2.25000000    1.98000002
   11.15333271  138.84800720    2.25000000    1.98000002
   11.15666676  162.46299744    2.25000000    1.98000002
   11.15888882  155.10299683    2.23000002    1.98000002
   11.16027737  155.92599487    2.23000002    2.00000000
   11.16333294  140.34800720    2.23000002    1.98000002
   11.16944504  140.34800720    2.23000002    1.98000002
   11.17361164  169.74499512    2.21000004    2.00000000
   11.17694473  160.77499390    2.21000004    2.00000000
   11.18000031  169.35400391    2.21000004    2.00000000
   11.18333340  153.82400513    2.21000004    2.00000000
   11.18666649  144.76400757    2.19000006    2.00000000
   11.18972206  147.72599792    2.19000006    2.01999998
   11.19222260  162.30799866    2.19000006    2.01999998
   11.19361115  163.24099731    2.19000006    2.01999998
   11.19666672  147.63900757    2.19000006    2.01999998
   11.19999981  140.04200745    2.17000008    2.01999998
   11.20333290  158.99899292    2.17000008    2.01999998
   11.20638847  149.77400208    2.17000008    2.01999998
   11.21249962  149.77400208    2.15000010    2.01999998
   11.21638870  155.17999268    2.15000010    2.01999998
   11.21972179  146.18800354    2.15000010    2.01999998
   11.22305489  167.99299622    2.15000010    2.03999996
   11.22555542  145.44700623    2.13000011    2.03999996
   11.22666645  153.53900146    2.13000011    2.03999996
   11.22972202  173.74899292    2.15000010    2.03999996
   11.23305511  148.26699829    2.13000011    2.03999996
   11.23638916  140.09399414    2.13000011    2.03999996
   11.23944473  141.57400513    2.13000011    2.05999994
   11.24277782  152.50599670    2.11999989    2.05999994
   11.24611092  156.11399841    2.11999989    2.05999994
   11.24916649  151.80700684    2.09999990    2.05999994
   11.25527763  151.80700684    2.09999990    2.05999994
   11.25944424  146.93699646    2.07999992    2.05999994
   11.26249981  154.65199280    2.07999992    2.05999994
   11.26583290  143.56300354    2.07999992    2.07999992
   11.26916599  149.83700562    2.07999992    2.07999992
   11.27222157  145.41799927    2.07999992    2.07999992
   11.27555561  158.45199585    2.05999994    2.07999992
   11.27861118  166.17500305    2.05999994    2.07999992
   11.28194427  161.70399475    2.03999996    2.07999992
   11.28527832  153.09599304    2.03999996    2.09999990
   11.28833389  150.57400513    2.03999996    2.09999990
   11.29166698  142.16900635    2.03999996    2.09999990
   11.29222298  151.40400696    2.01999998    2.09999990
   11.29805565  151.40400696    2.01999998    2.09999990
   11.30222225  153.73199463    2.01999998    2.09999990
   11.30555534  161.48899841    2.01999998    2.09999990
   11.30861092  146.11300659    2.01999998    2.09999990
   11.31194496  171.66999817    2.00000000    2.09999990
   11.31500053  137.84800720    2.00000000    2.09999990
   11.31833363  153.63800049    2.00000000    2.09999990
   11.32166672  153.50500488    2.00000000    2.11999989
   11.32472229  150.32699585    1.98000002    2.09999990
   11.32555580  136.08900452    1.98000002    2.09999990
   11.32833290  138.14199829    1.98000002    2.11999989
   11.33166695  152.16799927    1.98000002    2.11999989
   11.33472157  146.78199768    2.00000000    2.11999989
   11.34083271  146.78199768    1.98000002    2.13000011
   11.34499931  155.32499695    1.98000002    2.11999989
   11.34833336  168.39799500    1.98000002    2.11999989
   11.35138893  142.55400085    1.98000002    2.13000011
   11.35472298  159.79100037    1.96000004    2.13000011
   11.35805607  148.52099609    1.96000004    2.13000011
   11.35888958  134.85899353    1.96000004    2.13000011
   11.36166668  132.91000366    1.94000006    2.13000011
   11.36500072  144.37600708    1.94000006    2.13000011
   11.36805534  136.71200562    1.94000006    2.13000011
   11.37138939  159.94000244    1.94000006    2.13000011
   11.37444496  145.94500732    1.91999996    2.15000010
   11.37777805  145.91000366    1.91999996    2.13000011
   11.38388920  145.91000366    1.89999998    2.13000011
   11.38777733  146.51100159    1.89999998    2.15000010
   11.39111137  147.94200134    1.89999998    2.15000010
   11.39222240  141.90100098    1.89999998    2.15000010
   11.39472198  155.77200317    1.89999998    2.15000010
   11.39805508  154.54100037    1.89999998    2.15000010
   11.40111065  147.07400513    1.89999998    2.17000008
   11.40444374  164.50999451    1.91999996    2.17000008
   11.40749931  139.36700439    1.89999998    2.15000010
   11.41083336  146.40499878    1.89999998    2.17000008
   11.41416645  142.06799316    1.89999998    2.15000010
   11.41722298  147.50999451    1.89999998    2.15000010
   11.42055607  156.96499634    1.89999998    2.17000008
   11.42666721  156.96499634    1.88000000    2.17000008
   11.43083382  146.69299316    1.88000000    2.17000008
   11.43388939  169.23699951    1.88000000    2.17000008
   11.43722248  148.94099426    1.88000000    2.17000008
   11.44055557  149.55599976    1.88000000    2.17000008
   11.44361115  165.89799500    1.88000000    2.17000008
   11.44694424  152.97300720    1.86000001    2.17000008
   11.44999981  146.20899963    1.86000001    2.17000008
   11.45333290  156.63000488    1.86000001    2.17000008
   11.45666695  148.11399841    1.86000001    2.19000006
   11.45888901  150.78599548    1.86000001    2.17000008
   11.46027756  156.08999634    1.86000001    2.17000008
   11.46361065  149.02900696    1.86000001    2.19000006
   11.46944427  149.02900696    1.85000002    2.19000006
   11.47361088  137.35400391    1.85000002    2.19000006
   11.47694397  148.61300659    1.85000002    2.19000006
   11.47999954  143.38400269    1.85000002    2.21000004
   11.48333359  146.29400635    1.85000002    2.21000004
   11.48666668  164.86099243    1.85000002    2.21000004
   11.49000072  160.81100464    1.85000002    2.21000004
   11.49222279  151.87199402    1.83000004    2.21000004
   11.49361134  160.45899963    1.83000004    2.21000004
   11.49694443  158.76100159    1.80999994    2.21000004
   11.50000000  153.48500061    1.80999994    2.21000004
   11.50333309  157.77999878    1.80999994    2.21000004
   11.50638866  136.57600403    1.80999994    2.21000004
   11.51222229  136.57600403    1.78999996    2.23000002
   11.51638889  147.63800049    1.78999996    2.23000002
   11.51972198  159.88299561    1.78999996    2.21000004
   11.52305508  160.77999878    1.78999996    2.23000002
   11.52555561  168.80400085    1.78999996    2.23000002
   11.52666664  178.40299988    1.78999996    2.23000002
   11.52999973  155.91499329    1.78999996    2.23000002
   11.53305531  144.37100220    1.80999994    2.23000002
   11.53638935  152.02200317    1.80999994    2.23000002
   11.53944492  141.75900269    1.80999994    2.23000002
   11.54277802  159.72099304    1.80999994    2.23000002
   11.54611111  161.25000000    1.78999996    2.23000002
   11.54916668  144.46800232    1.78999996    2.25000000
   11.55527782  144.46800232    1.78999996    2.23000002
   11.55916691  179.03700256    1.78999996    2.25000000
   11.56250000  180.61700439    1.78999996    2.25000000
   11.56583309  157.95700073    1.78999996    2.25000000
   11.56888866  162.61199951    1.78999996    2.25000000
   11.57222176  171.30200195    1.78999996    2.25000000
   11.57555580  158.81599426    1.78999996    2.25000000
   11.57861137  154.59800720    1.78999996    2.25000000
   11.58194447  173.78799438    1.80999994    2.25000000
   11.58500004  152.66299438    1.78999996    2.25000000
   11.58833313  160.15400696    1.78999996    2.25000000
   11.59166622  158.60499573    1.78999996    2.25000000
   11.59222221  153.78300476    1.78999996    2.25000000
   11.59805489  153.78300476    1.78999996    2.25000000
   11.60222244  166.26800537    1.78999996    2.26999998
   11.60527802  166.39199829    1.78999996    2.25000000
   11.60861111  178.56599426    1.76999998    2.26999998
   11.61194515  165.62699890    1.76999998    2.26999998
   11.61500072  149.27600098    1.76999998    2.28999996
   11.61833382  188.59399414    1.76999998    2.26999998
   11.62138939  133.75000000    1.76999998    2.28999996
   11.62472248  165.68499756    1.76999998    2.26999998
   11.62555599  175.39199829    1.75000000    2.26999998
   11.62833309  181.67300415    1.75000000    2.28999996
   11.63166714  167.69900513    1.75000000    2.28999996
   11.63472176  179.33099365    1.75000000    2.28999996
   11.64083290  179.33099365    1.73000002    2.28999996
   11.64499950  161.11199951    1.73000002    2.28999996
   11.64833355  160.74200439    1.71000004    2.28999996
   11.65138817  167.88499451    1.71000004    2.28999996
   11.65472221  173.52600098    1.71000004    2.28999996
   11.65805531  153.28500366    1.71000004    2.28999996
   11.65888882  163.85299683    1.71000004    2.28999996
   11.66166592  161.33599854    1.71000004    2.28999996
   11.66499996  162.06599426    1.71000004    2.28999996
   11.66805553  170.36500549    1.69000006    2.30999994
   11.67138958  150.06599426    1.66999996    2.28999996
   11.67472267  154.71600342    1.69000006    2.30999994
   11.67777824  151.38499451    1.66999996    2.30999994
   11.68361092  151.38499451    1.66999996    2.30999994
   11.68777752  164.21299744    1.66999996    2.30999994
   11.69111156  184.42500305    1.66999996    2.30999994
   11.69222260  167.58399963    1.66999996    2.30999994
   11.69472218  150.01100159    1.66999996    2.30999994
   11.69805527  170.13299561    1.66999996    2.30999994
   11.70111084  186.29499817    1.66999996    2.30999994
   11.70444393  148.51600647    1.66999996    2.32999992
   11.70777798  171.38000488    1.66999996    2.32999992
   11.71083355  156.74499512    1.64999998    2.32999992
   11.71416664  160.46600342    1.64999998    2.32999992
   11.71722221  159.54499817    1.64999998    2.32999992
   11.73805618  159.54499817    1.63000000    2.32999992
   11.74194431  159.07400513    1.63000000    2.32999992
   11.74527836  167.34399414    1.63000000    2.32999992
   11.74861145  164.65800476    1.63000000    2.34999990
   11.75166702  165.06199646    1.63000000    2.34999990
   11.75500011  152.52000427    1.61000001    2.34999990
   11.75833321  150.24600220    1.61000001    2.34999990
   11.76138878  150.88099670    1.63000000    2.34999990
   11.76472187  160.16400146    1.63000000    2.34999990
   11.76805496  154.02499390    1.63000000    2.34999990
   11.76888847  151.62699890    1.63000000    2.34999990
   11.77138901  164.35099792    1.61000001    2.34999990
   11.77472210  149.43899536    1.61000001    2.34999990
   11.78083324  149.43899536    1.61000001    2.34999990
   11.78472233  155.75399780    1.61000001    2.36999989
   11.78805637  159.79699707    1.61000001    2.36999989
   11.79138947  161.58200073    1.63000000    2.36999989
   11.79444504  154.18099976    1.61000001    2.34999990
   11.79777813  164.17599487    1.61000001    2.36999989
   11.80083370  162.69200134    1.61000001    2.36999989
   11.80222225  163.25799561    1.61000001    2.36999989
   11.80444431  152.50399780    1.60000002    2.36999989
   11.80777836  157.17199707    1.60000002    2.36999989
   11.81083393  159.71200562    1.60000002    2.36999989
   11.81416702  137.47000122    1.60000002    2.36999989
   11.81750011  161.97599792    1.60000002    2.36999989
   11.82361126  161.97599792    1.58000004    2.36999989
   11.82777786  150.18499756    1.58000004    2.36999989
   11.83083344  157.11999512    1.58000004    2.36999989
   11.83416653  165.75599670    1.58000004    2.36999989
   11.83555508  155.03999329    1.58000004    2.36999989
   11.83777714  172.49899292    1.58000004    2.36999989
   11.84083271  166.42300415    1.58000004    2.36999989
   11.84416676  160.42700195    1.55999994    2.39000010
   11.84749985  170.75100708    1.55999994    2.39000010
   11.85055637  154.70500183    1.55999994    2.39000010
   11.85388947  152.16299438    1.55999994    2.39000010
   11.85722256  159.64199829    1.53999996    2.39000010
   11.86027813  147.56700134    1.53999996    2.39000010
   11.86638927  147.56700134    1.53999996    2.39000010
   11.87055588  158.82699585    1.53999996    2.39000010
   11.87388897  158.58000183    1.53999996    2.39000010
   11.87694454  178.97200012    1.53999996    2.39000010
   11.88027763  148.77499390    1.53999996    2.39000010
   11.88333321  160.77200317    1.51999998    2.40000010
   11.88666630  150.98699951    1.50000000    2.40000010
   11.89000034  149.29800415    1.50000000    2.40000010
   11.89305496  163.71699524    1.50000000    2.40000010
   11.89638901  141.17199707    1.48000002    2.40000010
   11.89944458  149.85600281    1.48000002    2.40000010
   11.90222168  155.94200134    1.48000002    2.40000010
   11.90333271  150.41499329    1.48000002    2.40000010
   11.90916634  150.41499329    1.48000002    2.40000010
   11.91333294  159.57499695    1.46000004    2.40000010
   11.91666698  154.67500305    1.46000004    2.40000010
   11.91972256  165.63600159    1.46000004    2.40000010
   11.92305565  147.07200623    1.46000004    2.40000010
   11.92638874  161.33299255    1.46000004    2.42000008
   11.92944431  147.43200684    1.46000004    2.42000008
   11.93277836  147.74800110    1.46000004    2.40000010
   11.93555546  157.66099548    1.44000006    2.40000010
   11.93638897  153.61500549    1.44000006    2.40000010
   11.93972206  149.91099548    1.44000006    2.40000010
   11.94277763  157.14900208    1.44000006    2.40000010
   11.94611073  150.48699951    1.44000006    2.40000010
   11.95222187  150.48699951    1.44000006    2.40000010
   11.95611095  157.28599548    1.41999996    2.42000008
   11.95944405  163.63600159    1.39999998    2.42000008
   11.96277714  152.40199280    1.39999998    2.42000008
   11.96583271  166.55400085    1.39999998    2.42000008
   11.96888828  150.03399658    1.39999998    2.42000008
   11.96944427  149.88600159    1.39999998    2.42000008
   11.97277737  148.55000305    1.38000000    2.42000008
   11.97583294  153.45500183    1.38000000    2.42000008
   11.97916603  155.70899963    1.38000000    2.42000008
   11.98249912  148.28199768    1.38000000    2.42000008
   11.98555565  163.33700562    1.39999998    2.44000006
   11.98888874  154.83900452    1.39999998    2.44000006
   11.99499989  154.83900452    1.39999998    2.42000008
   11.99916649  150.31500244    1.38000000    2.42000008
   12.00222206  159.50300598    1.36000001    2.44000006
   12.00277805  159.72500610    1.36000001    2.44000006
   12.00611115  161.17700195    1.36000001    2.44000006
   12.00916672  154.39500427    1.36000001    2.44000006
   12.01249981  158.98599243    1.36000001    2.44000006
   12.01583290  164.64599609    1.36000001    2.44000006
   12.01888847  163.28999329    1.36000001    2.44000006
   12.02222157  159.92599487    1.36000001    2.44000006
   12.02527714  156.99000549    1.36000001    2.44000006
   12.02861118  155.80700684    1.36000001    2.44000006
   12.03194427  156.99800110    1.36000001    2.44000006
   12.03777790  156.99800110    1.36000001    2.44000006
   12.04194450  149.03500366    1.34000003    2.44000006
   12.04527855  165.63699341    1.34000003    2.44000006
   12.04833412  150.43200684    1.33000004    2.44000006
   12.05166721  152.76199341    1.33000004    2.44000006
   12.05472279  146.57099915    1.33000004    2.46000004
   12.05805588  155.39700317    1.33000004    2.44000006
   12.06138897  141.40899658    1.33000004    2.46000004
   12.06444454  145.05799866    1.33000004    2.44000006
   12.06777763  143.37300110    1.30999994    2.44000006
   12.06888866  152.89799500    1.30999994    2.46000004
   12.07138920  146.27999878    1.28999996    2.44000006
   12.07472229  138.11599731    1.30999994    2.46000004
   12.08055592  138.11599731    1.30999994    2.46000004
   12.08472157  151.04299927    1.30999994    2.46000004
   12.08805561  150.89599609    1.30999994    2.46000004
   12.09111118  145.49099731    1.33000004    2.46000004
   12.09444427  152.71800232    1.33000004    2.46000004
   12.09777737  151.91099548    1.33000004    2.46000004
   12.10083389  156.02799988    1.33000004    2.46000004
   12.10222244  147.13600159    1.33000004    2.46000004
   12.10444450  151.84100342    1.33000004    2.46000004
   12.10777855  151.62199402    1.33000004    2.46000004
   12.11083412  148.73399353    1.30999994    2.46000004
   12.11416721  142.86599731    1.30999994    2.46000004
   12.11750031  152.00599670    1.30999994    2.46000004
   12.12333393  152.00599670    1.30999994    2.48000002
   12.12750053  138.77499390    1.30999994    2.46000004
   12.13083363  142.11399841    1.28999996    2.48000002
   12.13416672  155.82299805    1.28999996    2.48000002
   12.13583279  132.98699951    1.26999998    2.48000002
   12.13777733  140.87600708    1.26999998    2.48000002
   12.14083290  148.11199951    1.26999998    2.48000002
   12.14416695  145.09599304    1.26999998    2.48000002
   12.14750004  144.91900635    1.26999998    2.48000002
   12.15055561  142.86300659    1.26999998    2.48000002
   12.15388870  138.19900513    1.26999998    2.48000002
   12.15722179  146.36500549    1.26999998    2.48000002
   12.16027737  142.32299805    1.26999998    2.48000002
   12.16638851  142.32299805    1.28999996    2.48000002
   12.17055607  145.21200562    1.26999998    2.48000002
   12.17361164  148.63600159    1.28999996    2.48000002
   12.17694473  154.31199646    1.26999998    2.48000002
   12.18027782  138.90199280    1.26999998    2.48000002
   12.18333340  147.73599243    1.28999996    2.48000002
   12.18666649  145.82699585    1.28999996    2.48000002
   12.18972206  146.51300049    1.28999996    2.48000002
   12.19305515  146.91700745    1.26999998    2.50000000
   12.19638920  138.43800354    1.26999998    2.50000000
   12.19944477  145.83299255    1.25000000    2.50000000
   12.20249939  138.16900635    1.25000000    2.48000002
   12.20333290  156.69200134    1.25000000    2.50000000
   12.20916653  156.69200134    1.25000000    2.50000000
   12.21333313  150.95199585    1.25000000    2.48000002
   12.21666622  159.71299744    1.25000000    2.50000000
   12.21972179  146.51899719    1.25000000    2.50000000
   12.22305489  161.62399292    1.25000000    2.48000002
   12.22611046  160.96000671    1.23000002    2.50000000
   12.22944355  150.50199890    1.23000002    2.50000000
   12.23277760  144.35099792    1.23000002    2.50000000
   12.23583317  157.93800354    1.23000002    2.50000000
   12.23638916  146.51499939    1.23000002    2.50000000
   12.23944473  152.78399658    1.23000002    2.50000000
   12.24277782  145.49299622    1.23000002    2.50000000
   12.24611092  152.46099854    1.23000002    2.50000000
   12.25194454  152.46099854    1.21000004    2.50000000
   12.25611115  131.08099365    1.21000004    2.51999998
   12.25944424  147.18299866    1.21000004    2.50000000
   12.26249981  140.48699951    1.21000004    2.50000000
   12.26583290  135.43800354    1.21000004    2.51999998
   12.26888847  136.89199829    1.21000004    2.51999998
   12.26944447  143.33399963    1.19000006    2.51999998
   12.27277756  144.12899780    1.19000006    2.51999998
   12.27611065  139.25000000    1.19000006    2.51999998
   12.27916622  136.84899902    1.16999996    2.51999998
   12.28249931  136.27600098    1.16999996    2.51999998
   12.28583336  146.08599854    1.16999996    2.51999998
   12.28888893  132.53900146    1.16999996    2.51999998
   12.29472256  132.53900146    1.16999996    2.51999998
   12.29888916  147.10899353    1.19000006    2.51999998
   12.30222225  136.30700684    1.19000006    2.51999998
   12.30277824  140.61500549    1.19000006    2.51999998
   12.30583382  136.99499512    1.19000006    2.51999998
   12.30916691  145.87899780    1.19000006    2.51999998
   12.31222248  142.76499939    1.19000006    2.51999998
   12.31555557  147.72799683    1.19000006    2.51999998
   12.31888866  141.26300049    1.19000006    2.51999998
   12.32194424  146.60699463    1.19000006    2.51999998
   12.32527733  149.57400513    1.19000006    2.51999998
   12.32833290  139.59199524    1.19000006    2.51999998
   12.33166695  148.36999512    1.16999996    2.53999996
   12.33777714  148.36999512    1.16999996    2.53999996
   12.34166622  141.46000671    1.14999998    2.53999996
   12.34499931  148.87500000    1.14999998    2.53999996
   12.34833336  138.14599609    1.14999998    2.51999998
   12.35138893  134.72700500    1.13000000    2.51999998
   12.35472298  141.07899475    1.13000000    2.53999996
   12.35805607  136.36000061    1.13000000    2.51999998
   12.36138916  137.15600586    1.13000000    2.51999998
   12.36444473  132.69999695    1.13000000    2.53999996
   12.36777782  137.13699341    1.13000000    2.53999996
   12.36944485  136.85400391    1.13000000    2.53999996
   12.37138939  139.60800171    1.14999998    2.53999996
   12.37472248  137.08799744    1.14999998    2.53999996
   12.38055611  137.08799744    1.14999998    2.53999996
   12.38472176  139.04600525    1.14999998    2.53999996
   12.38777733  136.76600647    1.14999998    2.53999996
   12.39111137  142.55400085    1.14999998    2.53999996
   12.39444447  137.57600403    1.14999998    2.53999996
   12.39750004  141.75399780    1.14999998    2.53999996
   12.40083313  146.38800049    1.14999998    2.53999996
   12.40277767  144.50900269    1.14999998    2.53999996
   12.40444374  137.00300598    1.13000000    2.55999994
   12.40777779  147.30499268    1.13000000    2.53999996
   12.41083336  137.86300659    1.13000000    2.53999996
   12.41416645  141.63800049    1.11000001    2.53999996
   12.41750050  123.17500305    1.11000001    2.53999996
   12.42333412  123.17500305    1.09000003    2.53999996
   12.42750072  146.41000366    1.09000003    2.53999996
   12.43083382  132.21899414    1.09000003    2.55999994
   12.43388939  136.92500305    1.09000003    2.53999996
   12.43611145  131.89500427    1.09000003    2.55999994
   12.43750000  135.06199646    1.09000003    2.55999994
   12.44083309  142.79899597    1.09000003    2.55999994
   12.44388866  142.76100159    1.09000003    2.55999994
   12.44722271  134.34899902    1.09000003    2.55999994
   12.45055580  140.70100403    1.09000003    2.53999996
   12.45361137  141.58999634    1.09000003    2.53999996
   12.45694447  151.11700439    1.09000003    2.55999994
   12.46027756  148.58900452    1.09000003    2.55999994
   12.46611118  148.58900452    1.09000003    2.55999994
   12.47027779  138.47099304    1.09000003    2.55999994
   12.47361088  146.82000732    1.07000005    2.55999994
   12.47666645  138.78100586    1.07000005    2.55999994
   12.47999954  142.61999512    1.07000005    2.55999994
   12.48333359  141.91400146    1.07000005    2.55999994
   12.48638916  144.03900146    1.07000005    2.55999994
   12.48972225  136.59500122    1.07000005    2.55999994
   12.49305534  150.90499878    1.07000005    2.55999994
   12.49611092  139.91400146    1.09000003    2.55999994
   12.49944496  128.86099243    1.07000005    2.55999994
   12.50249958  132.61799622    1.07000005    2.57999992
   12.50305557  132.83299255    1.07000005    2.55999994
   12.50916672  132.83299255    1.07000005    2.55999994
   12.51305580  128.53599548    1.07000005    2.55999994
   12.51638889  140.24899292    1.05999994    2.55999994
   12.51972198  135.37899780    1.05999994    2.55999994
   12.52305508  132.10699463    1.05999994    2.55999994
   12.52611065  136.80499268    1.05999994    2.55999994
   12.52944374  124.99099731    1.05999994    2.55999994
   12.53249931  147.11599731    1.07000005    2.55999994
   12.53583336  135.77299500    1.07000005    2.57999992
   12.53638935  131.50100708    1.07000005    2.55999994
   12.53944492  116.17400360    1.07000005    2.57999992
   12.54277802  134.69500732    1.07000005    2.57999992
   12.54583359  136.37699890    1.09000003    2.55999994
   12.55194473  136.37699890    1.07000005    2.55999994
   12.55611134  136.08200073    1.07000005    2.55999994
   12.55916691  127.72100067    1.07000005    2.57999992
   12.56250000  135.48899841    1.07000005    2.55999994
   12.56583309  137.63400269    1.07000005    2.55999994
   12.56888866  127.37699890    1.07000005    2.57999992
   12.56972218  135.91700745    1.07000005    2.55999994
   12.57250023  132.58299255    1.07000005    2.57999992
   12.57583332  140.17799377    1.09000003    2.57999992
   12.57888889  129.87100220    1.09000003    2.57999992
   12.58222198  132.81599426    1.07000005    2.57999992
   12.58555508  143.13400269    1.07000005    2.55999994
   12.58861065  131.26800537    1.07000005    2.55999994
   12.59472179  131.26800537    1.07000005    2.59999990
   12.59888840  133.30900574    1.07000005    2.59999990
   12.60222244  130.70700073    1.07000005    2.57999992
   12.60305595  135.37600708    1.07000005    2.57999992
   12.60583401  136.12699890    1.07000005    2.59999990
   12.60916710  142.72500610    1.07000005    2.59999990
   12.61222267  118.63800049    1.07000005    2.57999992
   12.61555576  136.60899353    1.07000005    2.57999992
   12.61888885  130.11199951    1.05999994    2.59999990
   12.62194443  128.63600159    1.05999994    2.59999990
   12.62527752  125.48999786    1.05999994    2.59999990
   12.62833309  128.24299622    1.05999994    2.59999990
   12.63166714  134.74099731    1.05999994    2.59999990
   12.63749981  134.74099731    1.05999994    2.59999990
   12.64166641  126.74600220    1.05999994    2.59999990
   12.64499950  128.48199463    1.05999994    2.59999990
   12.64805508  126.70700073    1.05999994    2.57999992
   12.65138817  136.86399841    1.05999994    2.57999992
   12.65472221  141.51100159    1.05999994    2.57999992
   12.65777779  129.78199768    1.05999994    2.59999990
   12.66111088  133.88099670    1.05999994    2.59999990
   12.66444397  139.82000732    1.03999996    2.59999990
   12.66750050  138.31399536    1.03999996    2.59999990
   12.66972256  138.46299744    1.03999996    2.59999990
   12.67111111  134.52900696    1.03999996    2.59999990
   12.67444515  147.15800476    1.05999994    2.59999990
   12.68055630  147.15800476    1.01999998    2.59999990
   12.68444443  139.69599915    1.01999998    2.59999990
   12.68777752  140.65499878    1.01999998    2.59999990
   12.69111156  136.18400574    1.01999998    2.59999990
   12.69416714  139.16200256    1.01999998    2.59999990
   12.69750023  148.33299255    1.00000000    2.59999990
   12.70083332  140.54200745    1.00000000    2.59999990
   12.70305538  138.36000061    1.00000000    2.59999990
   12.70444393  141.00599670    1.00000000    2.59999990
   12.70777798  137.11099243    1.01999998    2.59999990
   12.71083355  149.11900330    1.01999998    2.59999990
   12.71416664  146.86700439    1.01999998    2.59999990
   12.71749973  136.54899597    1.01999998    2.59999990
   12.72333336  136.54899597    1.03999996    2.59999990
   12.72749996  131.87600708    1.03999996    2.59999990
   12.73055553  133.37100220    1.03999996    2.61999989
   12.73388958  136.23800659    1.03999996    2.59999990
   12.75138855  137.98199463    1.01999998    2.61999989
   12.75388908  137.80799866    1.01999998    2.59999990
   12.75694466  129.32899475    1.01999998    2.59999990
   12.76027775  125.18699646    1.01999998    2.61999989
   12.76638889  125.18699646    1.01999998    2.61999989
   12.77055550  130.46499634    1.01999998    2.59999990
   12.77361107  130.03500366    1.01999998    2.59999990
   12.77694416  132.18499756    1.03999996    2.61999989
   12.77999973  133.53199768    1.03999996    2.59999990
   12.78333378  139.74699402    1.03999996    2.61999989
   12.78472233  129.90499878    1.03999996    2.61999989
   12.78722286  129.06700134    1.03999996    2.61999989
   12.79027843  138.41700745    1.03999996    2.61999989
   12.79361153  123.26200104    1.03999996    2.61999989
   12.79666710  135.10499573    1.01999998    2.61999989
   12.80000019  129.70199585    1.01999998    2.61999989
   12.80333328  130.60800171    1.01999998    2.61999989
   12.80916691  130.60800171    1.00000000    2.61999989
   12.81333351  123.58599854    1.00000000    2.61999989
   12.81638908  135.24200439    1.00000000    2.61999989
   12.81805515  129.05599976    1.00000000    2.61999989
   12.82027817  138.92799377    1.00000000    2.64000010
   12.82333374  136.46200562    1.00000000    2.61999989
   12.82666683  133.93400574    1.00000000    2.64000010
   12.82972240  123.27600098    1.00000000    2.64000010
   12.83305550  133.62699890    1.00000000    2.61999989
   12.83638859  121.98699951    1.00000000    2.64000010
   12.83944416  133.59899902    1.00000000    2.64000010
   12.84277725  134.89900208    1.00000000    2.64000010
   12.84611034  124.65000153    1.00000000    2.64000010
   12.85194492  124.65000153    1.00000000    2.64000010
   12.85611153  133.95300293    1.00000000    2.64000010
   12.85944462  131.25799561    1.00000000    2.64000010
   12.86250019  132.23699951    1.00000000    2.64000010
   12.86583328  126.08300018    1.00000000    2.64000010
   12.86916637  128.96000671    1.00000000    2.61999989
   12.87222195  132.31599426    1.00000000    2.64000010
   12.87555599  134.73100281    0.98000002    2.64000010
   12.87888908  134.29899597    1.00000000    2.64000010
   12.88194466  120.78700256    1.00000000    2.66000009
   12.88472176  122.18800354    1.00000000    2.64000010
   12.88555527  137.25999451    0.98000002    2.64000010
   12.88888836  126.52600098    0.98000002    2.64000010
   12.89472198  126.52600098    0.98000002    2.64000010
   12.89888859  123.72599792    0.95999998    2.64000010
   12.90222168  132.37800598    0.95999998    2.64000010
   12.90555477  140.79299927    0.95999998    2.64000010
   12.90861034  138.97200012    0.95999998    2.64000010
   12.91194439  124.96399689    0.95999998    2.64000010
   12.91499996  131.69400024    0.95999998    2.64000010
   12.91805553  127.45500183    0.95999998    2.64000010
   12.91861153  129.42700195    0.95999998    2.64000010
   12.92194462  125.47100067    0.95999998    2.64000010
   12.92527771  145.74499512    0.95999998    2.64000010
   12.92833328  131.98599243    0.95999998    2.64000010
   12.93166733  133.59199524    0.95999998    2.64000010
   12.93777752  133.59199524    0.95999998    2.64000010
   12.94194412  142.07099915    0.98000002    2.64000010
   12.94499969  140.04299927    0.95999998    2.66000009
   12.94833374  146.73699951    0.95999998    2.66000009
   12.95138836  139.40100098    0.95999998    2.66000009
   12.95166683  130.26600647    0.95999998    2.66000009
   12.95499992  125.58200073    0.95999998    2.64000010
   12.95833302  127.09600067    0.95999998    2.64000010
   12.96166611  131.45500183    0.98000002    2.64000010
   12.96472168  136.24499512    0.98000002    2.64000010
   12.96805477  136.76100159    0.98000002    2.64000010
   12.97111034  128.91799927    0.98000002    2.64000010
   12.97444439  134.63200378    0.98000002    2.64000010
   12.98055553  134.63200378    0.98000002    2.64000010
   12.98472214  127.42900085    0.98000002    2.66000009
   12.98777771  126.09500122    0.98000002    2.66000009
   12.99111176  121.29499817    0.98000002    2.66000009
   12.99444485  125.16799927    0.98000002    2.64000010
   12.99750042  116.11900330    0.98000002    2.66000009
   13.00083351  129.35200500    0.98000002    2.64000010
   13.00416660  117.41600037    0.95999998    2.66000009
   13.00722218  108.26000214    0.95999998    2.64000010
   13.01055527  115.40899658    0.95999998    2.64000010
   13.01361084  111.36399841    0.94000000    2.66000009
   13.01694393  114.62000275    0.94000000    2.66000009
   13.01805496  122.21099854    0.94000000    2.66000009
   13.02333355  122.21099854    0.94000000    2.66000009
   13.02750015  111.40399933    0.94000000    2.66000009
   13.03083324  120.69899750    0.94000000    2.64000010
   13.03388977  120.03399658    0.92000002    2.66000009
   13.03722286  131.50199890    0.92000002    2.67000008
   13.04055595  118.61199951    0.92000002    2.66000009
   13.04388905  126.88400269    0.92000002    2.66000009
   13.04694462  130.67900085    0.92000002    2.66000009
   13.05027771  118.43000031    0.92000002    2.66000009
   13.05138874  125.56999969    0.92000002    2.67000008
   13.05388927  139.41099548    0.92000002    2.66000009
   13.05722237  128.09300232    0.92000002    2.66000009
   13.06055546  131.66600037    0.92000002    2.66000009
   13.06611156  131.66600037    0.92000002    2.66000009
   13.07027817  128.41000366    0.92000002    2.66000009
   13.07361126  133.55900574    0.92000002    2.66000009
   13.07694435  112.37200165    0.92000002    2.66000009
   13.07999992  123.40100098    0.92000002    2.67000008
   13.08333302  123.60099792    0.89999998    2.67000008
   13.08472157  121.50800323    0.89999998    2.66000009
   13.08694458  117.72699738    0.89999998    2.66000009
   13.09000015  104.21399689    0.89999998    2.67000008
   13.09333324  127.75599670    0.89999998    2.66000009
   13.09638882  127.65699768    0.89999998    2.67000008
   13.09972191  127.23999786    0.92000002    2.66000009
   13.10305595  121.45600128    0.92000002    2.67000008
   13.10916710  121.45600128    0.92000002    2.67000008
   13.11333370  121.57299805    0.89999998    2.66000009
   13.11638927  119.94300079    0.92000002    2.67000008
   13.11805534  119.83599854    0.92000002    2.67000008
   13.12027836  120.50399780    0.92000002    2.67000008
   13.12333393  118.92600250    0.89999998    2.66000009
   13.12666702  127.48999786    0.92000002    2.67000008
   13.12972260  120.64600372    0.92000002    2.67000008
   13.13305569  119.81999969    0.92000002    2.66000009
   13.13638878  122.30999756    0.92000002    2.67000008
   13.13944435  128.00500488    0.92000002    2.69000006
   13.14277744  123.43399811    0.92000002    2.66000009
   13.14611053  120.35199738    0.92000002    2.67000008
   13.15194416  120.35199738    0.92000002    2.67000008
   13.15611076  120.16000366    0.92000002    2.66000009
   13.15916634  128.45599365    0.92000002    2.67000008
   13.16249943  132.88600159    0.92000002    2.67000008
   13.16583252  132.99099731    0.92000002    2.67000008
   13.16888905  126.70300293    0.92000002    2.67000008
   13.17222214  135.17199707    0.92000002    2.67000008
   13.17555618  140.65800476    0.92000002    2.67000008
   13.17861176  121.45300293    0.92000002    2.67000008
   13.18194485  125.67199707    0.94000000    2.67000008
   13.18472195  130.33900452    0.94000000    2.67000008
   13.18555546  130.79499817    0.94000000    2.67000008
   13.18861103  133.13499451    0.94000000    2.67000008
   13.19472218  133.13499451    0.92000002    2.67000008
   13.19888878  138.25599670    0.94000000    2.67000008
   13.20222187  138.18400574    0.94000000    2.67000008
   13.20527744  141.02200317    0.94000000    2.67000008
   13.20861053  142.44900513    0.92000002    2.67000008
   13.21194458  132.51800537    0.92000002    2.67000008
   13.21500015  134.08299255    0.92000002    2.67000008
   13.21805477  132.35099792    0.92000002    2.67000008
   13.21888828  145.05400085    0.92000002    2.66000009
   13.22194386  121.69699860    0.89999998    2.67000008
   13.22527695  136.22200012    0.89999998    2.67000008
   13.22833252  143.50300598    0.89999998    2.67000008
   13.23166656  145.87100220    0.89999998    2.67000008
   13.23750019  145.87100220    0.92000002    2.67000008
   13.24166679  136.50100708    0.92000002    2.67000008
   13.24499989  126.55999756    0.92000002    2.67000008
   13.24833393  139.12600708    0.92000002    2.67000008
   13.25138855  138.60899353    0.92000002    2.67000008
   13.25194454  136.95799255    0.92000002    2.67000008
   13.25500011  133.83000183    0.92000002    2.67000008
   13.25833321  145.69000244    0.92000002    2.69000006
   13.26138878  130.88600159    0.92000002    2.67000008
   13.26472187  122.33200073    0.92000002    2.69000006
   13.26805496  135.37600708    0.89999998    2.67000008
   13.27111053  128.90299988    0.89999998    2.67000008
   13.27444458  128.05700684    0.89999998    2.67000008
   13.28055573  128.05700684    0.88000000    2.67000008
   13.28472233  140.44400024    0.88000000    2.69000006
   13.28527832  127.12400055    0.88000000    2.69000006
   13.28833389  135.64500427    0.88000000    2.67000008
   13.29166698  131.33700562    0.88000000    2.69000006
   13.29500008  131.43899536    0.88000000    2.69000006
   13.29805565  135.34700012    0.88000000    2.69000006
   13.30138874  127.81199646    0.88000000    2.69000006
   13.30444431  132.44999695    0.86000001    2.67000008
   13.30777836  137.35400391    0.86000001    2.67000008
   13.31111145  133.34399414    0.86000001    2.69000006
   13.31416702  123.94499969    0.86000001    2.69000006
   13.31750011  140.95500183    0.86000001    2.69000006
   13.31833363  131.67500305    0.86000001    2.69000006
   13.32333374  131.67500305    0.86000001    2.69000006
   13.32750034  133.69599915    0.86000001    2.69000006
   13.33055592  125.61199951    0.86000001    2.69000006
   13.33388901  132.47700500    0.86000001    2.69000006
   13.33722210  132.37300110    0.83999997    2.69000006
   13.34027767  124.74199677    0.83999997    2.69000006
   13.34361076  131.97599792    0.83999997    2.69000006
   13.34694386  130.58799744    0.83999997    2.69000006
   13.35000038  122.96499634    0.83999997    2.69000006
   13.35194492  125.43800354    0.83999997    2.69000006
   13.35361195  136.64999390    0.83999997    2.69000006
   13.35694504  128.64799500    0.83999997    2.71000004
   13.36000061  132.77400208    0.83999997    2.69000006
   13.36611176  132.77400208    0.86000001    2.69000006
   13.37027836  131.36199951    0.86000001    2.69000006
   13.37361145  124.36100006    0.86000001    2.69000006
   13.37666702  127.50299835    0.86000001    2.69000006
   13.38000011  127.34999847    0.86000001    2.69000006
   13.38305569  137.09399414    0.88000000    2.69000006
   13.38527775  128.28100586    0.88000000    2.69000006
   13.38666630  125.34700012    0.88000000    2.71000004
   13.39000034  134.39199829    0.88000000    2.69000006
   13.39305496  137.96099854    0.89999998    2.67000008
   13.39638901  136.57800293    0.88000000    2.67000008
   13.39972210  126.46099854    0.89999998    2.69000006
   13.40277767  131.86399841    0.92000002    2.69000006
   13.40888882  131.86399841    0.92000002    2.71000004
   13.41305542  128.26199341    0.89999998    2.69000006
   13.41638851  114.51200104    0.92000002    2.69000006
   13.41861153  124.97499847    0.89999998    2.71000004
   13.42000008  122.13300323    0.89999998    2.69000006
   13.42333412  123.06999969    0.89999998    2.67000008
   13.42638874  123.49800110    0.92000002    2.69000006
   13.42972279  120.07900238    0.89999998    2.69000006
   13.43305588  132.22300720    0.89999998    2.69000006
   13.43611145  122.79199982    0.89999998    2.69000006
   13.43944454  116.39399719    0.88000000    2.69000006
   13.44277763  132.19299316    0.86000001    2.69000006
   13.44583321  113.57900238    0.86000001    2.71000004
   13.45194435  113.57900238    0.83999997    2.69000006
   13.45583344  112.58100128    0.83999997    2.69000006
   13.45916653  119.36699677    0.83999997    2.69000006
   13.46249962  125.88899994    0.83999997    2.69000006
   13.46555519  130.23899841    0.83999997    2.71000004
   13.46888828  135.24400330    0.83999997    2.71000004
   13.47222137  127.74299622    0.83999997    2.71000004
   13.47527695  129.74099731    0.83999997    2.71000004
   13.47861099  127.60600281    0.83999997    2.69000006
   13.48166656  125.99400330    0.83999997    2.69000006
   13.48500061  110.89499664    0.83999997    2.69000006
   13.48694515  111.89600372    0.83999997    2.69000006
   13.48861122  125.75199890    0.83999997    2.69000006
   13.49472237  125.75199890    0.81999999    2.71000004
   13.49888897  124.85800171    0.83999997    2.71000004
   13.50194454  129.26800537    0.81999999    2.69000006
   13.50527763  129.68299866    0.81999999    2.69000006
   13.50861073  129.01300049    0.81999999    2.69000006
   13.51166630  130.29299927    0.81999999    2.69000006
   13.51500034  133.68699646    0.81999999    2.71000004
   13.51833344  120.34700012    0.81999999    2.69000006
   13.52027798  124.87500000    0.81999999    2.69000006
   13.52166653  129.77499390    0.81999999    2.69000006
   13.52499962  121.02400208    0.81999999    2.71000004
   13.52833271  117.72100067    0.81999999    2.69000006
   13.53138828  121.97799683    0.81999999    2.71000004
   13.53750038  121.97799683    0.81999999    2.71000004
   13.54166698  117.98600006    0.81999999    2.71000004
   13.54500008  125.94400024    0.81999999    2.71000004
   13.54805565  124.21099854    0.81999999    2.71000004
   13.55138874  126.58699799    0.81999999    2.71000004
   13.55388927  123.29399872    0.81999999    2.71000004
   13.66527748   -1.00000000   -1.00000000   -1.00000000
   13.76361084   -1.00000000   -1.00000000   -1.00000000
   13.86444473   -1.00000000   -1.00000000   -1.00000000
   13.90027714   71.72370148    0.79000002    2.73000002
   13.90361118  115.22899628    0.76999998    2.75000000
   13.90666676  120.39099884    0.79000002    2.73000002
   13.90999985  119.83200073    0.79000002    2.73000002
   13.91305542  118.73400116    0.79000002    2.75000000
   13.91638851  116.78399658    0.79000002    2.75000000
   13.92055607  116.78399658    0.79000002    2.75000000
   13.92472267  126.85700226    0.79000002    2.73000002
   13.92777824  114.54499817    0.79000002    2.73000002
   13.93111134  121.82299805    0.79000002    2.75000000
   13.93361092  114.73500061    0.79000002    2.75000000
   13.93500042  119.25000000    0.79000002    2.75000000
   13.93805599  130.03100586    0.76999998    2.73000002
   13.94138908  116.20899963    0.79000002    2.73000002
   13.94472218  119.39700317    0.76999998    2.75000000
   13.94777775  120.98200226    0.76999998    2.75000000
   13.95111084  117.74900055    0.76999998    2.75000000
   13.95416641  120.88500214    0.76999998    2.75000000
   13.95749950  119.02200317    0.76999998    2.73000002
   13.96333313  119.02200317    0.79000002    2.73000002
   13.96749973  120.72799683    0.79000002    2.73000002
   13.97083282  121.19100189    0.76999998    2.73000002
   13.97388840  120.78500366    0.76999998    2.73000002
   13.97722149  119.01999664    0.76999998    2.73000002
   13.98055553  118.49700165    0.76999998    2.73000002
   13.98361111  122.54499817    0.76999998    2.73000002
   13.98694515  123.46700287    0.76999998    2.75000000
   13.99000072  115.54399872    0.76999998    2.73000002
   13.99333382  125.12200165    0.76999998    2.75000000
   13.99666691  123.36499786    0.76999998    2.73000002
   13.99972248  118.76699829    0.76999998    2.75000000
   14.00027752  125.67500305    0.76999998    2.75000000
   14.00611115  125.67500305    0.76999998    2.75000000
   14.01027775  130.36700439    0.75000000    2.75000000
   14.01361084  125.28800201    0.75000000    2.75000000
   14.01694393  109.79599762    0.75000000    2.75000000
   14.01999950  121.65100098    0.75000000    2.73000002
   14.02333355  112.82499695    0.75000000    2.75000000
   14.02638817  120.04599762    0.75000000    2.75000000
   14.02972221  121.00000000    0.75000000    2.75000000
   14.03305531  116.67199707    0.76999998    2.75000000
   14.03361130  114.86399841    0.76999998    2.75000000
   14.03666687  118.45400238    0.75000000    2.75000000
   14.04000092  122.08699799    0.76999998    2.75000000
   14.04305553  118.40100098    0.76999998    2.75000000
   14.04916668  118.40100098    0.76999998    2.75000000
   14.05333328  116.45099640    0.76999998    2.75000000
   14.05638885  120.67199707    0.76999998    2.75000000
   14.05972195  127.12899780    0.76999998    2.75000000
   14.06277752  132.37300110    0.76999998    2.75000000
   14.06611156  114.26699829    0.76999998    2.75000000
   14.06694412  126.80899811    0.76999998    2.75000000
   14.06972218  125.79299927    0.76999998    2.75000000
   14.07305527  122.09200287    0.75000000    2.75000000
   14.07611084  110.28700256    0.75000000    2.75000000
   14.07944393  112.56800079    0.75000000    2.75000000
   14.08249950  128.57899475    0.75000000    2.75000000
   14.08583260  126.87799835    0.75000000    2.75000000
   14.09194374  126.87799835    0.75000000    2.75000000
   14.09611034  112.39600372    0.75000000    2.75000000
   14.09944439  112.93399811    0.75000000    2.75000000
   14.10027790  115.55799866    0.75000000    2.75000000
   14.10305595  122.05200195    0.75000000    2.75000000
   14.10638905  126.75800323    0.75000000    2.75000000
   14.10944462  126.66699982    0.75000000    2.75000000
   14.11277771  118.83699799    0.75000000    2.76999998
   14.11583328  129.35099792    0.75000000    2.75000000
   14.11916637  127.18399811    0.75000000    2.75000000
   14.12250042  121.69699860    0.75000000    2.76999998
   14.12555599  115.66999817    0.75000000    2.75000000
   14.12888908  116.50199890    0.75000000    2.75000000
   14.13472176  116.50199890    0.75000000    2.76999998
   14.13888836  117.20099640    0.75000000    2.75000000
   14.14222240  127.30300140    0.75000000    2.75000000
   14.14527798  122.12899780    0.75000000    2.75000000
   14.14861107  125.12500000    0.75000000    2.75000000
   14.15194416  120.48200226    0.75000000    2.75000000
   14.15499973  118.74600220    0.75000000    2.76999998
   14.15833282  124.24199677    0.75000000    2.76999998
   14.16138840  132.57200623    0.75000000    2.75000000
   14.16472149  128.07699585    0.75000000    2.75000000
   14.16694450  115.41400146    0.75000000    2.75000000
   14.16833401  119.66500092    0.75000000    2.75000000
   14.17166710  124.52700043    0.75000000    2.75000000
   14.17750072  124.52700043    0.75000000    2.75000000
   14.18166733  114.61499786    0.75000000    2.76999998
   14.18500042  116.42400360    0.75000000    2.76999998
   14.18833351  114.04499817    0.75000000    2.76999998
   14.19138908  111.80000305    0.75000000    2.75000000
   14.19472218  116.29699707    0.75000000    2.75000000
   14.19777775  113.71700287    0.75000000    2.76999998
   14.20027733  119.57399750    0.75000000    2.75000000
   14.20166683  117.65799713    0.75000000    2.75000000
   14.20499992  116.83999634    0.75000000    2.75000000
   14.20805550  115.35399628    0.75000000    2.75000000
   14.21138859  101.28500366    0.75000000    2.75000000
   14.21444416  117.69300079    0.75000000    2.75000000
   14.22055531  117.69300079    0.75000000    2.76999998
   14.22472191  125.20999908    0.75000000    2.76999998
   14.22777748  114.87599945    0.75000000    2.75000000
   14.23111057  108.00199890    0.73000002    2.76999998
   14.23361111  116.36499786    0.73000002    2.75000000
   14.23472214  127.37300110    0.73000002    2.75000000
   14.23805618  111.40599823    0.73000002    2.75000000
   14.24111176  114.06500244    0.73000002    2.75000000
   14.24444485  117.20300293    0.73000002    2.75000000
   14.24750042  111.19400024    0.73000002    2.76999998
   14.25083351  120.30400085    0.73000002    2.75000000
   14.25416660  114.65499878    0.73000002    2.75000000
   14.25722218  126.26100159    0.73000002    2.75000000
   14.26333332  126.26100159    0.73000002    2.75000000
   14.26749992  121.50299835    0.73000002    2.75000000
   14.27055550  112.71099854    0.73000002    2.76999998
   14.27388859  120.18099976    0.73000002    2.75000000
   14.27722168  112.76799774    0.70999998    2.76999998
   14.28027725  117.07299805    0.70999998    2.76999998
   14.28361130  123.61000061    0.70999998    2.75000000
   14.28694534  123.75099945    0.70999998    2.76999998
   14.29000092  111.48500061    0.70999998    2.76999998
   14.29333401  107.74800110    0.70999998    2.76999998
   14.29638958  109.62899780    0.70999998    2.76999998
   14.29972267  117.47499847    0.70999998    2.76999998
   14.30027771  115.97200012    0.70999998    2.75000000
   14.30611134  115.97200012    0.70999998    2.75000000
   14.31027794  120.50599670    0.70999998    2.76999998
   14.31361103  122.28700256    0.70999998    2.76999998
   14.31666660  128.64900208    0.70999998    2.76999998
   14.31999969  124.65299988    0.70999998    2.76999998
   14.32333374   88.82749939    0.70999998    2.75000000
   14.32638836  121.60500336    0.70999998    2.76999998
   14.32972240  122.31900024    0.70999998    2.76999998
   14.33277798  112.11499786    0.73000002    2.76999998
   14.33361053  119.83599854    0.73000002    2.76999998
   14.33638859  109.33699799    0.73000002    2.76999998
   14.33972168  114.18900299    0.73000002    2.76999998
   14.34277725  111.43199921    0.73000002    2.75000000
   14.34916592  111.43199921    0.73000002    2.76999998
   14.35305595  105.32499695    0.75000000    2.76999998
   14.35638905  115.44400024    0.75000000    2.78999996
   14.35972214  113.90799713    0.75000000    2.75000000
   14.36277771  119.55500031    0.75000000    2.76999998
   14.36611176  119.01599884    0.75000000    2.78999996
   14.36694431  112.20099640    0.75000000    2.76999998
   14.36972237  119.92299652    0.76999998    2.76999998
   14.37305546  106.85500336    0.76999998    2.76999998
   14.37611103  116.68699646    0.79000002    2.78999996
   14.37944412  103.99800110    0.80000001    2.76999998
   14.38277817  108.34100342    0.80000001    2.76999998
   14.38583279  119.28800201    0.81999999    2.76999998
   14.39194393  119.28800201    0.83999997    2.76999998
   14.39611053  121.90299988    0.83999997    2.76999998
   14.39916611  118.46099854    0.81999999    2.76999998
   14.40055561  124.28700256    0.81999999    2.76999998
   14.40277767  119.18199921    0.81999999    2.75000000
   14.40611076  120.90699768    0.81999999    2.76999998
   14.40916634  102.80599976    0.83999997    2.76999998
   14.41249943  119.02700043    0.83999997    2.76999998
   14.41583252  123.51899719    0.81999999    2.76999998
   14.41888905  117.71199799    0.81999999    2.76999998
   14.42222214  115.91300201    0.79000002    2.76999998
   14.42555618  128.00599670    0.79000002    2.76999998
   14.42861176  119.33699799    0.75000000    2.76999998
   14.43472195  119.33699799    0.73000002    2.76999998
   14.43888855  127.86199951    0.73000002    2.78999996
   14.44194412  123.55799866    0.73000002    2.76999998
   14.44527817  123.11699677    0.73000002    2.76999998
   14.44861126  129.25500488    0.73000002    2.76999998
   14.45166683  117.57700348    0.73000002    2.75000000
   14.45499992  115.52899933    0.73000002    2.76999998
   14.45833302  119.71900177    0.73000002    2.76999998
   14.46138859  117.05899811    0.70999998    2.76999998
   14.46472168  117.15399933    0.70999998    2.76999998
   14.46694374  116.20400238    0.73000002    2.76999998
   14.46833324  123.65299988    0.73000002    2.76999998
   14.47166634  124.51999664    0.73000002    2.76999998
   14.47749996  124.51999664    0.73000002    2.78999996
   14.48166656  118.22499847    0.73000002    2.78999996
   14.48500061  122.64800262    0.75000000    2.76999998
   14.48805618  117.60900116    0.75000000    2.78999996
   14.49138927  115.00199890    0.75000000    2.78999996
   14.49472237  117.90399933    0.75000000    2.78999996
   14.49777794  118.65699768    0.76999998    2.78999996
   14.50027752  121.09700012    0.76999998    2.78999996
   14.50138855  122.09799957    0.76999998    2.75000000
   14.50472260  115.12999725    0.79000002    2.78999996
   14.50777817  119.88500214    0.76999998    2.76999998
   14.51111126  116.01599884    0.79000002    2.76999998
   14.51444435  124.15499878    0.79000002    2.76999998
   14.52055550  124.15499878    0.81999999    2.78999996
   14.52444458  120.77600098    0.83999997    2.76999998
   14.52777767  111.60299683    0.83999997    2.78999996
   14.53111076  107.36000061    0.83999997    2.78999996
   14.53361130  112.13300323    0.83999997    2.78999996
   14.53472233  104.67099762    0.83999997    2.78999996
   14.53805637  108.14399719    0.86000001    2.78999996
   14.54111195  122.90699768    0.86000001    2.76999998
   14.54444504  117.30100250    0.86000001    2.76999998
   14.54777813  118.27100372    0.83999997    2.76999998
   14.55083370  118.94300079    0.81999999    2.78999996
   14.55416679  121.46499634    0.81999999    2.78999996
   14.55722237  112.16000366    0.79000002    2.78999996
   14.56333351  112.16000366    0.79000002    2.78999996
   14.56750011  116.88700104    0.80000001    2.78999996
   14.57055569  116.34400177    0.79000002    2.78999996
   14.57388878  116.82599640    0.80000001    2.78999996
   14.57694435  122.77500153    0.81999999    2.76999998
   14.58027744  128.67399597    0.81999999    2.76999998
   14.58361053  124.52700043    0.79000002    2.78999996
   14.58666611  122.84500122    0.79000002    2.76999998
   14.59000015  128.95399475    0.79000002    2.78999996
   14.59333324  122.51000214    0.79000002    2.78999996
   14.59638882  123.91500092    0.79000002    2.78999996
   14.59972191  121.04499817    0.76999998    2.76999998
   14.60027790  114.53800201    0.79000002    2.78999996
   14.60611153  114.53800201    0.79000002    2.78999996
   14.61027813  112.44999695    0.76999998    2.78999996
   14.61333370  108.71399689    0.79000002    2.78999996
   14.61666679  114.59200287    0.79000002    2.78999996
   14.61999989  120.88500214    0.79000002    2.78999996
   14.62305546  113.09100342    0.79000002    2.78999996
   14.62638855  107.68299866    0.80000001    2.78999996
   14.62972260  112.87400055    0.80000001    2.78999996
   14.63277817  118.42500305    0.76999998    2.78999996
   14.63361073  108.41799927    0.76999998    2.78999996
   14.63638878  114.64499664    0.75000000    2.78999996
   14.63972187  107.46499634    0.75000000    2.76999998
   14.64277744  120.20800018    0.73000002    2.78999996
   14.64888859  120.20800018    0.73000002    2.78999996
   14.65305519  113.18399811    0.79000002    2.78999996
   14.65638828  114.73400116    0.80000001    2.78999996
   14.65944386  123.56199646    0.80000001    2.78999996
   14.66277695  119.86900330    0.80000001    2.76999998
   14.66611099  117.11000061    0.80000001    2.76999998
   14.66722298  111.55500031    0.80000001    2.78999996
   14.66944504  108.31600189    0.81999999    2.78999996
   14.67277813  113.41799927    0.80000001    2.78999996
   14.67583370  119.03299713    0.79000002    2.80999994
   14.67916679  123.53700256    0.79000002    2.78999996
   14.68249989  116.13099670    0.76999998    2.78999996
   14.68555546  117.79199982    0.75000000    2.76999998
   14.69166660  117.79199982    0.75000000    2.78999996
   14.69583321  116.46099854    0.76999998    2.78999996
   14.69916630  118.25599670    0.76999998    2.78999996
   14.70055580  116.53700256    0.76999998    2.78999996
   14.70277786  117.51699829    0.75000000    2.78999996
   14.70611095  117.93099976    0.75000000    2.80999994
   14.70916653  115.08799744    0.75000000    2.78999996
   14.71249962  111.50000000    0.75000000    2.78999996
   14.71583271  108.54299927    0.75000000    2.78999996
   14.71888828  105.09200287    0.75000000    2.78999996
   14.72222137  108.41799927    0.73000002    2.78999996
   14.72555542  112.83799744    0.75000000    2.78999996
   14.72861099  105.15200043    0.73000002    2.78999996
   14.73472214  105.15200043    0.73000002    2.78999996
   14.73888874  115.48899841    0.75000000    2.78999996
   14.74194431  113.77400208    0.75000000    2.78999996
   14.74527836  114.47699738    0.75000000    2.78999996
   14.74833393  106.36599731    0.76999998    2.78999996
   14.75166702  115.60800171    0.75000000    2.78999996
   14.75500011  112.71199799    0.75000000    2.78999996
   14.75805569  117.23000336    0.73000002    2.78999996
   14.76138878  106.85399628    0.73000002    2.80999994
   14.76472187  123.11199951    0.73000002    2.76999998
   14.76722240  119.69999695    0.73000002    2.78999996
   14.76805496  109.07599640    0.73000002    2.78999996
   14.77138901  107.01000214    0.75000000    2.78999996
   14.77750015  107.01000214    0.75000000    2.78999996
   14.78166676  117.31300354    0.73000002    2.78999996
   14.78500080  115.20700073    0.73000002    2.78999996
   14.78805637  117.86399841    0.73000002    2.80999994
   14.79138947  131.30999756    0.73000002    2.78999996
   14.79444504  116.15100098    0.73000002    2.78999996
   14.79777813  105.37999725    0.73000002    2.78999996
   14.80055618  102.15899658    0.73000002    2.78999996
   14.80138874  109.68900299    0.73000002    2.78999996
   14.80472279  102.98799896    0.73000002    2.78999996
   14.80777836  112.20700073    0.73000002    2.78999996
   14.81111145  114.81099701    0.70999998    2.78999996
   14.81444454  113.74900055    0.70999998    2.78999996
   14.82027817  113.74900055    0.70999998    2.78999996
   14.82444477  116.77400208    0.70999998    2.78999996
   14.82777786  102.76100159    0.69000000    2.78999996
   14.83083344  117.40799713    0.70999998    2.78999996
   14.83388901  110.69899750    0.69000000    2.80999994
   14.83444405  114.12100220    0.70999998    2.78999996
   14.83777714  115.80400085    0.70999998    2.78999996
   14.84083271  109.40599823    0.70999998    2.78999996
   14.84416676  113.29299927    0.70999998    2.80999994
   14.84749985  120.60500336    0.70999998    2.80999994
   14.85055637  111.34500122    0.70999998    2.80999994
   14.85388947  112.05400085    0.70999998    2.78999996
   14.85722256  121.83499908    0.70999998    2.78999996
   14.86305618  121.83499908    0.70999998    2.78999996
   14.86722279  112.49500275    0.70999998    2.80999994
   14.87055588  117.01599884    0.69000000    2.78999996
   14.87388897  116.14099884    0.69000000    2.78999996
   14.87694454  117.58799744    0.69000000    2.78999996
   14.88027763  121.00299835    0.69000000    2.80999994
   14.88333321  109.35700226    0.69000000    2.80999994
   14.88666630  117.25800323    0.69000000    2.78999996
   14.89000034  121.63999939    0.69000000    2.80999994
   14.89305496  114.49299622    0.69000000    2.80999994
   14.89638901  111.57199860    0.69000000    2.78999996
   14.89972210  105.41899872    0.69000000    2.78999996
   14.90055561  116.36199951    0.69000000    2.78999996
   14.92111111  116.36199951    0.69000000    2.80999994
   14.92527771  105.87400055    0.67000002    2.80999994
   14.92861176  111.01999664    0.67000002    2.80999994
   14.93166733  114.47499847    0.69000000    2.78999996
   14.93388939  119.79900360    0.69000000    2.80999994
   14.93527794  114.11599731    0.69000000    2.80999994
   14.93861103  121.75900269    0.69000000    2.78999996
   14.94194412  112.47200012    0.69000000    2.78999996
   14.94499969  112.70099640    0.69000000    2.80999994
   14.94833374  114.65399933    0.69000000    2.80999994
   14.95138836  114.08399963    0.69000000    2.80999994
   14.95472240  119.74500275    0.69000000    2.80999994
   14.95805550  122.30699921    0.69000000    2.80999994
   14.96388912  122.30699921    0.69000000    2.78999996
   14.96805477  104.08699799    0.67000002    2.78999996
   14.97138882  108.94200134    0.67000002    2.80999994
   14.97444439  114.92800140    0.69000000    2.80999994
   14.97777748  105.22899628    0.67000002    2.80999994
   14.98083305  108.17099762    0.67000002    2.80999994
   14.98416710  103.89800262    0.67000002    2.80999994
   14.98750019  108.99099731    0.69000000    2.78999996
   14.99055576  106.70899963    0.69000000    2.78999996
   14.99388885  113.08499908    0.69000000    2.80999994
   14.99722290  111.50900269    0.69000000    2.80999994
   15.00027752  108.44799805    0.69000000    2.78999996
   15.00083351  111.05000305    0.69000000    2.78999996
   15.00666714  111.05000305    0.69000000    2.80999994
   15.01083374  115.21299744    0.69000000    2.80999994
   15.01416683  109.55200195    0.64999998    2.80999994
   15.01722240  105.49900055    0.64999998    2.80999994
   15.02055550  112.32700348    0.67000002    2.80999994
   15.02388859  105.83300018    0.67000002    2.80999994
   15.02694416  120.77500153    0.67000002    2.78999996
   15.03027725  112.36699677    0.64999998    2.80999994
   15.03361130  122.64700317    0.67000002    2.80999994
   15.03416729  123.26699829    0.67000002    2.80999994
   15.03722286  123.06900024    0.67000002    2.78999996
   15.04027843  111.19599915    0.67000002    2.78999996
   15.04361153  112.15200043    0.67000002    2.80999994
   15.04972267  112.15200043    0.70999998    2.82999992
   15.05361176  118.16400146    0.70999998    2.80999994
   15.05694485  114.42800140    0.70999998    2.78999996
   15.06027794  112.93199921    0.69000000    2.80999994
   15.06333351  102.12500000    0.69000000    2.80999994
   15.06666660  110.50700378    0.67000002    2.80999994
   15.06750011  110.44300079    0.69000000    2.80999994
   15.07027817  114.68699646    0.69000000    2.82999992
   15.07361126  108.10399628    0.67000002    2.80999994
   15.07666683  112.82900238    0.67000002    2.82999992
   15.07999992  115.03399658    0.67000002    2.82999992
   15.08305550  111.54000092    0.67000002    2.80999994
   15.08638859  111.85900116    0.67000002    2.80999994
   15.09249973  111.85900116    0.69000000    2.80999994
   15.09666634  118.47399902    0.69000000    2.80999994
   15.09972191  121.46499634    0.69000000    2.82999992
   15.10083389  117.86599731    0.69000000    2.80999994
   15.10361195  111.34100342    0.70999998    2.80999994
   15.10666752  125.77100372    0.70999998    2.80999994
   15.11000061  115.12999725    0.70999998    2.80999994
   15.11333370  119.33200073    0.70999998    2.80999994
   15.11638927  116.88600159    0.70999998    2.80999994
   15.11972237  113.33499908    0.70999998    2.80999994
   15.12305546  117.76999664    0.70999998    2.78999996
   15.12611103  122.51399994    0.70999998    2.82999992
   15.12944412  111.22899628    0.70999998    2.82999992
   15.13527775  111.22899628    0.73000002    2.80999994
   15.13944435  125.19599915    0.73000002    2.80999994
   15.14277744  119.64099884    0.75000000    2.80999994
   15.14583302  110.81500244    0.73000002    2.82999992
   15.14916611  118.05300140    0.73000002    2.80999994
   15.15222168  118.20899963    0.73000002    2.80999994
   15.15555477  118.81800079    0.73000002    2.80999994
   15.15888882  113.33000183    0.73000002    2.82999992
   15.16194439  106.45899963    0.70999998    2.80999994
   15.16527748  107.09500122    0.70999998    2.82999992
   15.16750050  113.79399872    0.70999998    2.80999994
   15.16888905  120.71700287    0.70999998    2.80999994
   15.17194462  107.51300049    0.70999998    2.82999992
   15.17805576  107.51300049    0.69000000    2.80999994
   15.18222237  109.91100311    0.67000002    2.80999994
   15.18555546  112.73600006    0.67000002    2.80999994
   15.18861103   97.90920258    0.69000000    2.82999992
   15.19194412  105.60099792    0.69000000    2.80999994
   15.19527817  113.83200073    0.69000000    2.82999992
   15.19833374  110.72799683    0.69000000    2.80999994
   15.20083332  114.57299805    0.69000000    2.82999992
   15.20222187  112.00399780    0.69000000    2.82999992
   15.20527744  113.82299805    0.69000000    2.80999994
   15.20861053  110.09500122    0.69000000    2.80999994
   15.21194458  104.73899841    0.69000000    2.82999992
   15.21500015  107.26799774    0.69000000    2.82999992
   15.22111034  107.26799774    0.70999998    2.80999994
   15.22499943  107.44400024    0.70999998    2.82999992
   15.22833252  103.70999908    0.73000002    2.80999994
   15.23166656  100.92900085    0.73000002    2.82999992
   15.23416710  114.73899841    0.70999998    2.82999992
   15.23527813  116.75199890    0.70999998    2.82999992
   15.23833370  102.89199829    0.70999998    2.80999994
   15.24166679  114.95999908    0.73000002    2.80999994
   15.24499989  107.06500244    0.73000002    2.80999994
   15.24805546  101.39399719    0.75000000    2.82999992
   15.25138855  108.23699951    0.75000000    2.82999992
   15.25472260  108.48899841    0.75000000    2.82999992
   15.25777817  107.08799744    0.75000000    2.80999994
   15.26388931  107.08799744    0.75000000    2.82999992
   15.26805496  111.24099731    0.70999998    2.80999994
   15.27111053  114.29399872    0.70999998    2.82999992
   15.27444458  114.41600037    0.69000000    2.82999992
   15.27777767  112.14900208    0.69000000    2.80999994
   15.28083324  109.15499878    0.69000000    2.82999992
   15.28416729  113.01499939    0.69000000    2.82999992
   15.28722286  106.86299896    0.69000000    2.82999992
   15.29055595  115.04199982    0.70999998    2.82999992
   15.29388905  107.95400238    0.70999998    2.82999992
   15.29694462  106.45800018    0.70999998    2.82999992
   15.30027771  112.96499634    0.70999998    2.82999992
   15.30083370  111.49500275    0.70999998    2.82999992
   15.30666733  111.49500275    0.70999998    2.82999992
   15.31083393  108.32800293    0.70999998    2.82999992
   15.31416702  100.99299622    0.70999998    2.82999992
   15.31722260  112.33000183    0.70999998    2.82999992
   15.32055569  104.37799835    0.70999998    2.80999994
   15.32361126  103.11399841    0.69000000    2.80999994
   15.32694435  106.61699677    0.69000000    2.80999994
   15.33027744  116.82800293    0.69000000    2.82999992
   15.33333302  109.08100128    0.67000002    2.82999992
   15.33416653  111.20999908    0.67000002    2.82999992
   15.33694458  110.07499695    0.67000002    2.82999992
   15.34027767  114.72899628    0.67000002    2.82999992
   15.34333324  111.00000000    0.67000002    2.82999992
   15.34944439  111.00000000    0.69000000    2.82999992
   15.35361195  114.41200256    0.69000000    2.80999994
   15.35694504  116.54100037    0.69000000    2.82999992
   15.36000061  113.85900116    0.69000000    2.82999992
   15.36333370  113.89499664    0.69000000    2.82999992
   15.36666679  106.38999939    0.69000000    2.82999992
   15.36750031  114.49299622    0.69000000    2.82999992
   15.37027836  112.02500153    0.70999998    2.82999992
   15.37361145  108.46099854    0.70999998    2.82999992
   15.37666702  101.82199860    0.73000002    2.84999990
   15.38000011  113.75399780    0.73000002    2.82999992
   15.38305569  108.66100311    0.73000002    2.82999992
   15.38638878  114.70500183    0.73000002    2.82999992
   15.39249992  114.70500183    0.75000000    2.82999992
   15.39638901  107.21199799    0.75000000    2.82999992
   15.39972210  114.74400330    0.75000000    2.82999992
   15.40083313  112.03800201    0.73000002    2.82999992
   15.40333271  115.77400208    0.70999998    2.84999990
   15.40666676  112.55799866    0.70999998    2.82999992
   15.40972137  111.96099854    0.70999998    2.82999992
   15.41305542  116.76000214    0.70999998    2.82999992
   15.41611099  118.00099945    0.70999998    2.82999992
   15.41944504  122.01100159    0.69000000    2.82999992
   15.42277813  113.81900024    0.69000000    2.80999994
   15.42611122  107.22000122    0.69000000    2.82999992
   15.42916679  113.31999969    0.69000000    2.84999990
   15.43527794  113.31999969    0.69000000    2.82999992
   15.43944454  109.78399658    0.69000000    2.82999992
   15.44250011  114.25599670    0.69000000    2.82999992
   15.44583321  118.27100372    0.67000002    2.82999992
   15.44916630  111.57900238    0.67000002    2.82999992
   15.45222187  109.03099823    0.64999998    2.82999992
   15.45555496  122.32199860    0.64999998    2.80999994
   15.45861053  111.58999634    0.64999998    2.82999992
   15.46194458  108.67199707    0.64999998    2.82999992
   15.46527767  111.24700165    0.67000002    2.82999992
   15.46749973  107.95700073    0.67000002    2.82999992
   15.46888828  110.11799622    0.67000002    2.82999992
   15.47222137  117.58699799    0.64999998    2.82999992
   15.47805500  117.58699799    0.67000002    2.82999992
   15.48222160  118.21499634    0.64999998    2.82999992
   15.48555565  112.33699799    0.63000000    2.82999992
   15.48861122  123.33300018    0.63000000    2.82999992
   15.49194431  113.65599823    0.63000000    2.82999992
   15.49499989  116.88300323    0.63000000    2.84999990
   15.49833393  115.89399719    0.63000000    2.82999992
   15.50083351  117.87400055    0.63000000    2.80999994
   15.50194454  114.45300293    0.63000000    2.82999992
   15.50527763  113.23799896    0.63000000    2.82999992
   15.50833321  124.93599701    0.61000001    2.80999994
   15.51166630  115.10600281    0.61000001    2.82999992
   15.51472187  108.68599701    0.61000001    2.82999992
   15.52083302  108.68599701    0.61000001    2.82999992
   15.52499962  112.87899780    0.61000001    2.82999992
   15.52833271  107.65499878    0.61000001    2.82999992
   15.53138828  119.33000183    0.63000000    2.82999992
   15.53416729  108.80400085    0.63000000    2.82999992
   15.53527832  124.59999847    0.63000000    2.82999992
   15.53861141  119.87599945    0.63000000    2.82999992
   15.54166698  115.41300201    0.63000000    2.82999992
   15.54500008  110.71700287    0.63000000    2.82999992
   15.54805565   92.27870178    0.64999998    2.82999992
   15.55138874  115.38600159    0.64999998    2.82999992
   15.55472279  113.99199677    0.64999998    2.82999992
   15.55777836  106.74299622    0.64999998    2.82999992
   15.56361103  106.74299622    0.67000002    2.82999992
   15.56777763  114.51599884    0.64999998    2.82999992
   15.57111073  120.18699646    0.63000000    2.82999992
   15.57416630  116.36100006    0.63000000    2.82999992
   15.57750034  120.35600281    0.63000000    2.80999994
   15.58083344  116.18699646    0.61000001    2.82999992
   15.58388901  113.04499817    0.63000000    2.82999992
   15.58722210  116.45899963    0.63000000    2.84999990
   15.59055519  110.91999817    0.63000000    2.82999992
   15.59361076  110.38400269    0.63000000    2.82999992
   15.59694386  113.33000183    0.63000000    2.82999992
   15.60027790  115.38500214    0.64999998    2.82999992
   15.60083389  112.59799957    0.64999998    2.82999992
   15.60666752  112.59799957    0.67000002    2.82999992
   15.61055565  110.09100342    0.67000002    2.82999992
   15.61388969  113.27200317    0.67000002    2.82999992
   15.61722279  110.48500061    0.67000002    2.82999992
   15.62027836  110.39499664    0.67000002    2.82999992
   15.62361145  107.29699707    0.67000002    2.82999992
   15.62694454  105.09799957    0.67000002    2.82999992
   15.63000011  107.94499969    0.64999998    2.82999992
   15.63333321  108.66600037    0.64999998    2.82999992
   15.63416672  108.51999664    0.64999998    2.82999992
   15.63694477  105.47699738    0.64999998    2.82999992
   15.64027786  113.90899658    0.63000000    2.82999992
   15.64333344  104.78199768    0.64999998    2.82999992
   15.64944458  104.78199768    0.63000000    2.82999992
   15.65361118  113.37999725    0.63000000    2.82999992
   15.65666676  112.08100128    0.61000001    2.82999992
   15.65999985  115.74600220    0.61000001    2.82999992
   15.66333294  107.85500336    0.61000001    2.82999992
   15.66638851  111.51999664    0.61000001    2.82999992
   15.66750050  112.37500000    0.61000001    2.82999992
   15.67000008  114.30599976    0.61000001    2.84999990
   15.67333412  112.98500061    0.61000001    2.82999992
   15.67638874  110.00499725    0.69000000    2.84999990
   15.67972279  108.55599976    0.67000002    2.82999992
   15.68277836  112.04699707    0.64999998    2.82999992
   15.68611145  113.08999634    0.63000000    2.82999992
   15.69222260  113.08999634    0.61000001    2.82999992
   15.69638920  115.06199646    0.63000000    2.82999992
   15.69972229   98.79350281    0.63000000    2.82999992
   15.70083332  113.83300018    0.76999998    2.82999992
   15.70333290  115.59100342    0.80000001    2.82999992
   15.70666695   99.87220001    0.86000001    2.82999992
   15.70972157  112.61000061    0.75000000    2.82999992
   15.71305561  109.37200165    0.70999998    2.82999992
   15.71638870  110.59799957    0.69000000    2.82999992
   15.71944427  115.70899963    0.69000000    2.82999992
   15.72277737   96.52839661    0.67000002    2.82999992
   15.72583294  101.42800140    0.67000002    2.84999990
   15.72916603  103.83000183    0.67000002    2.84999990
   15.73500061  103.83000183    0.69000000    2.82999992
   15.73916721  103.43599701    0.69000000    2.80999994
   15.74250031  112.30599976    0.70999998    2.82999992
   15.74583340  110.07399750    0.73000002    2.82999992
   15.74888897  115.63999939    0.69000000    2.82999992
   15.75222206  112.47100067    0.69000000    2.82999992
   15.75527763  109.68299866    0.64999998    2.84999990
   15.75861073  104.63600159    0.64999998    2.82999992
   15.76194477  119.88200378    0.64999998    2.82999992
   15.76500034  112.95800018    0.67000002    2.82999992
   15.76749992  117.63700104    0.67000002    2.82999992
   15.76861095  115.89399719    0.67000002    2.82999992
   15.77194405  117.00099945    0.70999998    2.82999992
   15.77805519  117.00099945    0.70999998    2.84999990
   15.78222179  116.63600159    0.73000002    2.82999992
   15.78527832  121.76599884    0.73000002    2.82999992
   15.78861141  110.12100220    0.73000002    2.82999992
   15.79166698  111.32900238    0.70999998    2.82999992
   15.79500008  115.34700012    0.70999998    2.82999992
   15.79833412  114.82499695    0.69000000    2.82999992
   15.80083370  106.42099762    0.69000000    2.82999992
   15.80194473  112.25499725    0.69000000    2.82999992
   15.80527782  117.22399902    0.67000002    2.82999992
   15.80833340  112.85900116    0.64999998    2.82999992
   15.81166649  115.17900085    0.63000000    2.82999992
   15.81500053  116.12100220    0.63000000    2.82999992
   15.82083321  116.12100220    0.64999998    2.82999992
   15.82499981  112.76399994    0.64999998    2.80999994
   15.82805538  116.41999817    0.63000000    2.82999992
   15.83138847  115.18000031    0.63000000    2.82999992
   15.83416653  117.04299927    0.63000000    2.82999992
   15.83500004  111.17900085    0.63000000    2.82999992
   15.83833313  113.32499695    0.63000000    2.82999992
   15.84138870  101.55500031    0.63000000    2.82999992
   15.84472179  108.00299835    0.61000001    2.82999992
   15.84805489  113.03700256    0.61000001    2.82999992
   15.85111141  109.25000000    0.61000001    2.82999992
   15.85444450  116.70899963    0.61000001    2.82999992
   15.85750008  113.75299835    0.58999997    2.82999992
   15.86361122  113.75299835    0.61000001    2.82999992
   15.86777782  107.79499817    0.61000001    2.82999992
   15.87111092  114.06099701    0.61000001    2.82999992
   15.87416649  108.80000305    0.63000000    2.82999992
   15.87750053  112.50700378    0.63000000    2.82999992
   15.88055611  109.56900024    0.63000000    2.82999992
   15.88388920  105.37899780    0.63000000    2.82999992
   15.88722229  106.42500305    0.63000000    2.80999994
   15.89055538  108.98500061    0.63000000    2.82999992
   15.89361095  105.80799866    0.63000000    2.84999990
   15.89694405  105.18000031    0.63000000    2.82999992
   15.89999962  112.43199921    0.64999998    2.82999992
   15.90111065  108.73100281    0.64999998    2.82999992
   15.90638828  108.73100281    0.64999998    2.82999992
   15.91055489  104.35399628    0.67000002    2.82999992
   15.91388893  114.64800262    0.67000002    2.82999992
   15.91694450  106.41999817    0.67000002    2.84999990
   15.93472195  112.42400360    0.67000002    2.82999992
   15.93722248   99.26110077    0.67000002    2.82999992
   15.94027805  109.52999878    0.67000002    2.82999992
   15.94361115  101.67700195    0.69000000    2.82999992
   15.94944477  101.67700195    0.69000000    2.82999992
   15.95361137  102.86399841    0.69000000    2.82999992
   15.95694447  105.74500275    0.69000000    2.82999992
   15.96000004  106.29299927    0.69000000    2.82999992
   15.96333313  106.68800354    0.69000000    2.82999992
   15.96666622  108.07800293    0.70999998    2.82999992
   15.96805477  112.55999756    0.70999998    2.82999992
   15.97027779  108.73400116    0.70999998    2.82999992
   15.97361088  110.65899658    0.70999998    2.82999992
   15.97666645  116.82499695    0.73000002    2.82999992
   15.97999954  108.95600128    0.70999998    2.82999992
   15.98333359  119.10299683    0.70999998    2.82999992
   15.98638916  117.31700134    0.70999998    2.82999992
   15.99250031  117.31700134    0.70999998    2.82999992
   15.99638939  115.74600220    0.69000000    2.84999990
   15.99972248  108.85500336    0.69000000    2.82999992
   16.00138855  112.05599976    0.69000000    2.82999992
   16.00333405  111.90299988    0.69000000    2.82999992
   16.00666618  109.84700012    0.69000000    2.82999992
   16.00972176  111.68299866    0.69000000    2.82999992
   16.01305580  111.79100037    0.69000000    2.82999992
   16.01638794  105.87999725    0.69000000    2.84999990
   16.01944351  114.91999817    0.67000002    2.82999992
   16.02277756  120.76699829    0.69000000    2.82999992
   16.02611160  122.33499908    0.70999998    2.82999992
   16.02916718  116.31099701    0.73000002    2.82999992
   16.03527641  116.31099701    0.81999999    2.80999994
   16.03944397  117.75499725    0.81999999    2.82999992
   16.04249954  116.50299835    0.83999997    2.82999992
   16.04583359  108.06999969    0.80000001    2.82999992
   16.04888916  112.31800079    0.79000002    2.82999992
   16.05222130  114.25399780    0.76999998    2.82999992
   16.05555534  114.59100342    0.70999998    2.82999992
   16.05861092  113.20899963    0.69000000    2.82999992
   16.06194305  116.71099854    0.69000000    2.82999992
   16.06527710  107.74800110    0.69000000    2.82999992
   16.06805611  109.17500305    0.67000002    2.82999992
   16.06861115  113.29000092    0.67000002    2.82999992
   16.07194519  108.08300018    0.67000002    2.82999992
   16.07805634  108.08300018    0.67000002    2.82999992
   16.08222389  118.08999634    0.64999998    2.82999992
   16.08527756  103.77500153    0.63000000    2.82999992
   16.08861160  114.23799896    0.63000000    2.82999992
   16.09194565  112.29900360    0.56999999    2.82999992
   16.09500122  110.41899872    0.56999999    2.82999992
   16.09833336  108.21399689    0.56999999    2.82999992
   16.10138893  115.43499756    0.56999999    2.82999992
   16.10194397  121.14099884    0.56999999    2.82999992
   16.10527802  112.90799713    0.56999999    2.82999992
   16.10861206  115.69899750    0.58999997    2.82999992
   16.11166763  114.19499969    0.58999997    2.82999992
   16.11499977  125.04499817    0.58999997    2.82999992
   16.12083435  125.04499817    0.58999997    2.82999992
   16.12500000  129.78700256    0.58999997    2.82999992
   16.12833405  120.25800323    0.56999999    2.82999992
   16.13138962  121.97000122    0.58999997    2.82999992
   16.13472176  113.30999756    0.58999997    2.82999992
   16.13500023  113.62500000    0.58999997    2.82999992
   16.13833237  111.37699890    0.58999997    2.82999992
   16.14138794  114.37300110    0.58999997    2.82999992
   16.14472198  112.97899628    0.58999997    2.82999992
   16.14805603  119.74500275    0.58999997    2.82999992
   16.15111160  113.00099945    0.61000001    2.82999992
   16.15444374  111.06900024    0.63000000    2.82999992
   16.15777779  112.33599854    0.63000000    2.82999992
   16.16361046  112.33599854    0.64999998    2.82999992
   16.16805458  125.39399719    0.64999998    2.82999992
   16.16833305  113.27300262    0.64999998    2.82999992
   16.17166519  120.89800262    0.63000000    2.82999992
   16.17472076  111.91200256    0.63000000    2.82999992
   16.17805481  114.61000061    0.63000000    2.82999992
   16.18138885  115.07299805    0.63000000    2.82999992
   16.18444443  111.30999756    0.63000000    2.84999990
   16.18777657  105.75900269    0.63000000    2.82999992
   16.19111061  113.80300140    0.63000000    2.82999992
   16.19416618  103.45099640    0.63000000    2.82999992
   16.19749832  106.61799622    0.63000000    2.82999992
   16.20083427  112.07900238    0.63000000    2.82999992
   16.20138931  114.52400208    0.63000000    2.82999992
   16.20666695  114.52400208    0.63000000    2.82999992
   16.21083450  109.00800323    0.63000000    2.82999992
   16.21389008  113.32599640    0.63000000    2.82999992
   16.21722221  112.57099915    0.63000000    2.82999992
   16.22027779  117.33300018    0.63000000    2.82999992
   16.22361183  110.50900269    0.63000000    2.82999992
   16.22694588  113.66000366    0.63000000    2.82999992
   16.23000145  111.69499969    0.63000000    2.82999992
   16.23333359  109.42700195    0.63000000    2.82999992
   16.23472214  107.58599854    0.63000000    2.82999992
   16.23694420  108.39800262    0.63000000    2.82999992
   16.24027824  109.50099945    0.63000000    2.82999992
   16.24361229  113.33599854    0.63000000    2.82999992
   16.24944496  113.33599854    0.61000001    2.82999992
   16.25361061  112.76100159    0.61000001    2.82999992
   16.25666618  113.48600006    0.63000000    2.82999992
   16.26000023  122.36699677    0.61000001    2.82999992
   16.26333427  112.37799835    0.61000001    2.82999992
   16.26638794  116.09500122    0.63000000    2.82999992
   16.26805496  110.83300018    0.61000001    2.82999992
   16.27000046  116.15599823    0.61000001    2.82999992
   16.27333260  123.37799835    0.61000001    2.82999992
   16.27666664  118.01100159    0.58999997    2.82999992
   16.27972221  120.09700012    0.58999997    2.82999992
   16.28305435  109.08300018    0.58999997    2.82999992
   16.28638840  117.60900116    0.58999997    2.82999992
   16.29222107  117.60900116    0.61000001    2.82999992
   16.29638863  116.64800262    0.61000001    2.82999992
   16.29972076  116.58000183    0.61000001    2.82999992
   16.30138779  112.43900299    0.61000001    2.82999992
   16.30305481  110.90499878    0.61000001    2.82999992
   16.30638885  116.24199677    0.61000001    2.82999992
   16.30972099  120.19000244    0.61000001    2.82999992
   16.31277657  113.59999847    0.61000001    2.82999992
   16.31611061  112.81700134    0.58999997    2.82999992
   16.31916809  111.32099915    0.61000001    2.82999992
   16.32250023  105.67800140    0.61000001    2.82999992
   16.32583427  108.70800018    0.58999997    2.82999992
   16.32888985  112.57599640    0.58999997    2.82999992
   16.33527756  112.57599640    0.58999997    2.82999992
   16.33916664  113.58899689    0.58999997    2.82999992
   16.34250069  119.86499786    0.58999997    2.82999992
   16.34583473  111.28299713    0.61000001    2.82999992
   16.34889030  114.83000183    0.61000001    2.82999992
   16.35222244  111.88300323    0.61000001    2.82999992
   16.35555649  110.42099762    0.61000001    2.82999992
   16.35861206  114.31099701    0.61000001    2.84999990
   16.36194420  113.71800232    0.61000001    2.82999992
   16.36499977  116.61799622    0.61000001    2.82999992
   16.36805534  115.38899994    0.61000001    2.82999992
   16.36861038  115.30500031    0.61000001    2.82999992
   16.37194443  107.57099915    0.58999997    2.82999992
   16.37805557  107.57099915    0.61000001    2.82999992
   16.38222313  110.50199890    0.58999997    2.82999992
   16.38527679  113.04000092    0.58999997    2.82999992
   16.38861084  117.27799988    0.58999997    2.82999992
   16.39166641  111.42800140    0.58999997    2.82999992
   16.39500046  119.77100372    0.61000001    2.82999992
   16.39833260  110.81199646    0.61000001    2.82999992
   16.40138817  116.67299652    0.63000000    2.82999992
   16.40166664  118.67400360    0.63000000    2.82999992
   16.40499878  125.87999725    0.61000001    2.82999992
   16.40833282  118.37599945    0.63000000    2.82999992
   16.41138840  121.86000061    0.63000000    2.82999992
   16.41472244  102.65299988    0.64999998    2.82999992
   16.42083359  102.65299988    0.69000000    2.82999992
   16.42499924  116.89499664    0.69000000    2.82999992
   16.42805481  117.58399963    0.69000000    2.82999992
   16.43138885  124.30500031    0.69000000    2.82999992
   16.43472099  119.61399841    0.69000000    2.82999992
   16.43499947  118.22399902    0.69000000    2.82999992
   16.43833160  123.88800049    0.69000000    2.82999992
   16.44166565  122.45999908    0.69000000    2.80999994
   16.44472122  125.52300262    0.70999998    2.82999992
   16.44805527  113.55699921    0.70999998    2.82999992
   16.45111275  112.14800262    0.70999998    2.82999992
   16.45444489  118.08499908    0.73000002    2.82999992
   16.45777893  123.27100372    0.75000000    2.82999992
   16.46361160  123.27100372    0.80000001    2.82999992
   16.46777916  121.27100372    0.81999999    2.84999990
   16.46833420  115.77400208    0.81999999    2.84999990
   16.47166634  118.45899963    0.83999997    2.82999992
   16.47472191  109.91300201    0.83999997    2.82999992
   16.47805595  113.78500366    0.86000001    2.82999992
   16.48139000  111.94200134    0.86000001    2.84999990
   16.48444557  119.93099976    0.86000001    2.82999992
   16.48777771  114.13700104    0.83999997    2.82999992
   16.49083328  111.36399841    0.83999997    2.82999992
   16.49416733  109.08499908    0.83999997    2.82999992
   16.49749947  112.04399872    0.83999997    2.82999992
   16.50055504  119.23400116    0.83999997    2.82999992
   16.50166702  115.80599976    0.83999997    2.82999992
   16.50666618  115.80599976    0.83999997    2.82999992
   16.51055527  110.99099731    0.86000001    2.82999992
   16.51388931  116.40299988    0.86000001    2.82999992
   16.51722145  117.66999817    0.86000001    2.82999992
   16.52027702  113.81600189    0.88000000    2.84999990
   16.52388954  120.78700256    0.86000001    2.82999992
   16.52694511  113.65899658    0.88000000    2.82999992
   16.53027725  109.17199707    0.89999998    2.82999992
   16.53333282  103.76799774    0.94000000    2.82999992
   16.53499985  106.57800293    0.94000000    2.82999992
   16.53722191  112.31700134    0.94000000    2.82999992
   16.54027748  113.54900360    0.94000000    2.82999992
   16.54361153  109.88500214    0.94000000    2.82999992
   16.54944420  109.88500214    0.94000000    2.82999992
   16.55360985  108.24500275    0.94000000    2.82999992
   16.55666542  109.24800110    0.94000000    2.82999992
   16.55999947  110.45099640    0.94000000    2.82999992
   16.56305504  104.13700104    0.94000000    2.82999992
   16.56638718  113.89099884    0.94000000    2.84999990
   16.56833458  115.06199646    0.94000000    2.82999992
   16.57000160  111.75199890    0.94000000    2.82999992
   16.57305717  105.38200378    0.98000002    2.82999992
   16.57638931  113.41000366    1.00000000    2.82999992
   16.57972336  113.45899963    1.00000000    2.82999992
   16.58277893  113.42299652    1.00000000    2.82999992
   16.58611107  112.55400085    1.03999996    2.82999992
   16.59222221  112.55400085    1.05999994    2.82999992
   16.59638977  106.22799683    1.09000003    2.82999992
   16.59972191  109.17199707    1.09000003    2.82999992
   16.60166740  115.96399689    1.09000003    2.82999992
   16.60333443  113.90599823    1.09000003    2.82999992
   16.60666656  114.91100311    1.11000001    2.82999992
   16.60972214  114.54499817    1.09000003    2.82999992
   16.61305618  107.09100342    1.07000005    2.82999992
   16.61611176  103.35099792    1.05999994    2.82999992
   16.61944389  114.53399658    1.03999996    2.82999992
   16.62277794  104.38500214    1.03999996    2.82999992
   16.62583351  117.00700378    1.01999998    2.82999992
   16.62916756  108.62699890    1.00000000    2.84999990
   16.63500023  108.62699890    0.95999998    2.82999992
   16.63916588  107.14700317    0.92000002    2.82999992
   16.64249992  106.49600220    0.92000002    2.84999990
   16.64555550  117.75099945    0.92000002    2.82999992
   16.64888954  105.96499634    0.94000000    2.84999990
   16.65222168  102.50199890    0.92000002    2.82999992
   16.65527725  107.71600342    0.92000002    2.82999992
   16.65861130  111.70200348    1.00000000    2.82999992
   16.66166687  101.90599823    0.94000000    2.84999990
   16.66499901  108.77300262    0.94000000    2.82999992
   16.66833305  104.68000031    0.94000000    2.82999992
   16.66888809   98.29000092    0.94000000    2.82999992
   16.67194366  102.46800232    0.94000000    2.82999992
   16.67805481  102.46800232    0.89999998    2.82999992
   16.68194389  103.05300140    0.86000001    2.82999992
   16.68527603   99.76940155    0.83999997    2.82999992
   16.68861008  100.47399902    0.83999997    2.84999990
   16.69166565  105.50900269    0.83999997    2.82999992
   16.69499969  103.42800140    0.86000001    2.84999990
   16.69833183   98.55989838    0.88000000    2.82999992
   16.70138931  109.87999725    0.86000001    2.82999992
   16.70222282  111.71800232    0.86000001    2.82999992
   16.70499992  109.98500061    0.86000001    2.82999992
   16.70833397  109.75099945    0.86000001    2.82999992
   16.71166801  107.28800201    0.88000000    2.82999992
   16.71472359  103.18399811    0.88000000    2.82999992
   16.72083473  103.18399811    0.88000000    2.84999990
   16.72500038  101.44699860    0.89999998    2.82999992
   16.72805595  103.26999664    0.89999998    2.82999992
   16.73139000  105.53800201    0.92000002    2.82999992
   16.73444557  104.61000061    0.92000002    2.82999992
   16.73555565  106.44300079    0.92000002    2.82999992
   16.73805618  101.17400360    0.89999998    2.84999990
   16.74138832  111.03099823    0.89999998    2.82999992
   16.74472237   97.18560028    0.88000000    2.82999992
   16.74805641  106.50399780    0.88000000    2.82999992
   16.75111198  111.21099854    0.83999997    2.82999992
   16.75444412  105.65000153    0.83999997    2.82999992
   16.75777817  106.04299927    0.81999999    2.82999992
   16.76361084  106.04299927    0.80000001    2.82999992
   16.76777840  113.17600250    0.80000001    2.82999992
   16.76888847  101.89099884    0.80000001    2.82999992
   16.77138901  112.42199707    0.80000001    2.84999990
   16.77472115  108.84500122    0.79000002    2.84999990
   16.77805519  108.92500305    0.79000002    2.82999992
   16.78111076  112.83499908    0.79000002    2.82999992
   16.78444481  111.34100342    0.79000002    2.84999990
   16.78750038  103.26799774    0.79000002    2.84999990
   16.79083252  108.43199921    0.79000002    2.82999992
   16.79416656  109.27100372    0.79000002    2.84999990
   16.79722214  110.14800262    0.75000000    2.84999990
   16.80055428  105.07199860    0.75000000    2.84999990
   16.80222130  111.12999725    0.75000000    2.84999990
   16.80638885  111.12999725    0.73000002    2.84999990
   16.81055450  103.64499664    0.73000002    2.84999990
   16.81388855  108.59500122    0.73000002    2.84999990
   16.81694603  109.82800293    0.73000002    2.82999992
   16.82027817  107.66200256    0.73000002    2.84999990
   16.82361221  105.10700226    0.73000002    2.84999990
   16.82666779  101.84899902    0.75000000    2.84999990
   16.83000183  101.80200195    0.75000000    2.82999992
   16.83305550  107.80999756    0.79000002    2.84999990
   16.83555603  100.50000000    0.80000001    2.82999992
   16.83666801  105.75199890    0.80000001    2.82999992
   16.84000015  109.44200134    0.80000001    2.82999992
   16.84333420  106.24199677    0.79000002    2.82999992
   16.84916687  106.24199677    0.80000001    2.82999992
   16.85333443  113.54299927    0.81999999    2.86999989
   16.85666656  107.11199951    0.81999999    2.84999990
   16.86000061  103.03700256    0.81999999    2.84999990
   16.86305618  100.63800049    0.81999999    2.82999992
   16.86638832  108.90000153    0.81999999    2.84999990
   16.86888885  110.94599915    0.83999997    2.84999990
   16.87000084  107.91699982    0.83999997    2.84999990
   16.87333298  109.06099701    0.83999997    2.84999990
   16.87666702  103.87200165    0.83999997    2.86999989
   16.87972260  107.53600311    0.86000001    2.84999990
   16.88305473  109.97899628    0.86000001    2.82999992
   16.88611031  104.32099915    0.86000001    2.82999992
   16.89222145  104.32099915    0.86000001    2.82999992
   16.89638901   98.13819885    0.86000001    2.84999990
   16.89944458  105.93199921    0.83999997    2.82999992
   16.90222168  106.65599823    0.83999997    2.84999990
   16.90305519  108.69100189    0.83999997    2.84999990
   16.90638924  104.88600159    0.83999997    2.84999990
   16.90972137  106.68000031    0.83999997    2.82999992
   16.91277695  101.29699707    0.83999997    2.82999992
   16.91611099  107.43399811    0.83999997    2.84999990
   16.91916656  107.97699738    0.83999997    2.82999992
   16.92249870  101.72399902    0.83999997    2.82999992
   16.92583275   98.68430328    0.83999997    2.84999990
   16.92888832  112.43199921    0.83999997    2.84999990
   16.93499947  112.43199921    0.83999997    2.84999990
   16.95333481  105.38700104    0.86000001    2.84999990
   16.95666695  104.54299927    0.86000001    2.84999990
   16.95972252  103.38200378    0.86000001    2.82999992
   16.96305656  104.60900116    0.83999997    2.84999990
   16.96638870  111.33599854    0.83999997    2.82999992
   16.96944427  106.06700134    0.83999997    2.82999992
   16.97277832  105.21499634    0.83999997    2.82999992
   16.97805595  105.21499634    0.83999997    2.82999992
   16.98222351  110.46800232    0.83999997    2.84999990
   16.98555565  110.71299744    0.83999997    2.84999990
   16.98638916  109.38200378    0.83999997    2.84999990
   16.98916626  117.41500092    0.83999997    2.84999990
   16.99222183  111.46199799    0.83999997    2.84999990
   16.99555588  100.83200073    0.83999997    2.84999990
   16.99888992   88.36720276    0.83999997    2.84999990
   17.00194359  101.19499969    0.83999997    2.86999989
   17.00527763  105.96399689    0.83999997    2.82999992
   17.00861168  105.29699707    0.83999997    2.82999992
   17.01166725  101.40200043    0.83999997    2.84999990
   17.01499939  107.08200073    0.86000001    2.84999990
   17.02083397  107.08200073    0.83999997    2.84999990
   17.02499962   99.44599915    0.83999997    2.84999990
   17.02833366  101.36599731    0.86000001    2.84999990
   17.03166580   99.42649841    0.86000001    2.86999989
   17.03472137   96.72389984    0.83999997    2.84999990
   17.03805542   99.30729675    0.86000001    2.84999990
   17.04138756  100.98799896    0.86000001    2.84999990
   17.04444313  106.89700317    0.86000001    2.84999990
   17.04777718   96.89710236    0.88000000    2.84999990
   17.05111122   89.29660034    0.88000000    2.82999992
   17.05305481  103.07099915    0.88000000    2.82999992
   17.05472183  106.40200043    0.88000000    2.82999992
   17.05777740  106.18399811    0.88000000    2.84999990
   17.06388855  106.18399811    0.88000000    2.82999992
   17.06777954  106.50800323    0.89999998    2.84999990
   17.07111168  105.24800110    0.89999998    2.84999990
   17.07444572  105.73600006    0.89999998    2.84999990
   17.07750130  107.48200226    0.88000000    2.82999992
   17.08083344  101.57700348    0.86000001    2.84999990
   17.08416748  104.14499664    0.86000001    2.84999990
   17.08638954  108.92600250    0.86000001    2.82999992
   17.08777809  106.48600006    0.86000001    2.82999992
   17.09111214  104.91300201    0.86000001    2.84999990
   17.09416771  109.05100250    0.86000001    2.82999992
   17.09749985  101.32900238    0.86000001    2.84999990
   17.10055542  110.61900330    0.88000000    2.84999990
   17.10666656  110.61900330    0.89999998    2.84999990
   17.11083412  107.28900146    0.95999998    2.82999992
   17.11388969  102.14199829    0.95999998    2.84999990
   17.11722183  107.52600098    1.00000000    2.82999992
   17.11972237  100.05200195    0.95999998    2.82999992
   17.12083435  112.26499939    0.94000000    2.84999990
   17.12416649  111.85500336    1.00000000    2.84999990
   17.12722206  104.56300354    1.03999996    2.84999990
   17.13055611  106.83599854    1.07000005    2.84999990
   17.13361168  107.69599915    1.07000005    2.84999990
   17.13694382  111.37799835    1.07000005    2.84999990
   17.14027786  116.01599884    1.07000005    2.84999990
   17.14333344  108.91100311    0.98000002    2.84999990
   17.14944458  108.91100311    1.00000000    2.84999990
   17.15361023  110.25800323    1.01999998    2.84999990
   17.15694427  107.62500000    1.01999998    2.84999990
   17.15999985  102.67199707    0.98000002    2.84999990
   17.16333389  101.43800354    0.94000000    2.84999990
   17.16638756  100.13200378    0.94000000    2.84999990
   17.16972160  100.93199921    0.94000000    2.86999989
   17.17305565   90.25000000    0.89999998    2.82999992
   17.17611122   99.44640350    0.89999998    2.84999990
   17.17944336  102.13200378    0.89999998    2.82999992
   17.18277740   97.65940094    0.89999998    2.84999990
   17.18583298   96.88680267    0.89999998    2.82999992
   17.18638802  100.52799988    0.89999998    2.84999990
   17.19222069  100.52799988    0.89999998    2.84999990
   17.19638824   93.17980194    0.89999998    2.82999992
   17.19972038  102.39600372    0.89999998    2.86999989
   17.20277786   99.10739899    0.89999998    2.84999990
   17.20611191  100.37899780    0.89999998    2.84999990
   17.20944595   99.49729919    0.89999998    2.84999990
   17.21277809  103.24400330    0.89999998    2.86999989
   17.21583366   99.78089905    0.89999998    2.86999989
   17.21916771  100.82399750    0.89999998    2.82999992
   17.21972275  102.10900116    0.89999998    2.82999992
   17.22277832  101.67700195    0.92000002    2.84999990
   17.22611237  103.16200256    0.92000002    2.84999990
   17.22916794   93.68979645    0.92000002    2.84999990
   17.23527718   93.68979645    0.94000000    2.84999990
   17.23916626   99.15560150    0.92000002    2.84999990
   17.24250031   96.03700256    0.92000002    2.84999990
   17.24583435   99.60269928    0.92000002    2.82999992
   17.24888992   95.99980164    0.89999998    2.84999990
   17.25222206  100.94899750    0.89999998    2.84999990
   17.25305557  104.56600189    0.88000000    2.84999990
   17.25583267   98.76069641    0.88000000    2.84999990
   17.25916672  100.79599762    0.88000000    2.82999992
   17.26222229   99.15209961    0.86000001    2.82999992
   17.26555634  110.25700378    0.86000001    2.84999990
   17.26861000  102.92800140    0.86000001    2.86999989
   17.27194405  106.18000031    0.83999997    2.84999990
   17.27805519  106.18000031    0.81999999    2.84999990
   17.28222275  103.04499817    0.83999997    2.84999990
   17.28527641  102.05100250    0.81999999    2.86999989
   17.28638840   97.39050293    0.81999999    2.86999989
   17.28888893  102.04000092    0.81999999    2.84999990
   17.29222107   96.80680084    0.81999999    2.84999990
   17.29555511   94.47059631    0.81999999    2.84999990
   17.29861069  102.59600067    0.81999999    2.86999989
   17.30194283   95.05709839    0.83999997    2.84999990
   17.30527687   97.77649689    0.81999999    2.84999990
   17.30833244  101.95800018    0.81999999    2.84999990
   17.31166649   96.60099792    0.81999999    2.84999990
   17.31499863  102.35099792    0.81999999    2.82999992
   17.32083511  102.35099792    0.81999999    2.84999990
   17.32500076   98.37169647    0.81999999    2.84999990
   17.32833481   98.95610046    0.81999999    2.84999990
   17.33139038   92.75399780    0.81999999    2.84999990
   17.33472252  107.91300201    0.81999999    2.82999992
   17.33777809  104.50399780    0.83999997    2.84999990
   17.34111214  101.94499969    0.83999997    2.84999990
   17.34444427   99.30410004    0.83999997    2.84999990
   17.34749985  102.07900238    0.83999997    2.84999990
   17.35083389  102.49600220    0.83999997    2.84999990
   17.35305595  104.34100342    0.83999997    2.84999990
   17.35444450  105.15399933    0.83999997    2.84999990
   17.35777855  101.07299805    0.83999997    2.84999990
   17.36361122  101.07299805    0.83999997    2.86999989
   17.36777878   92.02570343    0.81999999    2.84999990
   17.37111092  104.77700043    0.80000001    2.84999990
   17.37444496  104.54399872    0.80000001    2.84999990
   17.37750053   99.27449799    0.80000001    2.84999990
   17.38083267  102.59700012    0.80000001    2.84999990
   17.38388824  106.15599823    0.80000001    2.84999990
   17.38666725  101.11699677    0.80000001    2.84999990
   17.38777733  103.37500000    0.80000001    2.84999990
   17.39111137  101.02400208    0.79000002    2.84999990
   17.39416695   89.51969910    0.79000002    2.84999990
   17.39749908  103.02799988    0.79000002    2.84999990
   17.40083313  104.47100067    0.79000002    2.84999990
   17.40666580  104.47100067    0.79000002    2.84999990
   17.41055489  109.03299713    0.76999998    2.82999992
   17.41388893  106.37599945    0.76999998    2.82999992
   17.41722107  103.79499817    0.76999998    2.84999990
   17.41972160  104.93699646    0.75000000    2.86999989
   17.42083359  107.35900116    0.75000000    2.86999989
   17.42416573  100.92299652    0.75000000    2.84999990
   17.42722130  102.92600250    0.75000000    2.84999990
   17.43055534  103.49900055    0.75000000    2.84999990
   17.43388748  112.79000092    0.75000000    2.86999989
   17.43694305  107.26200104    0.73000002    2.84999990
   17.44027710  104.52799988    0.75000000    2.84999990
   17.44333267  102.29699707    0.75000000    2.86999989
   17.44944382  102.29699707    0.75000000    2.84999990
   17.45361137  100.61900330    0.75000000    2.86999989
   17.45666695  106.79199982    0.75000000    2.84999990
   17.46000099  105.03700256    0.75000000    2.84999990
   17.46333504  102.70099640    0.75000000    2.84999990
   17.46638870   96.85420227    0.75000000    2.84999990
   17.46972275  104.28800201    0.75000000    2.84999990
   17.47305679  109.90100098    0.76999998    2.84999990
   17.47611237  106.57399750    0.75000000    2.84999990
   17.47944450   97.57189941    0.75000000    2.84999990
   17.48250008   98.94229889    0.75000000    2.84999990
   17.48583412   97.89550018    0.76999998    2.84999990
   17.48638916  102.88200378    0.76999998    2.84999990
   17.49222183  102.88200378    0.76999998    2.84999990
   17.49638939  103.04900360    0.76999998    2.84999990
   17.49972153   99.84600067    0.76999998    2.82999992
   17.50277710  103.77100372    0.76999998    2.86999989
   17.50611115  104.02300262    0.76999998    2.84999990
   17.50916672  101.68099976    0.76999998    2.84999990
   17.51250076   98.60169983    0.76999998    2.84999990
   17.51583290  105.80599976    0.75000000    2.84999990
   17.51888847  103.86799622    0.76999998    2.86999989
   17.51972198  103.18099976    0.76999998    2.86999989
   17.52249908   95.72499847    0.76999998    2.86999989
   17.52583313  100.80300140    0.76999998    2.84999990
   17.52888870   99.69409943    0.76999998    2.82999992
   17.53499985   99.69409943    0.76999998    2.84999990
   17.53916550   99.57879639    0.76999998    2.82999992
   17.54249954  106.49099731    0.76999998    2.84999990
   17.54555511  105.90399933    0.76999998    2.84999990
   17.54888916  101.54000092    0.79000002    2.84999990
   17.55222130  103.57800293    0.79000002    2.84999990
   17.55305481  102.69699860    0.79000002    2.84999990
   17.55583191  102.10399628    0.79000002    2.86999989
   17.55916595  100.44400024    0.80000001    2.84999990
   17.56222153  114.17400360    0.80000001    2.84999990
   17.56555557  109.83100128    0.81999999    2.86999989
   17.56888962  107.82499695    0.81999999    2.84999990
   17.57194519   99.28279877    0.83999997    2.84999990
   17.57805634   99.28279877    0.83999997    2.84999990
   17.58194542  100.65399933    0.83999997    2.84999990
   17.58527756   93.13629913    0.83999997    2.84999990
   17.58638954   97.28730011    0.83999997    2.84999990
   17.58889008   98.62960052    0.83999997    2.84999990
   17.59222221   98.86489868    0.81999999    2.86999989
   17.59555626   98.00039673    0.81999999    2.84999990
   17.59889030  104.03600311    0.81999999    2.84999990
   17.60194397   95.06520081    0.81999999    2.84999990
   17.60527802  100.02600098    0.81999999    2.84999990
   17.60833359  102.54499817    0.81999999    2.84999990
   17.61166763  100.10500336    0.80000001    2.84999990
   17.61499977   94.43540192    0.81999999    2.84999990
   17.62083435   94.43540192    0.81999999    2.84999990
   17.62500000  102.66500092    0.81999999    2.84999990
   17.62805557  102.40000153    0.81999999    2.84999990
   17.63138962  101.45999908    0.81999999    2.84999990
   17.63472176  104.48899841    0.81999999    2.84999990
   17.63777733   94.60289764    0.81999999    2.84999990
   17.64111137   95.61450195    0.81999999    2.84999990
   17.64416695   97.77349854    0.81999999    2.82999992
   17.64749908  100.73200226    0.81999999    2.82999992
   17.65083313   93.08580017    0.81999999    2.84999990
   17.65333366   90.68789673    0.81999999    2.86999989
   17.65444374   89.66560364    0.80000001    2.84999990
   17.65777779   91.49430084    0.80000001    2.84999990
   17.66361046   91.49430084    0.80000001    2.84999990
   17.66777802   91.56829834    0.80000001    2.84999990
   17.67111015   95.65290070    0.80000001    2.84999990
   17.67416573   88.62180328    0.80000001    2.86999989
   17.67749977   92.68990326    0.79000002    2.84999990
   17.68055534   95.64189911    0.79000002    2.84999990
   17.68388748   94.98650360    0.79000002    2.84999990
   17.68666649   91.02140045    0.79000002    2.84999990
   17.68750000   89.74770355    0.79000002    2.84999990
   17.69083214   97.19419861    0.79000002    2.84999990
   17.69388771   98.94409943    0.79000002    2.84999990
   17.69722176   87.91500092    0.79000002    2.84999990
   17.70055580   92.64920044    0.79000002    2.84999990
   17.70639038   92.64920044    0.79000002    2.84999990
   17.71055603   93.07180023    0.79000002    2.84999990
   17.71389008   95.58450317    0.79000002    2.84999990
   17.71694565   91.58010101    0.79000002    2.84999990
   17.72000122   87.65969849    0.79000002    2.84999990
   17.72055626   88.20069885    0.79000002    2.84999990
   17.72389030   84.93789673    0.79000002    2.84999990
   17.72694588   85.84200287    0.79000002    2.84999990
   17.73027802   80.09020233    0.79000002    2.86999989
   17.73361206   89.66439819    0.79000002    2.84999990
   17.73666763   95.63510132    0.79000002    2.84999990
   17.73999977   90.81880188    0.79000002    2.82999992
   17.74333382   91.38899994    0.79000002    2.84999990
   17.74916649   91.38899994    0.76999998    2.84999990
   17.75333405   91.87239838    0.76999998    2.82999992
   17.75666618   91.39959717    0.76999998    2.84999990
   17.76000023   86.42209625    0.79000002    2.86999989
   17.76305580   84.88839722    0.76999998    2.82999992
   17.76638794   89.95780182    0.75000000    2.84999990
   17.76944351   88.33339691    0.73000002    2.84999990
   17.77277756   89.30919647    0.75000000    2.82999992
   17.77611160   92.68669891    0.75000000    2.84999990
   17.77916718   93.78610229    0.75000000    2.84999990
   17.78249931   88.72949982    0.75000000    2.84999990
   17.78583336   84.93900299    0.75000000    2.82999992
   17.78666687   91.01969910    0.75000000    2.84999990
   17.79222107   91.01969910    0.75000000    2.84999990
   17.79638863   88.91780090    0.75000000    2.82999992
   17.79944420   88.21649933    0.75000000    2.84999990
   17.80277634   93.23090363    0.73000002    2.84999990
   17.80611038   89.25440216    0.73000002    2.84999990
   17.80916595   87.47669983    0.73000002    2.84999990
   17.81250000   89.48210144    0.73000002    2.84999990
   17.81583214   93.08760071    0.73000002    2.84999990
   17.81888962   92.55829620    0.73000002    2.84999990
   17.82000160   86.16609955    0.73000002    2.82999992
   17.82250023   89.28230286    0.75000000    2.84999990
   17.82583427   81.98999786    0.75000000    2.84999990
   17.82916832   85.31479645    0.75000000    2.82999992
   17.83500099   85.31479645    0.75000000    2.84999990
   17.83916664   91.03140259    0.75000000    2.82999992
   17.84250069   86.86720276    0.75000000    2.84999990
   17.84555626   89.28469849    0.75000000    2.84999990
   17.84889030   84.74069977    0.75000000    2.84999990
   17.85194397   86.79509735    0.75000000    2.84999990
   17.85333443   86.64430237    0.75000000    2.82999992
   17.85555649   87.41979980    0.75000000    2.84999990
   17.85888863   86.23110199    0.75000000    2.84999990
   17.86222267   91.19580078    0.75000000    2.84999990
   17.86527824   87.57009888    0.75000000    2.84999990
   17.86861038   89.61070251    0.75000000    2.84999990
   17.87166595   85.25730133    0.75000000    2.84999990
   17.87777710   85.25730133    0.75000000    2.82999992
   17.88194466   90.43350220    0.76999998    2.84999990
   17.88527679   92.24490356    0.79000002    2.82999992
   17.88666725   88.09600067    0.80000001    2.84999990
   17.88861084   80.70130157    0.80000001    2.82999992
   17.89194489   88.30079651    0.80000001    2.84999990
   17.89527702   86.29789734    0.81999999    2.82999992
   17.89833260   92.94120026    0.83999997    2.84999990
   17.90166664   84.47039795    0.83999997    2.84999990
   17.90499878   86.20800018    0.83999997    2.84999990
   17.90805435   87.38569641    0.83999997    2.82999992
   17.91138840   85.29910278    0.86000001    2.84999990
   17.91472244   86.44490051    0.86000001    2.82999992
   17.92055511   86.44490051    0.86000001    2.84999990
   17.92472076   82.99629974    0.86000001    2.84999990
   17.92805481   83.11930084    0.86000001    2.82999992
   17.93138885   88.29889679    0.86000001    2.82999992
   17.93444443   87.42279816    0.86000001    2.82999992
   17.93777657   88.86199951    0.86000001    2.84999990
   17.94083214   89.19519806    0.86000001    2.82999992
   17.94416618   85.73130035    0.86000001    2.84999990
   17.94749832   84.05400085    0.86000001    2.82999992
   17.95055580   82.68049622    0.86000001    2.82999992
   17.95333481   84.23049927    0.86000001    2.82999992
   17.97389030   84.23049927    0.83999997    2.84999990
   17.97805595   82.41100311    0.83999997    2.82999992
   17.98111153   85.51930237    0.81999999    2.82999992
   17.98444557   89.37860107    0.81999999    2.84999990
   17.98666763   97.41079712    0.81999999    2.82999992
   17.98833275   91.46260071    0.81999999    2.84999990
   17.99138832   89.15619659    0.83999997    2.82999992
   17.99472237   96.29640198    0.83999997    2.84999990
   17.99777794   97.92569733    0.83999997    2.82999992
   18.00111198   94.95739746    0.83999997    2.82999992
   18.00444412   87.57700348    0.83999997    2.82999992
   18.00749969   81.42250061    0.81999999    2.82999992
   18.01083374   87.65399933    0.81999999    2.82999992
   18.01666641   87.65399933    0.80000001    2.84999990
   18.02083397   91.51010132    0.80000001    2.82999992
   18.02388954   92.62940216    0.80000001    2.82999992
   18.02722168   95.02469635    0.80000001    2.82999992
   18.03055573   94.64260101    0.80000001    2.82999992
   18.03361130   99.80079651    0.81999999    2.84999990
   18.03694344   96.55549622    0.81999999    2.82999992
   18.03999901   96.87770081    0.81999999    2.84999990
   18.04333305   91.42410278    0.81999999    2.84999990
   18.04666710   93.32460022    0.81999999    2.82999992
   18.04972076   93.49299622    0.81999999    2.82999992
   18.05305481   99.81770325    0.80000001    2.82999992
   18.05360985   97.47129822    0.80000001    2.82999992
   18.05944443   97.47129822    0.80000001    2.82999992
   18.06361008   91.33529663    0.79000002    2.82999992
   18.06694603  102.65599823    0.80000001    2.82999992
   18.07000160   99.36100006    0.80000001    2.82999992
   18.07333374   92.14070129    0.80000001    2.84999990
   18.07638931   96.84359741    0.80000001    2.82999992
   18.07972336   92.01480103    0.80000001    2.82999992
   18.08305550  105.15200043    0.80000001    2.82999992
   18.08611107   95.90299988    0.80000001    2.82999992
   18.08694458   96.48500061    0.80000001    2.84999990
   18.09000015   99.26550293    0.80000001    2.82999992
   18.09305573   94.24440002    0.80000001    2.82999992
   18.09638977   92.68370056    0.80000001    2.82999992
   18.10222244   92.68370056    0.79000002    2.82999992
   18.10639000   97.01020050    0.79000002    2.82999992
   18.10972214   97.20729828    0.79000002    2.84999990
   18.11277771   98.76599884    0.79000002    2.82999992
   18.11611176   99.56829834    0.79000002    2.82999992
   18.11944389   93.44360352    0.79000002    2.82999992
   18.12027740   99.40850067    0.79000002    2.82999992
   18.12305641  102.80200195    0.79000002    2.82999992
   18.12611198   97.29010010    0.79000002    2.82999992
   18.12944412  102.87300110    0.76999998    2.82999992
   18.13277817  103.42900085    0.76999998    2.82999992
   18.13583374   91.13099670    0.76999998    2.82999992
   18.13916588  108.59899902    0.76999998    2.82999992
   18.14527702  108.59899902    0.79000002    2.82999992
   18.14916611  106.35800171    0.79000002    2.82999992
   18.15250015  107.18099976    0.80000001    2.82999992
   18.15361023  105.22599792    0.80000001    2.82999992
   18.15638924  104.89099884    0.80000001    2.82999992
   18.15944481  110.09999847    0.80000001    2.82999992
   18.16277695  100.42900085    0.81999999    2.82999992
   18.16583252  107.37899780    0.83999997    2.82999992
   18.16916656   97.48930359    0.83999997    2.82999992
   18.17249870  100.26599884    0.86000001    2.82999992
   18.17555428  103.26699829    0.86000001    2.82999992
   18.17888832   98.51820374    0.86000001    2.82999992
   18.18222237  102.47399902    0.86000001    2.82999992
   18.18805504  102.47399902    0.88000000    2.82999992
   18.19222069  105.04199982    0.88000000    2.82999992
   18.19527626   93.96820068    0.86000001    2.82999992
   18.19861031   99.13269806    0.86000001    2.82999992
   18.20194435   98.86540222    0.86000001    2.82999992
   18.20499992  105.20600128    0.86000001    2.82999992
   18.20833397   91.79019928    0.86000001    2.82999992
   18.21138954   99.11219788    0.86000001    2.82999992
   18.21472359   96.14540100    0.86000001    2.82999992
   18.21805573   99.14769745    0.86000001    2.82999992
   18.22027779  102.77500153    0.86000001    2.82999992
   18.22166634  101.53299713    0.86000001    2.82999992
   18.22472191  105.04699707    0.86000001    2.82999992
   18.23083305  105.04699707    0.83999997    2.82999992
   18.23500061  103.83399963    0.83999997    2.82999992
   18.23833275   96.87740326    0.83999997    2.82999992
   18.24138832  104.16899872    0.86000001    2.82999992
   18.24472237  103.11499786    0.86000001    2.82999992
   18.24777794   92.35739899    0.86000001    2.82999992
   18.25111198   94.69139862    0.86000001    2.82999992
   18.25361061  100.44899750    0.86000001    2.82999992
   18.25499916  105.09200287    0.86000001    2.82999992
   18.25805473   97.99079895    0.86000001    2.82999992
   18.26138878   97.48079681    0.88000000    2.82999992
   18.26444435  104.41500092    0.88000000    2.82999992
   18.26777840  101.22799683    0.89999998    2.82999992
   18.27361107  101.22799683    0.89999998    2.82999992
   18.27777672   97.99179840    0.88000000    2.82999992
   18.28111076  100.55899811    0.88000000    2.82999992
   18.28416634   96.52210236    0.88000000    2.82999992
   18.28694344   99.31900024    0.88000000    2.82999992
   18.28805542   98.16280365    0.88000000    2.82999992
   18.29111099  100.47499847    0.89999998    2.82999992
   18.29444313  102.76399994    0.89999998    2.82999992
   18.29749870  100.07099915    0.92000002    2.82999992
   18.30083275  107.30000305    0.92000002    2.82999992
   18.30416679   99.60430145    0.92000002    2.82999992
   18.30722237  101.30500031    0.92000002    2.82999992
   18.31055450   95.17340088    0.92000002    2.82999992
   18.31666756   95.17340088    0.89999998    2.82999992
   18.32055664  102.82099915    0.89999998    2.82999992
   18.32389069   97.96170044    0.89999998    2.82999992
   18.32722282   97.10050201    0.89999998    2.82999992
   18.33027840   96.39360046    0.89999998    2.82999992
   18.33361244   97.58110046    0.89999998    2.82999992
   18.33694458  103.78500366    0.92000002    2.82999992
   18.34000015  102.14199829    0.94000000    2.80999994
   18.34333420   93.02519989    0.94000000    2.82999992
   18.34638977  103.27200317    0.94000000    2.82999992
   18.34972191  108.91100311    0.94000000    2.82999992
   18.35305595   99.41249847    0.94000000    2.82999992
   18.35361099  101.53399658    0.94000000    2.82999992
   18.35944557  101.53399658    0.94000000    2.82999992
   18.36361122  101.51599884    0.92000002    2.82999992
   18.36666679  102.89199829    0.89999998    2.80999994
   18.37000084  103.95500183    0.89999998    2.82999992
   18.37333298   94.69750214    0.89999998    2.82999992
   18.37638855  101.85399628    0.89999998    2.82999992
   18.37972260  106.69699860    0.92000002    2.82999992
   18.38277817  104.36499786    0.92000002    2.82999992
   18.38611031  100.74500275    0.94000000    2.82999992
   18.38694382  100.26300049    0.94000000    2.82999992
   18.38972282  100.48300171    0.94000000    2.82999992
   18.39277840   93.68560028    0.95999998    2.82999992
   18.39611053   94.78450012    0.98000002    2.80999994
   18.40222168   94.78450012    0.98000002    2.82999992
   18.40638924  102.95700073    0.98000002    2.82999992
   18.40972137  107.29199982    0.98000002    2.82999992
   18.41277695  108.44100189    0.98000002    2.80999994
   18.41611099  102.00499725    0.95999998    2.82999992
   18.41944313  103.31400299    0.95999998    2.82999992
   18.42027664  105.07800293    0.95999998    2.82999992
   18.42305565  104.04599762    0.95999998    2.82999992
   18.42611122  103.40399933    0.95999998    2.82999992
   18.42944336  107.22100067    0.95999998    2.82999992
   18.43277740  103.10099792    0.95999998    2.82999992
   18.43583298  104.08399963    0.98000002    2.82999992
   18.43916512  101.76799774    0.95999998    2.82999992
   18.44499969  101.76799774    0.95999998    2.82999992
   18.44916534  105.23999786    0.95999998    2.82999992
   18.45250130  107.49099731    0.95999998    2.82999992
   18.45361137  107.24700165    0.95999998    2.80999994
   18.45611191  110.69999695    0.95999998    2.82999992
   18.45916748  100.00299835    0.98000002    2.82999992
   18.46250153  107.78399658    1.00000000    2.82999992
   18.46583366  100.72899628    1.00000000    2.82999992
   18.46888924  102.90899658    1.00000000    2.80999994
   18.47222328   99.21279907    1.00000000    2.82999992
   18.47555542   98.70110321    1.00000000    2.82999992
   18.47861099   98.16410065    1.00000000    2.80999994
   18.48194504  102.75599670    1.00000000    2.80999994
   18.48805618  102.75599670    1.00000000    2.80999994
   18.49222183  105.06300354    1.00000000    2.80999994
   18.49527740  102.08899689    1.00000000    2.82999992
   18.49861145   98.83419800    0.98000002    2.80999994
   18.50166702   99.29519653    0.98000002    2.80999994
   18.50499916  106.70400238    0.98000002    2.82999992
   18.50833321  101.37400055    0.98000002    2.82999992
   18.51138878  105.08799744    0.98000002    2.80999994
   18.51472282  104.26899719    0.98000002    2.80999994
   18.51805496  102.88500214    0.98000002    2.80999994
   18.52027702  108.92700195    0.98000002    2.82999992
   18.52166557  106.89700317    0.98000002    2.80999994
   18.52472115  108.73400116    0.98000002    2.80999994
   18.53083229  108.73400116    0.98000002    2.82999992
   18.53499985  104.23200226    0.95999998    2.82999992
   18.53805542  107.23999786    0.95999998    2.80999994
   18.54138756  111.29900360    0.95999998    2.82999992
   18.54472160  110.17099762    0.95999998    2.82999992
   18.54777718  100.98200226    0.95999998    2.80999994
   18.55111122  106.31400299    0.95999998    2.82999992
   18.55360985  103.84200287    0.95999998    2.82999992
   18.55472183  105.79599762    0.95999998    2.80999994
   18.55777740  101.81999969    0.95999998    2.80999994
   18.56110954  111.05100250    0.98000002    2.82999992
   18.56444359  104.20700073    0.98000002    2.80999994
   18.56750107  102.86299896    0.98000002    2.82999992
   18.57361221  102.86299896    0.98000002    2.78999996
   18.57777786  105.22499847    1.00000000    2.80999994
   18.58111191   97.77960205    1.00000000    2.80999994
   18.58416748   96.70459747    1.00000000    2.80999994
   18.58694458  100.94999695    1.00000000    2.78999996
   18.58805656  100.65100098    1.00000000    2.78999996
   18.59111214  103.01599884    1.00000000    2.80999994
   18.59444427  103.90200043    1.00000000    2.80999994
   18.59777832   94.02349854    1.00000000    2.80999994
   18.60083389   99.36049652    1.00000000    2.80999994
   18.60416794   99.45259857    1.00000000    2.82999992
   18.60750008  100.75299835    1.00000000    2.82999992
   18.61055565  108.46399689    1.00000000    2.82999992
   18.61638832  108.46399689    1.01999998    2.80999994
   18.62055588  102.30799866    1.01999998    2.80999994
   18.62388992  100.08399963    1.00000000    2.80999994
   18.62722206  112.24700165    1.00000000    2.82999992
   18.63027763  109.69400024    1.01999998    2.80999994
   18.63361168  101.30100250    1.01999998    2.80999994
   18.63694382   98.31849670    1.03999996    2.78999996
   18.63999939  102.11799622    1.03999996    2.80999994
   18.64333344  110.20700073    1.05999994    2.82999992
   18.64666748  105.36499786    1.05999994    2.78999996
   18.64972115  104.95700073    1.05999994    2.80999994
   18.65305519  103.09999847    1.05999994    2.80999994
   18.65361023  107.87300110    1.05999994    2.80999994
   18.65944481  107.87300110    1.05999994    2.78999996
   18.66333389  104.70400238    1.05999994    2.80999994
   18.66666603  109.33200073    1.05999994    2.80999994
   18.67000008  106.66999817    1.05999994    2.78999996
   18.67305565  102.89600372    1.07000005    2.78999996
   18.67638779  100.81900024    1.07000005    2.80999994
   18.67972183  100.24500275    1.07000005    2.80999994
   18.68277740  104.75599670    1.07000005    2.78999996
   18.68610954  107.58599854    1.07000005    2.82999992
   18.68694305  103.12000275    1.07000005    2.82999992
   18.68972206  105.27799988    1.09000003    2.80999994
   18.69277763  102.17500305    1.11000001    2.78999996
   18.69610977  105.19200134    1.11000001    2.78999996
   18.70222282  105.19200134    1.13000000    2.80999994
   18.70639038  105.81500244    1.14999998    2.78999996
   18.70944595  103.53700256    1.14999998    2.78999996
   18.71277809   98.91139984    1.14999998    2.78999996
   18.71611214  103.64199829    1.14999998    2.78999996
   18.71916771  101.80400085    1.14999998    2.78999996
   18.72027779  103.03800201    1.14999998    2.78999996
   18.72277832  106.54599762    1.14999998    2.80999994
   18.72583389  107.66999817    1.14999998    2.78999996
   18.72916794  111.65499878    1.14999998    2.78999996
   18.73250008  107.91899872    1.13000000    2.78999996
   18.73555565  109.22699738    1.13000000    2.78999996
   18.73888969   97.74859619    1.14999998    2.80999994
   18.74500084   97.74859619    1.14999998    2.78999996
   18.74916649  100.95999908    1.13000000    2.80999994
   18.75250053   99.38749695    1.13000000    2.78999996
   18.75361061  105.58399963    1.13000000    2.78999996
   18.75611115  100.39900208    1.13000000    2.78999996
   18.75944519   96.78309631    1.13000000    2.80999994
   18.76250076   97.48410034    1.14999998    2.80999994
   18.76583290   93.85990143    1.16999996    2.78999996
   18.76888847   98.62419891    1.25000000    2.78999996
   18.77222252   95.72350311    1.14999998    2.78999996
   18.77555466   91.81999969    1.14999998    2.78999996
   18.77861023   92.32599640    1.14999998    2.78999996
   18.78194427   94.94049835    1.11000001    2.80999994
   18.78777695   94.94049835    1.11000001    2.80999994
   18.79194450   94.22689819    1.11000001    2.78999996
   18.79527664   99.10700226    1.11000001    2.78999996
   18.79833221   96.17430115    1.11000001    2.78999996
   18.80166626  101.01399994    1.11000001    2.78999996
   18.80499840  109.55599976    1.11000001    2.78999996
   18.80805397  102.01899719    1.11000001    2.78999996
   18.81138802  104.56500244    1.11000001    2.78999996
   18.81472206  113.29799652    1.11000001    2.78999996
   18.81777954  105.83699799    1.11000001    2.78999996
   18.82027817  106.12599945    1.11000001    2.78999996
   18.82139015  106.31700134    1.11000001    2.78999996
   18.82444572  101.18199921    1.11000001    2.78999996
   18.83083344  101.18199921    1.11000001    2.78999996
   18.83472252  103.79100037    1.11000001    2.78999996
   18.83805656  106.59899902    1.11000001    2.78999996
   18.84138870   94.69439697    1.11000001    2.78999996
   18.84444427  102.86299896    1.11000001    2.78999996
   18.84777832  101.76599884    1.11000001    2.78999996
   18.85111237   98.52709961    1.11000001    2.78999996
   18.85361099   97.38099670    1.11000001    2.80999994
   18.85472298  100.42500305    1.13000000    2.78999996
   18.85777855   95.86519623    1.13000000    2.78999996
   18.86111069   93.89929962    1.13000000    2.78999996
   18.86444473  105.22499847    1.13000000    2.78999996
   18.86777878   97.22090149    1.13000000    2.78999996
   18.87361145   97.22090149    1.13000000    2.78999996
   18.87777710   98.74459839    1.13000000    2.78999996
   18.88083267  100.94599915    1.14999998    2.80999994
   18.88416672   98.23090363    1.14999998    2.78999996
   18.88694382  105.75700378    1.16999996    2.78999996
   18.88777733   96.53220367    1.16999996    2.78999996
   18.89111137  108.84899902    1.16999996    2.78999996
   18.89444351  106.02700043    1.16999996    2.78999996
   18.89749908  107.51000214    1.16999996    2.78999996
   18.90083313  102.27899933    1.16999996    2.78999996
   18.90388870  100.62100220    1.16999996    2.78999996
   18.90722275  102.12100220    1.19000006    2.78999996
   18.91055489  107.26499939    1.19000006    2.78999996
   18.91638756  107.26499939    1.21000004    2.78999996
   18.92055511   99.30709839    1.21000004    2.78999996
   18.92388916   88.36160278    1.23000002    2.78999996
   18.92694473   93.69049835    1.25000000    2.76999998
   18.93027687   90.44779968    1.25000000    2.78999996
   18.93333244  104.78199768    1.25000000    2.78999996
   18.93666649  101.11199951    1.25000000    2.78999996
   18.93999863  103.68699646    1.25000000    2.78999996
   18.94305420   95.29830170    1.25000000    2.78999996
   18.94638824   99.00379944    1.25000000    2.78999996
   18.94972038   95.38269806    1.25000000    2.78999996
   18.95277786   97.26010132    1.25000000    2.78999996
   18.95361137   98.87969971    1.25000000    2.78999996
   18.95916748   98.87969971    1.25000000    2.78999996
   18.96333504   95.65370178    1.25000000    2.78999996
   18.96666718  100.51599884    1.25000000    2.78999996
   18.96972275   94.29989624    1.25000000    2.78999996
   18.98750114   98.44860077    1.21000004    2.76999998
   18.98972321  105.17400360    1.21000004    2.76999998
   18.99305534  103.36699677    1.21000004    2.76999998
   18.99638939  105.30500031    1.21000004    2.78999996
   19.00222206  105.30500031    1.23000002    2.76999998
   19.00638962   92.65899658    1.21000004    2.76999998
   19.00972176   93.92330170    1.21000004    2.76999998
   19.01277733  105.69100189    1.21000004    2.78999996
   19.01611137   99.46579742    1.19000006    2.76999998
   19.01944351  109.04100037    1.19000006    2.78999996
   19.02055550  107.97699738    1.19000006    2.80999994
   19.02305603  103.76399994    1.21000004    2.78999996
   19.02638817  100.86499786    1.21000004    2.76999998
   19.02944374  104.11799622    1.21000004    2.78999996
   19.03277779   99.87539673    1.21000004    2.78999996
   19.03610992  113.65000153    1.21000004    2.76999998
   19.03916550   97.76450348    1.21000004    2.76999998
   19.04500008   97.76450348    1.21000004    2.78999996
   19.04916573  109.55200195    1.21000004    2.78999996
   19.05249977  104.33200073    1.23000002    2.78999996
   19.05388832  108.80999756    1.25000000    2.76999998
   19.05611038  110.72899628    1.25000000    2.76999998
   19.05944443  100.46299744    1.25000000    2.76999998
   19.06250000  107.05400085    1.26999998    2.76999998
   19.06583214  104.32299805    1.26999998    2.76999998
   19.06888962  102.05799866    1.26999998    2.76999998
   19.07222366  103.19799805    1.26999998    2.75000000
   19.07555580  104.51699829    1.26999998    2.76999998
   19.07861137  101.70200348    1.26999998    2.76999998
   19.08194542  103.89099884    1.26999998    2.78999996
   19.08805656  103.89099884    1.26999998    2.76999998
   19.09222221  106.62799835    1.26999998    2.76999998
   19.09527779  106.22299957    1.28999996    2.76999998
   19.09861183   99.58100128    1.28999996    2.75000000
   19.10166740  104.14700317    1.28999996    2.78999996
   19.10499954  102.32399750    1.28999996    2.75000000
   19.10833359  104.37500000    1.26999998    2.76999998
   19.11138916   97.06050110    1.26999998    2.78999996
   19.11472321  102.05100250    1.28999996    2.76999998
   19.11805534  103.33799744    1.28999996    2.76999998
   19.12055588   99.09300232    1.28999996    2.76999998
   19.12166595  101.92500305    1.28999996    2.76999998
   19.12500000  101.75599670    1.26999998    2.76999998
   19.13083267  101.75599670    1.28999996    2.75000000
   19.13500023   99.51390076    1.28999996    2.76999998
   19.13805580   99.48400116    1.26999998    2.76999998
   19.14138794  100.66600037    1.26999998    2.76999998
   19.14472198   98.59790039    1.26999998    2.76999998
   19.14777756   99.20089722    1.26999998    2.76999998
   19.15111160  101.91500092    1.25000000    2.78999996
   19.15388870  111.50599670    1.25000000    2.75000000
   19.15472221  100.70899963    1.25000000    2.76999998
   19.15805435  105.05699921    1.25000000    2.76999998
   19.16110992   97.63220215    1.25000000    2.76999998
   19.16444397   99.68620300    1.26999998    2.76999998
   19.16777802   92.99459839    1.28999996    2.76999998
   19.17361069   92.99459839    1.25000000    2.76999998
   19.17777634   99.09030151    1.25000000    2.76999998
   19.18111038  102.94100189    1.25000000    2.76999998
   19.18416595  101.87699890    1.25000000    2.76999998
   19.18722153  100.72399902    1.26999998    2.76999998
   19.18777657  105.70600128    1.26999998    2.76999998
   19.19111061  105.17800140    1.26999998    2.75000000
   19.19444275  101.98500061    1.26999998    2.76999998
   19.19749832  100.69100189    1.26999998    2.75000000
   19.20083427   98.44120026    1.26999998    2.75000000
   19.20388985  103.20899963    1.26999998    2.75000000
   19.20722389  109.49099731    1.26999998    2.76999998
   19.21055603  112.75499725    1.26999998    2.75000000
   19.21638870  112.75499725    1.28999996    2.76999998
   19.22055626  107.82499695    1.28999996    2.76999998
   19.22111130  113.22299957    1.28999996    2.75000000
   19.22444534  116.63899994    1.30999994    2.76999998
   19.22750092  120.57599640    1.28999996    2.76999998
   19.23083305  120.55999756    1.28999996    2.76999998
   19.23416710  108.88200378    1.28999996    2.76999998
   19.23722267  103.15499878    1.28999996    2.75000000
   19.24055672  121.03399658    1.28999996    2.76999998
   19.24361229  114.17199707    1.28999996    2.75000000
   19.24694443  113.35900116    1.28999996    2.75000000
   19.25027847  107.71900177    1.28999996    2.76999998
   19.25333405  103.03500366    1.26999998    2.75000000
   19.25388908  102.62000275    1.26999998    2.76999998
   19.25944519  102.62000275    1.26999998    2.76999998
   19.26361084  120.58799744    1.26999998    2.75000000
   19.26666641  110.51599884    1.26999998    2.76999998
   19.27000046  111.79599762    1.26999998    2.75000000
   19.27305603  111.25499725    1.26999998    2.76999998
   19.27638817  109.52500153    1.28999996    2.75000000
   19.27972221  104.97499847    1.28999996    2.75000000
   19.28277779  119.34200287    1.28999996    2.75000000
   19.28610992  118.20099640    1.30999994    2.76999998
   19.28722191  106.12300110    1.30999994    2.76999998
   19.28972244  104.14900208    1.30999994    2.75000000
   19.29305458  109.76499939    1.30999994    2.76999998
   19.29611015  104.33100128    1.30999994    2.76999998
   19.30222130  104.33100128    1.30999994    2.76999998
   19.30638885  106.89299774    1.30999994    2.75000000
   19.30944443  110.36100006    1.30999994    2.75000000
   19.31277657  109.74500275    1.33000004    2.75000000
   19.31611061   98.15769958    1.33000004    2.75000000
   19.31916809  109.51100159    1.33000004    2.75000000
   19.32055664  112.72699738    1.33000004    2.75000000
   19.32277870  105.54499817    1.33000004    2.76999998
   19.32611275  114.33499908    1.33000004    2.76999998
