    HOUR (UT)   FLARE FACTOR    SKY TESTER    SUN TESTER
   11.15555477   -1.00000000   -1.00000000   -1.00000000
   11.17555618   86.31479645    2.51999998    2.48000002
   11.18194485   88.99800110    2.51999998    2.48000002
   11.18638897   89.21289825    2.55999994    2.48000002
   11.18972206   91.14279938    2.51999998    2.48000002
   11.19277763   87.52469635    2.55999994    2.48000002
   11.19611073   90.32299805    2.57999992    2.48000002
   11.19944477   89.11550140    2.64000010    2.50000000
   11.20249939   83.65299988    2.59999990    2.48000002
   11.20583344   86.44930267    2.61999989    2.48000002
   11.20861053   88.38480377    2.67000008    2.50000000
   11.20944405   96.79519653    2.67000008    2.48000002
   11.21277714   86.65509796    2.66000009    2.48000002
   11.21583271   94.62300110    2.67000008    2.50000000
   11.21916580   86.93240356    2.64000010    2.50000000
   11.22249985   96.88929749    2.61999989    2.48000002
   11.22555542   90.93340302    2.66000009    2.50000000
   11.22888851   95.68759918    2.61999989    2.50000000
   11.23194408   89.43679810    2.57999992    2.50000000
   11.23527813   88.42659760    2.64000010    2.50000000
   11.23861122   92.44039917    2.57999992    2.50000000
   11.24166679   91.79360199    2.57999992    2.50000000
   11.24222279   92.94239807    2.57999992    2.50000000
   11.24555588   99.59120178    2.55999994    2.50000000
   11.24888897   89.98320007    2.53999996    2.50000000
   11.25194454   94.60559845    2.51999998    2.50000000
   11.25527763   86.36930084    2.51999998    2.51999998
   11.25833321   87.88990021    2.53999996    2.50000000
   11.26166630   94.48120117    2.55999994    2.51999998
   11.26500034   90.78600311    2.51999998    2.50000000
   11.26805496   87.21829987    2.57999992    2.51999998
   11.27138901   91.03559875    2.59999990    2.51999998
   11.27444458   84.82260132    2.61999989    2.51999998
   11.27555561   97.42269897    2.64000010    2.51999998
   11.27833271   85.75140381    2.69000006    2.51999998
   11.28138828   87.44940186    2.64000010    2.51999998
   11.28472233   96.11029816    2.69000006    2.51999998
   11.28805637   89.28569794    2.71000004    2.51999998
   11.29111195   88.83769989    2.71000004    2.51999998
   11.29444504   88.51149750    2.67000008    2.51999998
   11.29777813   87.84069824    2.71000004    2.51999998
   11.30083370   89.93270111    2.71000004    2.53999996
   11.30416679   90.36669922    2.76999998    2.51999998
   11.30722237   92.79149628    2.73000002    2.51999998
   11.30888939   94.18209839    2.71000004    2.51999998
   11.31111145   91.08989716    2.71000004    2.53999996
   11.31416702   89.58719635    2.71000004    2.51999998
   11.31750011   91.34339905    2.69000006    2.53999996
   11.32083321   93.87039948    2.67000008    2.51999998
   11.32388878   88.41220093    2.67000008    2.53999996
   11.32722187   92.14810181    2.66000009    2.53999996
   11.33055592   96.13020325    2.64000010    2.53999996
   11.33361053   90.72910309    2.61999989    2.53999996
   11.33694458   90.82150269    2.61999989    2.53999996
   11.34000015   86.99040222    2.66000009    2.53999996
   11.34222221  110.57099915    2.69000006    2.53999996
   11.34388828   89.29039764    2.71000004    2.53999996
   11.34694386  103.54499817    2.71000004    2.53999996
   11.35027790   98.11849976    2.67000008    2.53999996
   11.35361195   91.89040375    2.75000000    2.53999996
   11.35666752   98.05100250    2.73000002    2.53999996
   11.36000061   86.91989899    2.75000000    2.55999994
   11.36333370   88.64140320    2.71000004    2.53999996
   11.36638927   89.13390350    2.73000002    2.53999996
   11.36972237   92.28630066    2.69000006    2.55999994
   11.37277794   91.52580261    2.71000004    2.53999996
   11.37555599   90.29360199    2.75000000    2.53999996
   11.37666702   80.98609924    2.75000000    2.53999996
   11.37972260   95.70140076    2.76999998    2.55999994
   11.38305569   81.64990234    2.78999996    2.53999996
   11.38638878   92.31929779    2.76999998    2.53999996
   11.38944435   93.65760040    2.78999996    2.55999994
   11.39277744   93.23300171    2.73000002    2.55999994
   11.39611053   90.34680176    2.78999996    2.55999994
   11.39916611   86.58799744    2.76999998    2.55999994
   11.40249920   89.50689697    2.86999989    2.55999994
   11.40555477   96.54930115    2.84999990    2.55999994
   11.40888882   87.04969788    2.93000007    2.55999994
   11.40944386   88.57140350    2.93000007    2.55999994
   11.41249943   92.38710022    2.82999992    2.55999994
   11.41583252   89.18139648    2.86999989    2.57999992
   11.41916656   90.37300110    2.84999990    2.55999994
   11.42222214   86.41210175    2.86999989    2.57999992
   11.42555618   87.52819824    2.80999994    2.55999994
   11.42888927   91.37699890    2.86999989    2.55999994
   11.43194485   97.06729889    2.89000010    2.57999992
   11.43527794   87.00409698    2.86999989    2.55999994
   11.43833351   89.28980255    2.94000006    2.55999994
   11.44166660   83.21890259    2.93000007    2.55999994
   11.44222260   87.69589996    3.00000000    2.55999994
   11.44527817   91.16230011    2.94000006    2.57999992
   11.44833374   85.82060242    3.01999998    2.57999992
   11.45166683   85.59130096    3.01999998    2.55999994
   11.45499992   87.42089844    3.01999998    2.55999994
   11.45805550   89.12290192    3.07999992    2.55999994
   11.46138859   89.60910034    3.09999990    2.57999992
   11.46472168   92.13179779    3.09999990    2.55999994
   11.46777725   92.03939819    3.16000009    2.57999992
   11.47111034   85.85669708    3.16000009    2.55999994
   11.47444439   91.21140289    3.16000009    2.57999992
   11.47555542   88.36990356    3.16000009    2.57999992
   11.47805500   89.17220306    3.16000009    2.57999992
   11.48138809   95.26119995    3.16000009    2.57999992
   11.48444462   95.51490021    3.14000010    2.57999992
   11.48777771   95.46240234    3.11999989    2.55999994
   11.49083328   89.20179749    3.09999990    2.57999992
   11.49416733   90.10990143    3.05999994    2.57999992
   11.49750042   94.71540070    3.07999992    2.57999992
   11.50055599   83.38559723    3.09999990    2.57999992
   11.50388908   92.29479980    3.09999990    2.59999990
   11.50722218   91.33889771    3.05999994    2.59999990
   11.50888920   90.21949768    3.07999992    2.59999990
   11.51083374   89.78710175    3.14000010    2.57999992
   11.51416683   90.15229797    3.14000010    2.57999992
   11.51722240   88.04540253    3.18000007    2.59999990
   11.52055550   91.73320007    3.16000009    2.59999990
   11.52361107   93.87789917    3.14000010    2.59999990
   11.52694416  102.99700165    3.18000007    2.59999990
   11.53027725   93.08260345    3.11999989    2.59999990
   11.53333378   88.25810242    3.14000010    2.59999990
   11.53666687   94.95950317    3.14000010    2.59999990
   11.54000092   87.97160339    3.16000009    2.59999990
   11.54222298   92.16960144    3.25000000    2.61999989
   11.54361153  107.09600067    3.23000002    2.59999990
   11.54666710  100.39399719    3.20000005    2.59999990
   11.55000019   98.04460144    3.18000007    2.59999990
   11.55333328   90.34660339    3.23000002    2.59999990
   11.55638885   86.37010193    3.25000000    2.59999990
   11.55972195   88.80599976    3.26999998    2.61999989
   11.56305599   90.10230255    3.26999998    2.59999990
   11.56611156   86.28669739    3.32999992    2.59999990
   11.56944466   83.96829987    3.32999992    2.59999990
   11.57250023   88.26049805    3.32999992    2.59999990
   11.57555580   97.65039825    3.45000005    2.61999989
   11.57638836   91.61620331    3.45000005    2.61999989
   11.57944393   82.62490082    3.41000009    2.59999990
   11.58277798   90.22750092    3.39000010    2.61999989
   11.58611107   90.85209656    3.45000005    2.59999990
   11.58916664   91.68560028    3.43000007    2.61999989
   11.59249973   91.03549957    3.43000007    2.61999989
   11.59583282   88.96679688    3.46000004    2.61999989
   11.59888840   89.50879669    3.43000007    2.61999989
   11.60222244   90.53209686    3.50000000    2.61999989
   11.60527802   85.57050323    3.51999998    2.61999989
   11.60861111   82.52480316    3.50000000    2.61999989
   11.60916710   85.18679810    3.53999996    2.64000010
   11.61250019   86.02230072    3.53999996    2.61999989
   11.61555576   90.86000061    3.61999989    2.61999989
   11.61888885   91.76850128    3.61999989    2.61999989
   11.62222195   89.86599731    3.57999992    2.59999990
   11.62527752   90.86730194    3.64000010    2.59999990
   11.62861156   84.82749939    3.59999990    2.61999989
   11.63166714  104.78500366    3.66000009    2.61999989
   11.63500023   90.85510254    3.66000009    2.61999989
   11.63833332   79.57360077    3.53999996    2.61999989
   11.64138889   90.91220093    3.82999992    2.61999989
   11.64249992   86.96219635    3.57999992    2.64000010
   11.64527798   88.46970367    3.57999992    2.61999989
   11.64833355   90.09279633    3.70000005    2.61999989
   11.65166664   98.94640350    3.66000009    2.61999989
   11.65499973   89.56680298    3.66000009    2.61999989
   11.65805531   90.88690186    3.73000002    2.64000010
   11.66138840   91.03220367    3.75000000    2.64000010
   11.66472149   93.06109619    3.64000010    2.64000010
   11.66777802   90.39309692    3.68000007    2.64000010
   11.67111111   89.43260193    3.70000005    2.61999989
   11.67416668   89.68280029    3.68000007    2.64000010
   11.67583370   91.83959961    3.78999996    2.64000010
   11.67805576   90.29450226    3.75000000    2.64000010
   11.68111134   92.32520294    3.73000002    2.64000010
   11.68444443   98.26249695    3.76999998    2.64000010
   11.68777752   89.25759888    3.78999996    2.64000010
   11.69083309   85.90070343    3.75000000    2.64000010
   11.69416714   84.28479767    3.76999998    2.64000010
   11.69750023   87.14869690    3.70000005    2.64000010
   11.70055580   89.94799805    3.75000000    2.64000010
   11.70388889   95.03150177    3.73000002    2.64000010
   11.70694447   92.92169952    3.72000003    2.64000010
   11.70916653   96.92089844    3.78999996    2.64000010
   11.71083355   85.63670349    3.75000000    2.66000009
   11.71388912   84.89080048    3.76999998    2.64000010
   11.71722221   85.47850037    3.80999994    2.64000010
   11.72055531   90.17890167    3.91000009    2.64000010
   11.72361088   87.83899689    3.93000007    2.64000010
   11.72694397   82.90190125    3.95000005    2.64000010
   11.72999954   87.14900208    3.97000003    2.66000009
   11.73333359   99.13890076    4.00000000    2.64000010
   11.73666668   88.21170044    4.01999998    2.66000009
   11.73972225   89.16860199    3.99000001    2.64000010
   11.74250031   94.27709961    4.03999996    2.66000009
   11.74361134   84.53379822    4.05999994    2.64000010
   11.74666691   86.59719849    4.01999998    2.66000009
   11.75000000   84.34069824    4.03999996    2.66000009
   11.75333309   79.36720276    4.15999985    2.64000010
   11.75638866   88.70899963    4.05999994    2.64000010
   11.75972176   89.71730042    4.05999994    2.66000009
   11.76277733   93.25070190    4.11999989    2.64000010
   11.76611137   86.05989838    4.07999992    2.66000009
   11.76944447   86.51689911    4.07999992    2.66000009
   11.77250004   86.48509979    4.00000000    2.64000010
   11.77583313   87.31330109    3.97000003    2.66000009
   11.77638817   84.17639923    3.97000003    2.66000009
   11.77944374   82.84529877    4.11999989    2.66000009
   11.78277779   85.86820221    4.05999994    2.67000008
   11.78611183   92.40969849    4.21999979    2.66000009
   11.78916740   87.41300201    4.17999983    2.66000009
   11.79250050   92.22640228    4.23999977    2.64000010
   11.79555607   92.17510223    4.30999994    2.66000009
   11.79888916   90.87439728    4.36999989    2.66000009
   11.80222225   89.93099976    4.40999985    2.66000009
   11.80527782   87.73459625    4.42999983    2.64000010
   11.80861092   82.73500061    4.44999981    2.66000009
   11.80916691   84.62809753    4.44999981    2.66000009
   11.81222248   86.79940033    4.51000023    2.67000008
   11.81527805   92.63179779    4.63999987    2.66000009
   11.81861115   83.11910248    4.53000021    2.66000009
   11.82194424   90.03240204    4.57999992    2.67000008
   11.82499981   90.74839783    4.53999996    2.66000009
   11.82833290   83.90489960    4.57999992    2.66000009
   11.83138847   85.82340240    4.48999977    2.66000009
   11.83472157   82.11779785    4.44999981    2.66000009
   11.83805561   86.29689789    4.42999983    2.67000008
   11.84111118   84.24440002    4.46999979    2.66000009
   11.84249973   89.83589935    4.42999983    2.67000008
   11.84499931   81.23850250    4.36999989    2.67000008
   11.84861088   87.36519623    4.38999987    2.67000008
   11.85166740   92.19370270    4.40999985    2.67000008
   11.85500050   81.68930054    4.30999994    2.67000008
   11.85861111   84.44570160    4.38999987    2.67000008
   11.86166668   82.84459686    4.42999983    2.67000008
   11.86500072   83.74440002    4.44999981    2.67000008
   11.86805534   83.49389648    4.42999983    2.67000008
   11.87138939   97.74130249    4.51000023    2.69000006
   11.87472248   86.70089722    4.57999992    2.67000008
   11.87583351   86.86799622    4.55999994    2.66000009
   11.87833309   91.11910248    4.53999996    2.66000009
   11.88138866   90.97019958    4.55999994    2.66000009
   11.88472176   84.68530273    4.59999990    2.67000008
   11.88805580  101.80100250    4.69999981    2.67000008
   11.89111137   85.82720184    4.61999989    2.67000008
   11.89444447   86.75620270    4.67999983    2.67000008
   11.89777756   91.95040131    4.61999989    2.67000008
   11.90083313   84.40869904    4.65999985    2.69000006
   11.90416622   90.26770020    4.73999977    2.67000008
   11.90722179   86.19499969    4.69999981    2.67000008
   11.90916634   82.72170258    4.76000023    2.67000008
   11.91111088   80.41249847    4.71999979    2.67000008
   11.91416645   75.10009766    4.80000019    2.67000008
   11.91750050   85.19640350    4.80999994    2.67000008
   11.92083359   94.40910339    4.80999994    2.67000008
   11.92388916   93.27230072    4.84999990    2.67000008
   11.92722225   93.35389709    4.86999989    2.67000008
   11.93055630   94.75289917    4.86999989    2.67000008
   11.93361092   86.48200226    4.88999987    2.69000006
   11.93694496   97.08329773    4.84999990    2.67000008
   11.94000053   83.82520294    4.84999990    2.69000006
   11.94250011   84.78649902    4.90999985    2.69000006
   11.94388866   84.84750366    4.88999987    2.69000006
   11.94694424   89.92900085    4.86999989    2.69000006
   11.95027733   95.48139954    4.88999987    2.69000006
   11.95361137   94.80879974    4.90999985    2.67000008
   11.95666695   86.17389679    4.90999985    2.67000008
   11.96000004   89.88529968    4.90999985    2.69000006
   11.96333313   86.21119690    4.90999985    2.69000006
   11.96638870   84.11910248    4.90999985    2.69000006
   11.96972179   96.27880096    4.90999985    2.69000006
   11.97277737   87.46240234    4.90999985    2.67000008
   11.97583294   86.70639801    4.90999985    2.69000006
   11.97666645   96.20240021    4.90999985    2.69000006
   11.97972202   89.63259888    4.90999985    2.69000006
   11.98305511   94.46009827    4.90999985    2.69000006
   11.98638916   85.78910065    4.90999985    2.69000006
   11.98944473   85.29699707    4.90999985    2.69000006
   11.99277782   91.01439667    4.90999985    2.69000006
   11.99611092   87.87500000    4.90999985    2.69000006
   11.99916649   87.46089935    4.90999985    2.69000006
   12.00249958   89.35579681    4.90999985    2.71000004
   12.00555515   86.74500275    4.90999985    2.71000004
   12.00888920   87.25309753    4.90999985    2.67000008
   12.00944424   88.79620361    4.90999985    2.67000008
   12.01277733   89.50959778    4.90999985    2.69000006
   12.01583290   83.28559875    4.90999985    2.71000004
   12.01916599   86.48059845    4.90999985    2.69000006
   12.02222157   88.38610077    4.90999985    2.69000006
   12.02555561   91.43250275    4.90999985    2.69000006
   12.02888870   83.80680084    4.90999985    2.71000004
   12.03194427   95.59320068    4.90999985    2.71000004
   12.03527832   91.71820068    4.90999985    2.71000004
   12.03861141   88.57499695    4.90999985    2.71000004
   12.04166698   83.80169678    4.90999985    2.71000004
   12.04277802   80.34159851    4.90999985    2.69000006
   12.04555607   90.00659943    4.90999985    2.69000006
   12.04861164   91.73509979    4.90999985    2.69000006
   12.05194473   90.36039734    4.90999985    2.71000004
   12.05527782   85.70220184    4.90999985    2.71000004
   12.05833340   82.57679749    4.90999985    2.71000004
   12.06166649   88.36280060    4.90999985    2.71000004
   12.06472206   84.67880249    4.90999985    2.69000006
   12.06805515   90.31240082    4.90999985    2.71000004
   12.07138920   87.35810089    4.90999985    2.71000004
   12.07444477   87.46269989    4.90999985    2.71000004
   12.07611084   91.75839996    4.90999985    2.71000004
   12.07833290   88.75129700    4.90999985    2.71000004
   12.08138847   89.20690155    4.90999985    2.71000004
   12.08472157   87.76090240    4.90999985    2.71000004
   12.08805561   91.08180237    4.90999985    2.71000004
   12.09111118   94.28119659    4.90999985    2.69000006
   12.09444427   88.08719635    4.90999985    2.69000006
   12.09749985   97.16999817    4.90999985    2.69000006
   12.10083389   90.40599823    4.90999985    2.71000004
   12.10416698   88.67500305    4.90999985    2.71000004
   12.10722256   86.03579712    4.90999985    2.71000004
   12.10944462   92.35369873    4.90999985    2.71000004
   12.11111164   91.54119873    4.90999985    2.71000004
   12.11416721   81.31790161    4.90999985    2.71000004
   12.11750031   86.08630371    4.90999985    2.71000004
   12.12083340   86.19989777    4.90999985    2.71000004
   12.12388897   85.23519897    4.90999985    2.69000006
   12.12722206   86.04709625    4.90999985    2.71000004
   12.13027763   96.19090271    4.90999985    2.71000004
   12.13361073   83.11969757    4.90999985    2.71000004
   12.13694477   86.62480164    4.90999985    2.71000004
   12.14000034   93.64910126    4.90999985    2.71000004
   12.14277744   85.88099670    4.90999985    2.71000004
   12.14388847   87.82119751    4.90999985    2.71000004
   12.14694405   87.05300140    4.90999985    2.71000004
   12.15027714   91.62640381    4.90999985    2.71000004
   12.15361118   92.19560242    4.90999985    2.71000004
   12.15666676   97.19979858    4.90999985    2.71000004
   12.15999985   86.33940125    4.90999985    2.71000004
   12.16305542   89.40399933    4.90999985    2.71000004
   12.16638851   95.13269806    4.90999985    2.71000004
   12.16972256   90.71929932    4.90999985    2.71000004
   12.17277813   82.99669647    4.90999985    2.71000004
   12.19194412   83.17389679    4.90999985    2.69000006
   12.19277763   88.16190338    4.90999985    2.71000004
   12.19611073   81.64540100    4.90999985    2.71000004
   12.19916630   84.66529846    4.90999985    2.71000004
   12.20249939   82.66709900    4.90999985    2.71000004
   12.20555496   86.27860260    4.90999985    2.71000004
   12.20888901   81.66619873    4.90999985    2.71000004
   12.21222210   86.36229706    4.90999985    2.71000004
   12.21527767   78.88899994    4.90999985    2.73000002
   12.21861076   92.14710236    4.90999985    2.73000002
   12.22194386   86.42880249    4.90999985    2.73000002
   12.22499943   93.46430206    4.90999985    2.73000002
   12.22555542   89.70950317    4.90999985    2.73000002
   12.22888851   85.12560272    4.90999985    2.73000002
   12.23194408   89.33270264    4.90999985    2.73000002
   12.23527813   91.38619995    4.90999985    2.73000002
   12.23861122   88.01770020    4.90999985    2.73000002
   12.24166679   86.97160339    4.90999985    2.75000000
   12.24499989   80.75469971    4.90999985    2.71000004
   12.24833393   88.70269775    4.90999985    2.73000002
   12.25138855   89.82869720    4.90999985    2.73000002
   12.25472260   85.48660278    4.90999985    2.71000004
   12.25777817   89.74700165    4.90999985    2.73000002
   12.25888920   91.60600281    4.90999985    2.73000002
   12.26166630   88.78389740    4.90999985    2.73000002
   12.26500034   82.13999939    4.90999985    2.73000002
   12.26805496   83.42530060    4.90999985    2.73000002
   12.27138901   92.90750122    4.90999985    2.71000004
   12.27472210  103.97499847    4.90999985    2.71000004
   12.27777767   84.79709625    4.90999985    2.73000002
   12.28111076   89.18669891    4.90999985    2.73000002
   12.28416729   91.18000031    4.90999985    2.73000002
   12.28750038   87.60260010    4.90999985    2.73000002
   12.29083347   89.86180115    4.90999985    2.75000000
   12.29222298   84.84549713    4.90999985    2.73000002
   12.29444504   91.28759766    4.90999985    2.73000002
   12.29750061   92.68810272    4.90999985    2.73000002
   12.30083370   83.02030182    4.90999985    2.73000002
   12.30416679   90.06980133    4.90999985    2.73000002
   12.30722237   92.62229919    4.90999985    2.73000002
   12.31055546   91.17610168    4.90999985    2.75000000
   12.31388950   85.36370087    4.90999985    2.73000002
   12.31694412   82.72160339    4.90999985    2.75000000
   12.32027817   79.34110260    4.90999985    2.73000002
   12.32333374   87.31909943    4.90999985    2.75000000
   12.32555580   89.62750244    4.90999985    2.75000000
   12.32722187   90.61319733    4.90999985    2.75000000
   12.33027744   86.53849792    4.90999985    2.75000000
   12.33361053   87.34559631    4.90999985    2.75000000
   12.33694458   86.01889801    4.90999985    2.75000000
   12.34000015   85.03340149    4.90999985    2.75000000
   12.34333324   93.49320221    4.90999985    2.75000000
   12.34666634   88.21199799    4.90999985    2.73000002
   12.34972191   88.55729675    4.90999985    2.75000000
   12.35305595   81.52159882    4.90999985    2.75000000
   12.35611153   91.97859955    4.90999985    2.75000000
   12.35888958   89.94480133    4.90999985    2.75000000
   12.36000061   85.59130096    4.90999985    2.76999998
   12.36305618   81.41079712    4.90999985    2.75000000
   12.36638927   90.52809906    4.90999985    2.75000000
   12.36972237   90.81770325    4.90999985    2.75000000
   12.37277794   88.65969849    4.90999985    2.75000000
   12.37611103   83.02749634    4.90999985    2.75000000
   12.37944412   90.63020325    4.90999985    2.75000000
   12.38249969   90.44619751    4.90999985    2.75000000
   12.38583279   84.68869781    4.90999985    2.75000000
   12.38888836   87.91799927    4.90999985    2.75000000
   12.39222240   89.19200134    4.90999985    2.75000000
   12.39277744   98.25389862    4.90999985    2.75000000
   12.39583302   87.95770264    4.90999985    2.75000000
   12.39916611   88.30650330    4.90999985    2.75000000
   12.40249920   94.85399628    4.90999985    2.75000000
   12.40555477   88.25949860    4.90999985    2.75000000
   12.40888882   94.73290253    4.90999985    2.75000000
   12.41222191   91.33760071    4.90999985    2.76999998
   12.41527748   89.19670105    4.90999985    2.75000000
   12.41861153   88.58930206    4.90999985    2.75000000
   12.42166710   82.88529968    4.90999985    2.75000000
   12.42500019   88.28679657    4.90999985    2.75000000
   12.42555618   86.14330292    4.90999985    2.75000000
   12.42861176   88.43360138    4.90999985    2.75000000
   12.43166733   87.25099945    4.90999985    2.75000000
   12.43500042   91.62650299    4.90999985    2.75000000
   12.43833351   92.23970032    4.90999985    2.75000000
   12.44138908   90.07800293    4.90999985    2.75000000
   12.44472218   96.46160126    4.90999985    2.75000000
   12.44805527   97.01519775    4.90999985    2.76999998
   12.45111084   94.69860077    4.90999985    2.75000000
   12.45444393   89.55930328    4.90999985    2.76999998
   12.45749950   87.63259888    4.90999985    2.76999998
   12.45888901   81.47959900    4.90999985    2.75000000
   12.46138859   90.16680145    4.90999985    2.76999998
   12.46472168   84.93630219    4.90999985    2.75000000
   12.46777725   91.31369781    4.90999985    2.75000000
   12.47111034   90.11409760    4.90999985    2.75000000
   12.47416592   85.29460144    4.90999985    2.76999998
   12.47749996   91.12069702    4.90999985    2.75000000
   12.48083305   79.21839905    4.90999985    2.75000000
   12.48388958   77.46749878    4.90999985    2.76999998
   12.48722267   78.98030090    4.90999985    2.76999998
   12.49055576   85.30570221    4.90999985    2.75000000
   12.49222279   85.92810059    4.90999985    2.76999998
   12.49416733   79.57749939    4.90999985    2.75000000
   12.49750042   91.93509674    4.90999985    2.76999998
   12.50055599   74.45290375    4.90999985    2.76999998
   12.50388908   82.10019684    4.90999985    2.76999998
   12.50694466   83.71430206    4.90999985    2.76999998
   12.51027775   74.04589844    4.90999985    2.76999998
   12.51361084   89.90260315    4.90999985    2.76999998
   12.51666641   82.24810028    4.90999985    2.76999998
   12.51999950   96.69869995    4.90999985    2.76999998
   12.52333355   93.29599762    4.90999985    2.76999998
   12.52555561   88.38030243    4.90999985    2.75000000
   12.52694416  108.63999939    4.90999985    2.75000000
   12.52999973   90.03350067    4.90999985    2.76999998
   12.53333378  108.39700317    4.90999985    2.76999998
   12.53666687   97.35440063    4.90999985    2.75000000
   12.53972244   94.99289703    4.90999985    2.76999998
   12.54305553   90.11750031    4.90999985    2.76999998
   12.54638958   99.06390381    4.90999985    2.75000000
   12.54944515   83.10759735    4.90999985    2.76999998
   12.55277824   89.94709778    4.90999985    2.78999996
   12.55583382   95.28759766    4.90999985    2.76999998
   12.55888939   99.34619904    4.90999985    2.76999998
   12.55972195   83.49980164    4.90999985    2.76999998
   12.56277752   92.48269653    4.90999985    2.76999998
   12.56611156   87.06449890    4.90999985    2.76999998
   12.56944466  106.30999756    4.90999985    2.78999996
   12.57250023   88.28700256    4.90999985    2.76999998
   12.57583332   88.08670044    4.90999985    2.76999998
   12.57916641   87.74420166    4.90999985    2.78999996
   12.58222198   82.84500122    4.90999985    2.78999996
   12.58555508   83.94860077    4.90999985    2.76999998
   12.58861065   84.59089661    4.90999985    2.78999996
   12.59194374   86.04759979    4.90999985    2.76999998
   12.59249973   86.32569885    4.90999985    2.76999998
   12.59583282   88.62449646    4.90999985    2.76999998
   12.59888840   88.29370117    4.90999985    2.78999996
   12.60222244   81.01599884    4.90999985    2.78999996
   12.60555553   87.87719727    4.90999985    2.78999996
   12.60861111   85.67230225    4.90999985    2.78999996
   12.61194515   85.56179810    4.90999985    2.76999998
   12.61527824   87.91680145    4.90999985    2.76999998
   12.61833382   83.57959747    4.90999985    2.78999996
   12.62166691   97.59940338    4.90999985    2.78999996
   12.62472248   88.67700195    4.90999985    2.78999996
   12.62583351   81.57839966    4.90999985    2.76999998
   12.62861156   81.81659698    4.90999985    2.76999998
   12.63166714   85.37789917    4.90999985    2.76999998
   12.63500023   85.40840149    4.90999985    2.78999996
   12.63833332   79.42939758    4.90999985    2.76999998
   12.64138889   77.97329712    4.90999985    2.78999996
   12.64472198   80.40579987    4.90999985    2.78999996
   12.64777756   81.56089783    4.90999985    2.78999996
   12.65111065   78.21849823    4.90999985    2.78999996
   12.65444374   83.55200195    4.90999985    2.76999998
   12.65749931   79.89520264    4.90999985    2.76999998
   12.65916634   81.16139984    4.90999985    2.76999998
   12.66138840   86.21569824    4.90999985    2.78999996
   12.66444397   87.39160156    4.90999985    2.76999998
   12.66777802   84.99449921    4.90999985    2.76999998
   12.67111111   85.28369904    4.90999985    2.78999996
   12.67416668   85.09529877    4.90999985    2.78999996
   12.67750072   79.39900208    4.90999985    2.78999996
   12.68083382   84.76640320    4.90999985    2.78999996
   12.68388939   85.83650208    4.90999985    2.76999998
   12.68722248   87.79479980    4.90999985    2.76999998
   12.69055557   87.22059631    4.90999985    2.76999998
   12.69250011   86.53220367    4.90999985    2.76999998
   12.69416714   79.88929749    4.90999985    2.78999996
   12.69722271   90.09690094    4.90999985    2.78999996
   12.70055580   84.48670197    4.90999985    2.78999996
   12.70388889   83.32060242    4.90999985    2.78999996
   12.70694447   86.52570343    4.90999985    2.78999996
   12.71027756   80.02480316    4.90999985    2.78999996
   12.71333313   83.25720215    4.90999985    2.76999998
   12.71666622   82.47630310    4.90999985    2.78999996
   12.71999931   79.26080322    4.90999985    2.78999996
   12.72305489   89.55030060    4.90999985    2.78999996
   12.72583294   89.23020172    4.90999985    2.78999996
   12.72694397   83.44879913    4.90999985    2.78999996
   12.72999954   96.33480072    4.90999985    2.78999996
   12.73333359   86.46369934    4.90999985    2.78999996
   12.73666668   87.80400085    4.90999985    2.78999996
   12.73972225   92.19560242    4.90999985    2.78999996
   12.74305534   88.31510162    4.90999985    2.78999996
   12.74611092   83.31169891    4.90999985    2.78999996
   12.74944496   89.15720367    4.90999985    2.78999996
   12.75277805   91.54799652    4.90999985    2.78999996
   12.75583363   89.93350220    4.90999985    2.78999996
   12.75916672   89.74160004    4.90999985    2.80999994
   12.75972176   84.23999786    4.90999985    2.80999994
   12.76277733   86.26709747    4.90999985    2.80999994
   12.76611137   87.46440125    4.90999985    2.78999996
   12.76944447   79.05670166    4.90999985    2.78999996
   12.77250004   90.74649811    4.90999985    2.80999994
   12.77583313   82.80049896    4.90999985    2.80999994
   12.77888870   86.30660248    4.90999985    2.82999992
   12.78222179   82.32810211    4.90999985    2.78999996
   12.78555584   85.08979797    4.90999985    2.80999994
   12.78861141   87.88320160    4.90999985    2.80999994
   12.79194450   81.95960236    4.90999985    2.80999994
   12.79250050   85.74949646    4.90999985    2.80999994
   12.79555607   85.37840271    4.90999985    2.80999994
   12.79861164   83.83989716    4.90999985    2.80999994
   12.80194473   83.75479889    4.90999985    2.80999994
   12.80527782   85.01080322    4.90999985    2.78999996
   12.80833340   84.72450256    4.90999985    2.80999994
   12.81166649   87.99780273    4.90999985    2.80999994
   12.81472206   83.27320099    4.90999985    2.80999994
   12.81805515   89.71769714    4.90999985    2.82999992
   12.82138920   83.40599823    4.90999985    2.80999994
   12.82444477   83.59490204    4.90999985    2.80999994
   12.82583332   86.60220337    4.90999985    2.80999994
   12.82833290   83.65309906    4.90999985    2.80999994
   12.83138847   85.03479767    4.90999985    2.80999994
   12.83472157   77.46640015    4.90999985    2.80999994
   12.83805561   85.22209930    4.90999985    2.80999994
   12.84111118   86.84130096    4.90999985    2.80999994
   12.84444427   89.99099731    4.90999985    2.80999994
   12.84777737   88.94429779    4.90999985    2.80999994
   12.85083389   80.51519775    4.90999985    2.82999992
   12.85416698   81.57199860    4.90999985    2.80999994
   12.85722256   86.01110077    4.90999985    2.80999994
   12.85916710   91.65969849    4.90999985    2.80999994
   12.86111164   88.04489899    4.90999985    2.78999996
   12.86416721   85.39029694    4.90999985    2.78999996
   12.86750031   88.34570313    4.90999985    2.80999994
   12.87083340   90.64199829    4.90999985    2.80999994
   12.87388897   86.51159668    4.90999985    2.80999994
   12.87722206   85.83550262    4.90999985    2.82999992
   12.88055611   82.35050201    4.90999985    2.80999994
   12.88361073   79.52410126    4.90999985    2.80999994
   12.88694477   82.43389893    4.90999985    2.80999994
   12.89000034   85.33930206    4.90999985    2.80999994
   12.89249992   87.87580109    4.90999985    2.82999992
   12.89388847   88.88480377    4.90999985    2.80999994
   12.89694405   81.65029907    4.90999985    2.80999994
   12.90027714   90.55570221    4.90999985    2.82999992
   12.90361118   81.49620056    4.90999985    2.80999994
   12.90666676   88.39179993    4.90999985    2.80999994
   12.90999985   87.66580200    4.90999985    2.80999994
   12.91305542   91.52999878    4.90999985    2.80999994
   12.91638851   87.75109863    4.90999985    2.82999992
   12.91972256   88.22699738    4.90999985    2.82999992
   12.92277813   86.35220337    4.90999985    2.80999994
   12.92583370   88.50180054    4.90999985    2.80999994
   12.92666721   81.38529968    4.90999985    2.80999994
   12.92972279   78.04440308    4.90999985    2.80999994
   12.93305588   85.56829834    4.90999985    2.82999992
   12.93638897   81.17739868    4.90999985    2.80999994
   12.93944454   82.04340363    4.90999985    2.80999994
   12.94277763   83.88259888    4.90999985    2.80999994
   12.94583321   85.58059692    4.90999985    2.80999994
   12.94916630   85.25469971    4.90999985    2.80999994
   12.95249939   89.09709930    4.90999985    2.80999994
   12.95555496   83.70330048    4.90999985    2.82999992
   12.95888901   94.83470154    4.90999985    2.82999992
   12.95944405   85.77580261    4.90999985    2.82999992
   12.96277714   89.41629791    4.90999985    2.82999992
   12.96583271   89.42060089    4.90999985    2.82999992
   12.96916580   85.16300201    4.90999985    2.82999992
   12.97222137   86.66590118    4.90999985    2.80999994
   12.97555542   83.74240112    4.90999985    2.80999994
   12.97888851   87.86419678    4.90999985    2.82999992
   12.98194408   86.97200012    4.90999985    2.82999992
   12.98527813   80.70359802    4.90999985    2.80999994
   12.98861122   82.34259796    4.90999985    2.80999994
   12.99166679   83.45870209    4.90999985    2.80999994
   12.99277782   77.65039825    4.90999985    2.80999994
   12.99555588   83.01239777    4.90999985    2.80999994
   13.11472225   -1.00000000   -1.00000000   -1.00000000
   13.21388912   -1.00000000   -1.00000000   -1.00000000
   13.31333351   -1.00000000   -1.00000000   -1.00000000
   13.40944386   -1.00000000   -1.00000000   -1.00000000
   13.50722218   -1.00000000   -1.00000000   -1.00000000
   13.60666752   -1.00000000   -1.00000000   -1.00000000
   13.70416641   -1.00000000   -1.00000000   -1.00000000
   13.80222225   -1.00000000   -1.00000000   -1.00000000
   13.90305519   -1.00000000   -1.00000000   -1.00000000
   13.93527794   68.86609650    4.90999985    2.86999989
   13.93861103   83.79489899    4.90999985    2.89000010
   13.94166660   80.49099731    4.90999985    2.86999989
   13.94499969   77.93299866    4.90999985    2.86999989
   13.94833374   78.06590271    4.90999985    2.86999989
   13.95138836   79.87809753    4.90999985    2.86999989
   13.95555496   79.87809753    4.90999985    2.86999989
   13.95972157   78.13809967    4.90999985    2.86999989
   13.96305561   81.07189941    4.90999985    2.89000010
   13.96611118   82.92379761    4.90999985    2.86999989
   13.96861076   80.67890167    4.90999985    2.86999989
   13.96999931   85.03359985    4.90999985    2.86999989
   13.97305489   84.97100067    4.90999985    2.86999989
   13.97638798   78.62220001    4.90999985    2.86999989
   13.97972202   78.52239990    4.90999985    2.84999990
   13.98277760   86.77829742    4.90999985    2.86999989
   13.98611164   81.20929718    4.90999985    2.86999989
   13.98916721   82.59860229    4.90999985    2.86999989
   13.99250031   85.36630249    4.90999985    2.89000010
   13.99833393   85.36630249    4.90999985    2.86999989
   14.00249958   91.51640320    4.90999985    2.89000010
   14.00583363   85.44069672    4.90999985    2.89000010
   14.00888920   93.62689972    4.90999985    2.86999989
   14.01222229   83.68689728    4.90999985    2.86999989
   14.01555538   85.56479645    4.90999985    2.86999989
   14.01861095   75.83380127    4.90999985    2.86999989
   14.02194405   82.09590149    4.90999985    2.89000010
   14.02527714   95.49340057    4.90999985    2.91000009
   14.02833271   99.51699829    4.90999985    2.86999989
   14.03166676   80.53130341    4.90999985    2.86999989
   14.03472233   78.70230103    4.90999985    2.89000010
   14.03527832   79.70030212    4.90999985    2.89000010
   14.04138947   79.70030212    4.90999985    2.86999989
   14.04527855   85.20719910    0.09000000    0.46000001
   14.04861164   85.37039948    0.07000000    0.19000000
   14.05194473   81.48750305    0.07000000    0.19000000
   14.05500031   85.17030334    0.07000000    0.19000000
   14.05833340   82.94139862    0.07000000    0.19000000
   14.06166649   81.17379761    0.07000000    0.19000000
   14.06472206   76.21520233    0.07000000    0.19000000
   14.06805515   81.91179657    0.07000000    0.19000000
   14.06861115   80.13760376    0.07000000    0.19000000
   14.07166672   79.27899933    0.07000000    0.19000000
   14.07499981   85.97840118    0.07000000    0.19000000
   14.07805538   87.70999908    0.07000000    0.19000000
   14.08416653   87.70999908    0.07000000    0.19000000
   14.08833313   81.02639771    0.07000000    0.19000000
   14.09138870   79.92479706    0.07000000    0.19000000
   14.09472179   76.11329651    0.07000000    0.19000000
   14.09805489   80.50289917    0.07000000    0.19000000
   14.10111141   80.75160217    0.07000000    0.19000000
   14.10194492   80.70989990    0.07000000    0.19000000
   14.10472298   77.36440277    0.07000000    0.19000000
   14.10805607   74.36129761    0.07000000    0.19000000
   14.11111164   79.93129730    0.07000000    0.19000000
   14.11444473   82.87480164    0.07000000    0.19000000
   14.11777782   86.61239624    0.07000000    0.19000000
   14.12083340   82.68109894    0.07000000    0.19000000
   14.12694454   82.68109894    0.07000000    0.19000000
   14.13111115   82.09220123    0.07000000    0.19000000
   14.13444424   81.28359985    0.07000000    0.19000000
   14.13527775   82.36150360    0.07000000    0.19000000
   14.13805580   77.74739838    0.07000000    0.19000000
   14.14138889   84.79489899    0.07000000    0.19000000
   14.14444447   82.23519897    0.07000000    0.19000000
   14.14777756   81.60260010    0.07000000    0.19000000
   14.15111065   86.18170166    0.07000000    0.19000000
   14.15416622   78.23750305    0.07000000    0.19000000
   14.15749931   82.84329987    0.07000000    0.19000000
   14.16055489   80.34269714    0.07000000    0.19000000
   14.16388893   73.70680237    0.07000000    0.19000000
   14.16972256   73.70680237    0.07000000    0.19000000
   14.17388916   78.24729919    0.07000000    0.19000000
   14.17722225   90.51080322    0.07000000    0.19000000
   14.18027782   89.30139923    0.07000000    0.19000000
   14.18361092   81.38710022    0.07000000    0.19000000
   14.18694496   79.45230103    0.07000000    0.19000000
   14.19000053   83.21829987    0.07000000    0.19000000
   14.19333363   81.42710114    0.07000000    0.19000000
   14.19666672   87.47850037    0.07000000    0.19000000
   14.19972229   89.18319702    0.07000000    0.19000000
   14.20194435   82.75180054    0.07000000    0.19000000
   14.20333290   81.84770203    0.07000000    0.19000000
   14.20666695   92.77739716    0.07000000    0.19000000
   14.21277714   92.77739716    0.07000000    0.19000000
   14.21666622   81.63040161    0.07000000    0.19000000
   14.21999931   85.81839752    0.07000000    0.19000000
   14.22333336   87.19529724    0.07000000    0.19000000
   14.22638798   84.39129639    0.07000000    0.19000000
   14.22972202   84.17620087    0.07000000    0.19000000
   14.23305511   83.77770233    0.07000000    0.19000000
   14.23527813  131.42999268    0.07000000    0.19000000
   14.23666668  217.19400024    0.07000000    0.19000000
   14.24000072   -1.00000000    0.07000000    0.19000000
   14.24305534   -1.00000000    0.07000000    0.19000000
   14.24638939   -1.00000000    0.07000000    0.19000000
   14.24972248   -1.00000000    0.07000000    0.19000000
   14.25944424   -1.00000000    0.07000000    0.19000000
   14.26277733  212.41099548    0.07000000    0.19000000
   14.26611137   -1.00000000    0.07000000    0.19000000
   14.26972198   -1.00000000    0.07000000    0.19000000
   14.27277756   88.80400085    0.07000000    0.19000000
   14.27611065   89.77510071    0.07000000    0.19000000
   14.27944374   95.53559875    0.07000000    0.19000000
   14.28249931   89.61319733    0.07000000    0.19000000
   14.28583336   82.68569946    0.07000000    0.19000000
   14.28888893   82.45310211    0.07000000    0.19000000
   14.29222298   81.37480164    0.07000000    0.19000000
   14.29833412   81.37480164    0.07000000    0.19000000
   14.30249977   89.76589966    0.07000000    0.19000000
   14.30583382   89.95159912    0.07000000    0.19000000
   14.30888939   80.80280304    0.07000000    0.19000000
   14.31222248   83.33029938    0.07000000    0.19000000
   14.31527805   78.44889832    0.07000000    0.19000000
   14.31861115   85.87419891    0.07000000    0.19000000
   14.32194424   84.84120178    0.07000000    0.19000000
   14.32499981   84.83529663    0.07000000    0.19000000
   14.32833290   84.50779724    0.07000000    0.19000000
   14.33166695   84.31210327    0.07000000    0.19000000
   14.33472157   79.19809723    0.07000000    0.19000000
   14.33527756   78.96820068    0.07000000    0.19000000
   14.34111118   78.96820068    0.07000000    0.19000000
   14.34527779   86.94550323    0.07000000    0.19000000
   14.34861088   84.66429901    0.07000000    0.19000000
   14.35166740   91.77380371    0.07000000    0.19000000
   14.35500050   89.71019745    0.07000000    0.19000000
   14.35833359   88.84149933    0.07000000    0.19000000
   14.36138916   93.85980225    0.07000000    0.19000000
   14.36472225   86.35109711    0.07000000    0.19000000
   14.36805534   97.18849945    0.07000000    0.19000000
   14.36861134   90.08110046    0.07000000    0.19000000
   14.37166691  112.02300262    0.07000000    0.19000000
   14.37500000   92.19129944    0.07000000    0.19000000
   14.37805557  104.23600006    0.07000000    0.19000000
   14.38416672  104.23600006    0.07000000    0.19000000
   14.38805580   90.18779755    0.07000000    0.19000000
   14.39138889   81.19370270    0.07000000    0.19000000
   14.39472198   88.57389832    0.07000000    0.19000000
   14.39777756   88.46779633    0.07000000    0.19000000
   14.40111065   82.80059814    0.07000000    0.19000000
   14.40222168   84.24430084    0.07000000    0.19000000
   14.40472221   90.18560028    0.07000000    0.19000000
   14.40805531   81.36599731    0.07000000    0.19000000
   14.41111088   93.91580200    0.07000000    0.19000000
   14.41444397   99.48690033    0.07000000    0.19000000
   14.41777802   82.90209961    0.07000000    0.19000000
   14.42083359   87.73480225    0.07000000    0.19000000
   14.42694473   87.73480225    0.07000000    0.19000000
   14.43111134  113.93299866    0.07000000    0.19000000
   14.43416691   98.71019745    0.07000000    0.19000000
   14.43555546   89.79229736    0.07000000    0.19000000
   14.43777752   95.63110352    0.07000000    0.19000000
   14.44111156   92.25440216    0.07000000    0.19000000
   14.44416714   95.03849792    0.07000000    0.19000000
   14.44750023   98.15619659    0.07000000    0.19000000
   14.45083332   84.12259674    0.07000000    0.19000000
   14.45388889   84.86260223    0.07000000    0.19000000
   14.45722198   78.20780182    0.07000000    0.19000000
   14.46055508   83.17289734    0.07000000    0.19000000
   14.46361065   81.99530029    0.07000000    0.19000000
   14.46972179   81.99530029    0.07000000    0.19000000
   14.47388840   81.03579712    0.07000000    0.19000000
   14.47722149   73.92939758    0.07000000    0.19000000
   14.48027706   76.19480133    0.07000000    0.19000000
   14.48361111   77.95480347    0.07000000    0.19000000
   14.48666668   77.29669952    0.07000000    0.19000000
   14.49000072   76.76670074    0.07000000    0.19000000
   14.49333382   77.89230347    0.07000000    0.19000000
   14.49638939   77.92710114    0.07000000    0.19000000
   14.49972248   83.59230042    0.07000000    0.19000000
   14.50222206   78.03160095    0.07000000    0.19000000
   14.50333309   76.71920013    0.07000000    0.19000000
   14.50666714   74.80269623    0.07000000    0.19000000
   14.51249981   74.80269623    0.07000000    0.19000000
   14.51666641   78.37139893    0.07000000    0.19000000
   14.51999950   80.54769897    0.07000000    0.19000000
   14.52305508   87.67530060    0.07000000    0.19000000
   14.52638817   80.83139801    0.07000000    0.19000000
   14.52972221   81.18949890    0.07000000    0.19000000
   14.53277779   86.27169800    0.07000000    0.19000000
   14.53555584   84.75469971    0.07000000    0.19000000
   14.53638935   82.59490204    0.07000000    0.19000000
   14.53972244   91.07949829    0.07000000    0.19000000
   14.54277802   83.73370361    0.07000000    0.19000000
   14.54611111   79.26329803    0.07000000    0.19000000
   14.54944515   87.10859680    0.07000000    0.19000000
   14.55527782   87.10859680    0.07000000    0.19000000
   14.55944443   82.93119812    0.07000000    0.19000000
   14.56277752   89.45690155    0.07000000    0.19000000
   14.56611156   84.98470306    0.07000000    0.19000000
   14.56888866   73.82330322    0.07000000    0.19000000
   14.56944466   78.54579926    0.07000000    0.19000000
   14.57277775   90.34999847    0.07000000    0.19000000
   14.57583332   89.78579712    0.07000000    0.19000000
   14.57916641   84.47489929    0.07000000    0.19000000
   14.58249950   85.05229950    0.07000000    0.19000000
   14.58555508   89.48799896    0.07000000    0.19000000
   14.58888817   92.67749786    0.07000000    0.19000000
   14.59222221   83.50289917    0.07000000    0.19000000
   14.59833336   83.50289917    0.07000000    0.19000000
   14.60249996   81.16339874    0.07000000    0.19000000
   14.60555553   81.03910065    0.07000000    0.19000000
   14.60888958   86.37609863    0.07000000    0.19000000
   14.61194515   78.65200043    0.07000000    0.19000000
   14.61527824   79.72550201    0.07000000    0.19000000
   14.61861134   84.41590118    0.07000000    0.19000000
   14.62194443   81.66549683    0.07000000    0.19000000
   14.62500000   72.69719696    0.07000000    0.19000000
   14.62833309   80.41210175    0.07000000    0.19000000
   14.63138866   82.15650177    0.07000000    0.19000000
   14.63472176   78.64340210    0.07000000    0.19000000
   14.63555527   80.64050293    0.07000000    0.19000000
   14.64111137   80.64050293    0.07000000    0.19000000
   14.64527798   81.07420349    0.07000000    0.19000000
   14.64833355   80.96649933    0.07000000    0.19000000
   14.65166664   85.02839661    0.07000000    0.19000000
   14.65499973   77.99040222    0.07000000    0.19000000
   14.65805531   80.66989899    0.07000000    0.19000000
   14.66138840   80.25759888    0.07000000    0.19000000
   14.66472149   83.22889709    0.07000000    0.19000000
   14.66777802   85.19609833    0.07000000    0.19000000
   14.66888905   85.52649689    0.07000000    0.19000000
   14.67138958   83.12860107    0.07000000    0.19000000
   14.67472267   85.01750183    0.07000000    0.19000000
   14.67805576   78.80159760    0.07000000    0.19000000
   14.68388939   78.80159760    0.07000000    0.19000000
   14.68805599   82.16059875    0.07000000    0.19000000
   14.69138908   77.36569977    0.07000000    0.19000000
   14.69444466   78.96219635    0.07000000    0.19000000
   14.69777775   83.82730103    0.07000000    0.19000000
   14.70111084   77.52909851    0.07000000    0.19000000
   14.70222187   81.66349792    0.07000000    0.19000000
   14.70444393   86.16210175    0.07000000    0.19000000
   14.70777798   87.76629639    0.07000000    0.19000000
   14.71111107   90.53510284    0.07000000    0.19000000
   14.71416664   77.46040344    0.07000000    0.19000000
   14.71749973   89.14050293    0.07000000    0.19000000
   14.72055531   93.43820190    0.07000000    0.19000000
   14.72666645   93.43820190    0.07000000    0.19000000
   14.73083305   85.09179688    0.07000000    0.19000000
   14.73416710   86.08540344    0.07000000    0.19000000
   14.73555565   85.36000061    0.07000000    0.19000000
   14.73777771   84.66739655    0.07000000    0.19000000
   14.74111176   81.35250092    0.07000000    0.19000000
   14.74444485   83.39050293    0.07000000    0.19000000
   14.74750042   83.34259796    0.07000000    0.19000000
   14.75083351   79.58360291    0.07000000    0.19000000
   14.75388908   78.15440369    0.07000000    0.19000000
   14.75722218   90.03810120    0.07000000    0.19000000
   14.76055527   81.37100220    0.07000000    0.19000000
   14.76361084   82.99530029    0.07000000    0.19000000
   14.76972198   82.99530029    0.07000000    0.19000000
   14.77388859   87.98490143    0.07000000    0.19000000
   14.77694416   87.17680359    0.07000000    0.19000000
   14.78027725   79.48059845    0.07000000    0.19000000
   14.78333378   77.69080353    0.07000000    0.19000000
   14.78666687   79.91480255    0.07000000    0.19000000
   14.79000092   82.83010101    0.07000000    0.19000000
   14.79305553   81.42890167    0.07000000    0.19000000
   14.79638958   83.48930359    0.07000000    0.19000000
   14.79972267   -1.00000000    0.07000000    0.19000000
