    HOUR (UT)   FLARE FACTOR    SKY TESTER    SUN TESTER
   11.66944504   -1.00000000   -1.00000000   -1.00000000
   11.76138878   98.01249695    4.90999985    2.11999989
   11.76472187  100.11100006    4.90999985    2.09999990
   11.76777744   97.62850189    4.90999985    2.11999989
   11.77111053   93.29879761    4.90999985    2.11999989
   11.77444458  100.64800262    4.90999985    2.11999989
   11.77750015   95.75920105    4.90999985    2.11999989
   11.78166676   95.75920105    4.90999985    2.11999989
   11.78583336  100.04799652    4.90999985    2.11999989
   11.78916740   94.87310028    4.90999985    2.13000011
   11.79222298   96.90769958    4.90999985    2.13000011
   11.79472256  101.70099640    4.90999985    2.11999989
   11.79611111  104.31199646    4.90999985    2.11999989
   11.79916668  108.66699982    4.90999985    2.13000011
   11.80249977  105.71499634    4.90999985    2.13000011
   11.80583382  113.51999664    4.90999985    2.13000011
   11.80888939   99.81590271    4.90999985    2.13000011
   11.81222248  107.55500031    4.90999985    2.13000011
   11.81527805   98.37899780    4.90999985    2.13000011
   11.81861115  103.23799896    4.90999985    2.13000011
   11.82444477  103.23799896    4.90999985    2.13000011
   11.82861137  107.91600037    4.90999985    2.15000010
   11.83194447   98.85459900    4.90999985    2.15000010
   11.83527756  105.19899750    4.90999985    2.15000010
   11.83833313  120.07599640    4.90999985    2.15000010
   11.84166622  102.19000244    4.90999985    2.15000010
   11.84472179  109.37500000    4.90999985    2.15000010
   11.84805489  102.29100037    4.90999985    2.15000010
   11.85138893   95.08769989    4.90999985    2.15000010
   11.85444450  103.21499634    4.90999985    2.15000010
   11.85777855   94.25759888    4.90999985    2.17000008
   11.86111164   94.04350281    4.90999985    2.17000008
   11.86138916   94.71880341    4.90999985    2.17000008
   11.86750031   94.71880341    4.90999985    2.17000008
   11.87166691   92.26180267    4.90999985    2.17000008
   11.87472248   97.65679932    4.90999985    2.17000008
   11.87805557   96.28630066    4.90999985    2.17000008
   11.88111115   86.71130371    4.90999985    2.17000008
   11.88444424   96.02189636    4.90999985    2.19000006
   11.88777733   94.82730103    4.90999985    2.17000008
   11.89083290   93.62819672    4.90999985    2.19000006
   11.89416695   98.24099731    4.90999985    2.19000006
   11.89472198   91.80079651    4.90999985    2.19000006
   11.89777756   97.52380371    4.90999985    2.21000004
   11.90111065   96.00939941    4.90999985    2.19000006
   11.90416622   91.68399811    4.90999985    2.21000004
   11.91027737   91.68399811    4.90999985    2.19000006
   11.91444397   96.16750336    4.90999985    2.19000006
   11.91750050   95.05200195    4.90999985    2.19000006
   11.92083359   92.42649841    4.90999985    2.21000004
   11.92416668   92.18540192    4.90999985    2.21000004
   11.92722225   92.32959747    4.90999985    2.21000004
   11.92805576   90.37699890    4.90999985    2.21000004
   11.93083382  101.20500183    4.90999985    2.21000004
   11.93416691   90.18910217    4.90999985    2.23000002
   11.93722248   93.82129669    4.90999985    2.21000004
   11.94055557   91.14689636    4.90999985    2.21000004
   11.94388866   88.63030243    4.90999985    2.23000002
   11.94694424   95.26029968    4.90999985    2.23000002
   11.95305538   95.26029968    4.90999985    2.23000002
   11.95722198  101.74800110    4.90999985    2.23000002
   11.96055508   88.98049927    4.90999985    2.23000002
   11.96138859   90.64050293    4.90999985    2.23000002
   11.96416664   95.10710144    4.90999985    2.23000002
   11.96749973   94.33129883    4.90999985    2.23000002
   11.97055531   95.42310333    4.90999985    2.25000000
   11.97388840   91.48600006    4.90999985    2.23000002
   11.97722149   93.64949799    4.90999985    2.25000000
   11.98027706   90.35949707    4.90999985    2.23000002
   11.98361111   92.03869629    4.90999985    2.25000000
   11.98694515   94.62239838    4.90999985    2.23000002
   11.99000072   88.12899780    4.90999985    2.23000002
   11.99583340   88.12899780    4.90999985    2.25000000
   12.00000000   91.84249878    4.90999985    2.25000000
   12.00333309   93.05979919    4.90999985    2.25000000
   12.00666714   90.58560181    4.90999985    2.25000000
   12.00972176   90.50039673    4.90999985    2.25000000
   12.01305580   94.17489624    4.90999985    2.25000000
   12.01611137   95.02380371    4.90999985    2.26999998
   12.01944447   89.90799713    4.90999985    2.26999998
   12.02277756   93.70030212    4.90999985    2.25000000
   12.02583313   90.00659943    4.90999985    2.26999998
   12.02805519   92.14700317    4.90999985    2.26999998
   12.02944374   89.33599854    4.90999985    2.26999998
   12.03277779   91.13990021    4.90999985    2.26999998
   12.03888893   91.13990021    4.90999985    2.26999998
   12.04305553   87.28630066    4.90999985    2.28999996
   12.04611111   90.34030151    4.90999985    2.26999998
   12.04944515   88.13140106    4.90999985    2.26999998
   12.05249977   90.75910187    4.90999985    2.28999996
   12.05583382   89.66909790    4.90999985    2.28999996
   12.05916691   86.93789673    4.90999985    2.28999996
   12.06166649   90.05729675    4.90999985    2.28999996
   12.06277752   86.37409973    4.90999985    2.28999996
   12.06611156   85.92700195    4.90999985    2.28999996
   12.06916618   88.32050323    4.90999985    2.28999996
   12.07250023   94.28939819    4.90999985    2.28999996
   12.07583332   85.93430328    4.90999985    2.28999996
   12.08166695   85.93430328    4.90999985    2.28999996
   12.08583260   89.34179688    4.90999985    2.30999994
   12.08888817   90.73010254    4.90999985    2.28999996
   12.09222221   89.43270111    4.90999985    2.30999994
   12.09499931   84.14730072    4.90999985    2.30999994
   12.09583282   95.60910034    4.90999985    2.30999994
   12.09916592   92.56159973    4.90999985    2.30999994
   12.10222244   87.00969696    4.90999985    2.30999994
   12.10555553   90.06659698    4.90999985    2.30999994
   12.10888958   88.02919769    4.90999985    2.30999994
   12.11194515   87.52059937    4.90999985    2.30999994
   12.11527824   93.35179901    4.90999985    2.30999994
   12.11861134   92.32199860    4.90999985    2.30999994
   12.12444496   92.32199860    4.90999985    2.30999994
   12.12861156   88.75630188    4.90999985    2.30999994
   12.13194466   92.80429840    4.90999985    2.32999992
   12.13500023   96.03820038    4.90999985    2.32999992
   12.13833332   86.87779999    4.90999985    2.30999994
   12.14166641   91.72840118    4.90999985    2.32999992
   12.14472198   87.59300232    4.90999985    2.32999992
   12.14805508   88.08110046    4.90999985    2.32999992
   12.15138817   86.98699951    4.90999985    2.32999992
   12.15444374   86.85320282    4.90999985    2.32999992
   12.15777779   93.15119934    4.90999985    2.32999992
   12.16111088   91.38320160    4.90999985    2.32999992
   12.16166592   89.75959778    4.90999985    2.32999992
   12.16722298   89.75959778    4.90999985    2.32999992
   12.17138958   97.25820160    4.90999985    2.32999992
   12.17472267   86.63590240    4.90999985    2.32999992
   12.17805576   94.05899811    4.90999985    2.34999990
   12.18111134   89.96340179    4.90999985    2.34999990
   12.18444443   93.13829803    4.90999985    2.32999992
   12.18750000   92.38800049    4.90999985    2.32999992
   12.19083309   87.97949982    4.90999985    2.34999990
   12.19416714   90.78070068    4.90999985    2.32999992
   12.19499969   92.89320374    4.90999985    2.34999990
   12.19750023   91.35009766    4.90999985    2.34999990
   12.20083332   92.48419952    4.90999985    2.34999990
   12.20416641   89.41510010    4.90999985    2.34999990
   12.21027756   89.41510010    4.90999985    2.36999989
   12.21444416   88.33460236    4.90999985    2.36999989
   12.21749973   94.65740204    4.90999985    2.36999989
   12.22083282   88.69789886    4.90999985    2.36999989
   12.22416592   89.86309814    4.90999985    2.36999989
   12.22722149   94.81929779    4.90999985    2.36999989
   12.22833252   91.48880005    4.90999985    2.36999989
   12.23083305   88.14040375    4.90999985    2.36999989
   12.23416710   93.53459930    4.90999985    2.36999989
   12.23750019   89.34169769    4.90999985    2.34999990
   12.24055576   87.95590210    4.90999985    2.36999989
   12.24388885   91.15789795    4.90999985    2.36999989
   12.24694443   91.89320374    4.90999985    2.36999989
   12.25305557   91.89320374    4.90999985    2.36999989
   12.25722218   89.52799988    4.90999985    2.36999989
   12.26027775   87.77249908    4.90999985    2.36999989
   12.26166630   88.55940247    4.90999985    2.36999989
   12.26388931   88.55139923    4.90999985    2.39000010
   12.26722240   89.42759705    4.90999985    2.36999989
   12.27055550   91.14080048    4.90999985    2.39000010
   12.27361107   94.82479858    4.90999985    2.39000010
   12.27694416   87.27970123    4.90999985    2.39000010
   12.27999973   87.41929626    4.90999985    2.39000010
   12.28333378   86.24469757    4.90999985    2.39000010
   12.28666687   86.06210327    4.90999985    2.39000010
   12.28972244   89.73320007    4.90999985    2.39000010
   12.29583359   89.73320007    4.90999985    2.39000010
   12.30000019   88.65019989    4.90999985    2.39000010
   12.30333328   95.82779694    4.90999985    2.39000010
   12.30638885   92.12599945    4.90999985    2.39000010
   12.30972195   89.35980225    4.90999985    2.39000010
   12.31305599   86.69799805    4.90999985    2.39000010
   12.31611156   91.65689850    4.90999985    2.39000010
   12.31944466   84.23300171    4.90999985    2.40000010
   12.32250023   87.48410034    4.90999985    2.40000010
   12.32583332   86.92030334    4.90999985    2.40000010
   12.32833290   86.66049957    4.90999985    2.40000010
   12.32944393   86.82299805    4.90999985    2.40000010
   12.33277798   87.97789764    4.90999985    2.39000010
   12.33861065   87.97789764    4.90999985    2.40000010
   12.34277725   90.87000275    4.90999985    2.40000010
   12.34611034   86.28800201    4.90999985    2.40000010
   12.34944439   86.88749695    4.90999985    2.40000010
   12.35249996   86.02580261    4.90999985    2.40000010
   12.35583401   91.54129791    4.90999985    2.40000010
   12.35888958   89.63179779    4.90999985    2.40000010
   12.36166668   86.85350037    4.90999985    2.40000010
   12.36250019   91.13359833    4.90999985    2.40000010
   12.36583328   84.29599762    4.90999985    2.40000010
   12.36916637   87.25189972    4.90999985    2.40000010
   12.37222195   92.21869659    4.90999985    2.40000010
   12.37555599   90.80750275    4.90999985    2.40000010
   12.38166714   90.80750275    4.90999985    2.42000008
   12.38583279   86.91030121    4.90999985    2.40000010
   12.38888836   90.95860291    4.90999985    2.42000008
   12.39222240   85.27960205    4.90999985    2.42000008
   12.39499950   87.27510071    4.90999985    2.44000006
   12.39583302   89.34989929    4.90999985    2.42000008
   12.39916611   86.96250153    4.90999985    2.42000008
   12.40249920   94.89589691    4.90999985    2.42000008
   12.40555477   86.95970154    4.90999985    2.44000006
   12.40888882   90.13240051    4.90999985    2.42000008
   12.41194439   87.95860291    4.90999985    2.42000008
   12.41527748   84.20359802    4.90999985    2.42000008
   12.41861153   83.83319855    4.90999985    2.44000006
   12.42444515   83.83319855    4.90999985    2.44000006
   12.42861176   88.20140076    4.90999985    2.42000008
   12.43166733   87.95469666    4.90999985    2.42000008
   12.43500042   91.68659973    4.90999985    2.44000006
   12.43833351   90.59329987    4.90999985    2.44000006
   12.44138908   89.12229919    4.90999985    2.44000006
   12.44472218   89.21160126    4.90999985    2.42000008
   12.44805527   89.44419861    4.90999985    2.44000006
   12.45111084   86.04779816    4.90999985    2.44000006
   12.45444393   87.16709900    4.90999985    2.44000006
   12.45749950   92.17759705    4.90999985    2.46000004
   12.46083355   91.67900085    4.90999985    2.44000006
   12.46166611   92.11370087    4.90999985    2.44000006
   12.46722221   92.11370087    4.90999985    2.46000004
   12.47138882   88.46530151    4.90999985    2.44000006
   12.47472191   90.37809753    4.90999985    2.46000004
   12.47777748   87.15049744    4.90999985    2.46000004
   12.48111057   82.96820068    4.90999985    2.46000004
   12.48444462   84.54840088    4.90999985    2.46000004
   12.48750019   84.75199890    4.90999985    2.46000004
   12.49083328   92.07879639    4.90999985    2.46000004
   12.49416733   91.55480194    4.90999985    2.46000004
   12.49499989   87.88980103    4.90999985    2.46000004
   12.49750042   85.08219910    4.90999985    2.46000004
   12.50083351   89.55039978    4.90999985    2.46000004
   12.50416660   87.22139740    4.90999985    2.46000004
   12.51000023   87.22139740    4.90999985    2.46000004
   12.51416683   89.17829895    4.90999985    2.46000004
   12.51749992   85.84420013    4.90999985    2.46000004
   12.52083302   84.70600128    4.90999985    2.46000004
   12.52388859   85.08280182    4.90999985    2.48000002
   12.52722168   93.97489929    4.90999985    2.48000002
   12.52833271   88.21219635    4.90999985    2.48000002
   12.53055573   90.19599915    4.90999985    2.48000002
   12.53388977   92.79350281    4.90999985    2.48000002
   12.53722286   86.56089783    4.90999985    2.46000004
   12.54027843   85.61519623    4.90999985    2.46000004
   12.54361153   86.96659851    4.90999985    2.46000004
   12.54694462   82.82189941    4.90999985    2.46000004
   12.55305576   82.82189941    4.90999985    2.46000004
   12.55722237   83.03919983    4.90999985    2.46000004
   12.56027794   87.65499878    4.90999985    2.48000002
   12.56166649   91.07099915    4.90999985    2.48000002
   12.56388950   85.85060120    4.90999985    2.48000002
   12.56722260   87.00930023    4.90999985    2.48000002
   12.57055569   85.32119751    4.90999985    2.48000002
   12.57361126   87.33920288    4.90999985    2.48000002
   12.57694435   85.16549683    4.90999985    2.48000002
   12.58027744   85.68419647    4.90999985    2.48000002
   12.58333302   84.80149841    4.90999985    2.46000004
   12.58666611   87.30590057    4.90999985    2.48000002
   12.58972168   90.37339783    4.90999985    2.48000002
   12.59583282   90.37339783    4.90999985    2.50000000
   12.60000038   90.32630157    4.90999985    2.48000002
   12.60305595   91.51300049    4.90999985    2.48000002
   12.60638905   88.25720215    4.90999985    2.48000002
   12.60972214   90.84519958    4.90999985    2.50000000
   12.61277771   86.37329865    4.90999985    2.50000000
   12.61611176   88.35929871    4.90999985    2.48000002
   12.61944485   89.16169739    4.90999985    2.50000000
   12.62250042   88.76409912    4.90999985    2.50000000
   12.62583351   86.88390350    4.90999985    2.50000000
   12.62833309   90.02279663    4.90999985    2.50000000
   12.62916660   88.17330170    4.90999985    2.50000000
   12.63249969   85.74179840    4.90999985    2.50000000
   12.63861084   85.74179840    4.90999985    2.50000000
   12.64277744   83.14610291    4.90999985    2.50000000
   12.64611053   86.56390381    4.90999985    2.50000000
   12.64916611   86.43150330    4.90999985    2.50000000
   12.65249920   87.03289795    4.90999985    2.50000000
   12.65583324   88.32820129    4.90999985    2.51999998
   12.65888882   82.27870178    4.90999985    2.50000000
   12.66166592   86.99849701    4.90999985    2.51999998
   12.66249943   88.79460144    4.90999985    2.50000000
   12.66583252   87.84729767    4.90999985    2.50000000
   12.66916656   86.71820068    4.90999985    2.50000000
   12.67222214   93.75710297    4.90999985    2.50000000
   12.67555618   96.74810028    4.90999985    2.50000000
   12.68138885   96.74810028    4.90999985    2.51999998
   12.68555546   85.78050232    4.90999985    2.50000000
   12.68888855   85.68460083    4.90999985    2.51999998
   12.69222260   82.99490356    4.90999985    2.50000000
   12.69499969   86.77549744    4.90999985    2.50000000
   12.69555569   85.27539825    4.90999985    2.51999998
   12.69888878   85.39880371    4.90999985    2.51999998
   12.70222187   88.16130066    4.90999985    2.51999998
   12.70527744   85.74510193    4.90999985    2.51999998
   12.70861053   92.05020142    4.90999985    2.51999998
   12.71194458   89.01920319    4.90999985    2.51999998
   12.71500015   86.73950195    4.90999985    2.51999998
   12.71833324   88.13690186    4.90999985    2.51999998
   12.72444439   88.13690186    4.90999985    2.51999998
   12.72861099   84.76300049    4.90999985    2.51999998
   12.73166656   88.57959747    4.90999985    2.53999996
   12.73500061   83.63549805    4.90999985    2.51999998
   12.73805618   92.28189850    4.90999985    2.51999998
   12.74138927   88.01399994    4.90999985    2.53999996
   12.74472237   89.98490143    4.90999985    2.51999998
   12.74777794   88.02459717    4.90999985    2.53999996
   12.75111103   89.99189758    4.90999985    2.51999998
   12.75444412   90.55660248    4.90999985    2.53999996
   12.75749969   85.46839905    4.90999985    2.53999996
   12.76083374   88.70800018    4.90999985    2.51999998
   12.76166630   83.40049744    4.90999985    2.53999996
   12.78222179   83.40049744    4.90999985    2.53999996
   12.78638935   85.85910034    4.90999985    2.53999996
   12.78972244   86.29419708    4.90999985    2.53999996
   12.79277802   89.87129974    4.90999985    2.53999996
   12.79500008   87.06259918    4.90999985    2.53999996
   12.79666710   88.77420044    4.90999985    2.53999996
   12.79972267   83.08229828    4.90999985    2.53999996
   12.80305576   92.40940094    4.90999985    2.53999996
   12.80611134   81.52970123    4.90999985    2.53999996
   12.80944443   81.98300171    4.90999985    2.53999996
   12.81277752   84.94670105    4.90999985    2.55999994
   12.81583309   83.65889740    4.90999985    2.55999994
   12.81916618   87.30899811    4.90999985    2.53999996
   12.82499981   87.30899811    4.90999985    2.53999996
   12.82916641   83.32769775    4.90999985    2.53999996
   12.83249950   85.90959930    4.90999985    2.53999996
   12.83555508   85.10910034    4.90999985    2.55999994
   12.83888817   82.25720215    4.90999985    2.55999994
   12.84194374   83.40689850    4.90999985    2.55999994
   12.84527779   83.65660095    4.90999985    2.55999994
   12.84861088   90.57559967    4.90999985    2.55999994
   12.85166740   89.37200165    4.90999985    2.55999994
   12.85500050   88.91670227    4.90999985    2.55999994
   12.85833359   92.35849762    4.90999985    2.55999994
   12.86138916   85.12629700    4.90999985    2.55999994
   12.86194515   85.84190369    4.90999985    2.55999994
   12.86777782   85.84190369    4.90999985    2.55999994
   12.87194443   86.08460236    4.90999985    2.53999996
   12.87527752   83.12999725    4.90999985    2.57999992
   12.87833309   84.90139771    4.90999985    2.55999994
   12.88166714   83.92230225    4.90999985    2.55999994
   12.88500023   84.67220306    4.90999985    2.55999994
   12.88805580   88.59919739    4.90999985    2.55999994
   12.89138889   83.81639862    4.90999985    2.55999994
   12.89472198   81.55359650    4.90999985    2.55999994
   12.89527798   83.94589996    4.90999985    2.55999994
   12.89833355   83.68309784    4.90999985    2.55999994
   12.90166664   82.28700256    4.90999985    2.55999994
   12.90472221   86.69570160    4.90999985    2.55999994
   12.91083336   86.69570160    4.90999985    2.55999994
   12.91472149   82.96389771    4.90999985    2.57999992
   12.91805553   85.67890167    4.90999985    2.55999994
   12.92138958   85.69180298    4.90999985    2.57999992
   12.92444515   80.42720032    4.90999985    2.57999992
   12.92777824   83.78690338    4.90999985    2.55999994
   12.92861176   84.50109863    4.90999985    2.57999992
   12.93138885   88.40170288    4.90999985    2.57999992
   12.93444443   88.70149994    4.90999985    2.57999992
   12.93777752   85.42960358    4.90999985    2.59999990
   12.94111156   87.89869690    4.90999985    2.57999992
   12.94416714   84.31890106    4.90999985    2.57999992
   12.94750023   84.30829620    4.90999985    2.57999992
   12.95361137   84.30829620    4.90999985    2.57999992
   12.95777798   90.26519775    4.90999985    2.57999992
   12.96083355   81.95800018    4.90999985    2.57999992
   12.96194458   86.62779999    4.90999985    2.57999992
   12.96472168   85.00479889    4.90999985    2.57999992
   12.96777725   86.77529907    4.90999985    2.57999992
   12.97111034   87.00939941    4.90999985    2.57999992
   12.97444439   85.77839661    4.90999985    2.57999992
   12.97749996   84.66410065    4.90999985    2.57999992
   12.98083305   83.46640015    4.90999985    2.57999992
   12.98416710   80.46810150    4.90999985    2.57999992
   12.98722267   87.22899628    4.90999985    2.59999990
   12.99055576   86.93890381    4.90999985    2.59999990
   12.99638939   86.93890381    4.90999985    2.57999992
   13.00055599   80.49539948    4.90999985    2.59999990
   13.00361156   84.35549927    4.90999985    2.57999992
   13.00694466   84.60109711    4.90999985    2.59999990
   13.01027775   94.83100128    4.90999985    2.59999990
   13.01333332   93.68800354    4.90999985    2.57999992
   13.01666641   84.65560150    4.90999985    2.59999990
   13.01999950   88.64700317    4.90999985    2.59999990
   13.02305508   84.84130096    4.90999985    2.59999990
   13.02638817   84.80259705    4.90999985    2.59999990
   13.02861118   87.70069885    4.90999985    2.59999990
   13.02999973  165.94599915    4.90999985    2.59999990
   13.03305531   85.86460114    4.90999985    2.59999990
   13.03916740   85.86460114    4.90999985    2.59999990
   13.04333401   84.92179871    4.90999985    2.59999990
   13.04666710   88.05850220    4.90999985    2.59999990
   13.04972267   90.64309692    4.90999985    2.59999990
   13.05305576   82.01460266    4.90999985    2.59999990
   13.05638885   85.87370300    4.90999985    2.59999990
   13.05944443   92.47380066    4.90999985    2.59999990
   13.06194496   79.25260162    4.90999985    2.59999990
   13.06333351   84.08499908    4.90999985    2.59999990
   13.06638908   86.94640350    4.90999985    2.59999990
   13.06972218   81.57520294    4.90999985    2.59999990
   13.07305527   88.02639771    4.90999985    2.59999990
   13.07611084   87.46489716    4.90999985    2.59999990
   13.08194447   87.46489716    4.90999985    2.59999990
   13.08611107   85.48600006    4.90999985    2.61999989
   13.08944416   80.82009888    4.90999985    2.61999989
   13.09277725   82.62069702    4.90999985    2.59999990
   13.09527779   80.82700348    4.90999985    2.61999989
   13.09638882   84.34100342    4.90999985    2.59999990
   13.09944439   79.16780090    4.90999985    2.61999989
   13.10277843   84.04699707    4.90999985    2.59999990
   13.10611153   81.76719666    4.90999985    2.61999989
   13.10916710   91.77300262    4.90999985    2.61999989
   13.11250019   86.15280151    4.90999985    2.61999989
   13.11583328   82.20729828    4.90999985    2.59999990
   13.11888885   84.79779816    4.90999985    2.61999989
   13.12500000   84.79779816    4.90999985    2.61999989
   13.12916660   84.91100311    4.90999985    2.61999989
   13.13222218   83.39299774    4.90999985    2.61999989
   13.13555527   85.49069977    4.90999985    2.61999989
   13.13888836   92.44989777    4.90999985    2.61999989
   13.14194393   93.53679657    4.90999985    2.61999989
   13.14527798   87.57900238    4.90999985    2.59999990
   13.14833355   84.20980072    4.90999985    2.61999989
   13.15166664   83.97399902    4.90999985    2.61999989
   13.15499973   83.94190216    4.90999985    2.61999989
   13.15805531   85.02819824    4.90999985    2.64000010
   13.16138840   85.74130249    4.90999985    2.64000010
   13.16194439   83.19059753    4.90999985    2.61999989
   13.16777802   83.19059753    4.90999985    2.61999989
   13.17194462   86.17859650    4.90999985    2.64000010
   13.17500019   83.28220367    4.90999985    2.61999989
   13.17833328   78.66069794    4.90999985    2.61999989
   13.18166733   86.39340210    4.90999985    2.61999989
   13.18472195   84.97000122    4.90999985    2.61999989
   13.18805599   87.18419647    4.90999985    2.64000010
   13.19138908   81.39649963    4.90999985    2.64000010
   13.19444466   81.46350098    4.90999985    2.64000010
   13.19527817   85.30439758    4.90999985    2.64000010
   13.19805527   87.01709747    4.90999985    2.64000010
   13.20111084   85.74710083    4.90999985    2.64000010
   13.20444393   84.13189697    4.90999985    2.61999989
   13.21055508   84.13189697    4.90999985    2.64000010
   13.21472168   84.32089996    4.90999985    2.64000010
   13.21805477   87.43589783    4.90999985    2.64000010
   13.22111034   84.53820038    4.90999985    2.64000010
   13.22444439   88.63320160    4.90999985    2.64000010
   13.22777748   91.43409729    4.90999985    2.64000010
   13.22861099   83.35399628    4.90999985    2.64000010
   13.23138809   84.54740143    4.90999985    2.64000010
   13.23472214   81.74369812    4.90999985    2.64000010
   13.23777771   82.69309998    4.90999985    2.64000010
   13.24111176   85.25779724    4.90999985    2.64000010
   13.24416733   87.30380249    4.90999985    2.64000010
   13.24750042   83.79380035    4.90999985    2.64000010
   13.25361156   83.79380035    4.90999985    2.64000010
   13.25749969   83.21340179    4.90999985    2.64000010
   13.26083374   80.98370361    4.90999985    2.64000010
   13.26194477   84.34249878    4.90999985    2.66000009
   13.26444435   81.51210022    4.90999985    2.64000010
   13.26749992   87.43679810    4.90999985    2.64000010
   13.27083302   84.79340363    4.90999985    2.64000010
   13.27416611   84.09410095    4.90999985    2.64000010
   13.27722168   85.14450073    4.90999985    2.64000010
   13.28055573   84.68399811    4.90999985    2.64000010
   13.28388977   82.59559631    4.90999985    2.64000010
   13.28694534   88.01260376    4.90999985    2.64000010
   13.29027843   84.79139709    4.90999985    2.66000009
   13.29638958   84.79139709    4.90999985    2.64000010
   13.30055618   87.70819855    4.90999985    2.66000009
   13.30361176   85.39140320    4.90999985    2.64000010
   13.30694485   85.88780212    4.90999985    2.64000010
   13.31000042   84.07779694    4.90999985    2.64000010
   13.31333351   90.86609650    4.90999985    2.66000009
   13.31666660   85.97200012    4.90999985    2.66000009
   13.31972218   90.02819824    4.90999985    2.66000009
   13.32305527   90.72389984    4.90999985    2.66000009
   13.32638836   96.62789917    4.90999985    2.66000009
   13.32861137   94.24749756    4.90999985    2.66000009
   13.32999992   94.14199829    4.90999985    2.66000009
   13.33333302   88.54720306    4.90999985    2.66000009
   13.33916664   88.54720306    4.90999985    2.66000009
   13.34333324   86.89029694    4.90999985    2.66000009
   13.34666634   90.98719788    4.90999985    2.66000009
   13.34972191   84.42220306    4.90999985    2.67000008
   13.35305595   79.55370331    4.90999985    2.66000009
   13.35611153   89.77079773    4.90999985    2.66000009
   13.35944462   79.01499939    4.90999985    2.66000009
   13.36194515   83.85260010    4.90999985    2.66000009
   13.36305618   91.89260101    4.90999985    2.66000009
   13.36638927   84.47039795    4.90999985    2.66000009
   13.36944485   85.09639740    4.90999985    2.66000009
   13.37277794   88.86180115    4.90999985    2.67000008
   13.37583351   86.07550049    4.90999985    2.67000008
   13.38194466   86.07550049    4.90999985    2.67000008
   13.38611126   89.22779846    4.90999985    2.66000009
   13.38944435   86.55549622    4.90999985    2.67000008
   13.39249992   87.16580200    4.90999985    2.66000009
   13.39527798   95.04180145    4.90999985    2.66000009
   13.39638901   86.40319824    4.90999985    2.66000009
   13.39972210   92.22149658    4.90999985    2.67000008
   13.40277767   92.05429840    4.90999985    2.66000009
   13.40611076   88.88079834    4.90999985    2.67000008
   13.40916634   82.92749786    4.90999985    2.67000008
   13.41249943   93.94470215    4.90999985    2.67000008
   13.41583252   90.33039856    4.90999985    2.67000008
   13.41888905   82.37229919    4.90999985    2.67000008
   13.42500019   82.37229919    4.90999985    2.67000008
   13.42888927   82.74320221    4.90999985    2.66000009
   13.43222237   85.82689667    4.90999985    2.67000008
   13.43555546   87.93990326    4.90999985    2.67000008
   13.43861103   83.14040375    4.90999985    2.67000008
   13.44194412   89.54540253    4.90999985    2.67000008
   13.44499969  101.84100342    4.90999985    2.67000008
   13.44833374   83.98680115    4.90999985    2.67000008
   13.45166683   88.62920380    4.90999985    2.67000008
   13.45472240   85.29250336    4.90999985    2.67000008
   13.45805550   83.88230133    4.90999985    2.67000008
   13.46138859   82.62989807    4.90999985    2.67000008
   13.46194458   87.73120117    4.90999985    2.67000008
   13.46777725   87.73120117    4.90999985    2.67000008
   13.47194386   84.39250183    4.90999985    2.66000009
   13.47499943   85.85890198    4.90999985    2.67000008
   13.47833252   82.74150085    4.90999985    2.67000008
   13.48138809   92.37580109    4.90999985    2.67000008
   13.48472214   89.51380157    4.90999985    2.69000006
   13.48805618   82.70050049    4.90999985    2.67000008
   13.49138927   88.44699860    4.90999985    2.67000008
   13.49444485   90.13400269    4.90999985    2.67000008
   13.49527836   90.08429718    4.90999985    2.69000006
   13.49805546   92.28160095    4.90999985    2.67000008
   13.50138855   90.42240143    4.90999985    2.67000008
   13.50444412   83.89179993    4.90999985    2.67000008
   13.51055527   83.89179993    4.90999985    2.67000008
   13.51472187   84.47579956    4.90999985    2.69000006
   13.51777744   92.95590210    4.90999985    2.67000008
   13.52111053   81.49649811    4.90999985    2.67000008
   13.52444458   81.12020111    4.90999985    2.67000008
   13.52750015   95.38950348    4.90999985    2.67000008
   13.52861118   91.87920380    4.90999985    2.67000008
   13.53111076   86.10780334    4.90999985    2.69000006
   13.53444481   87.70839691    4.90999985    2.69000006
   13.53750038   82.46710205    4.90999985    2.69000006
   13.54083347   92.62090302    4.90999985    2.67000008
   13.54388905   83.21800232    4.90999985    2.69000006
   13.54722309   84.70130157    4.90999985    2.69000006
   13.55333328   84.70130157    4.90999985    2.69000006
   13.55749989   83.67620087    4.90999985    2.69000006
   13.56083393   92.17009735    4.90999985    2.69000006
   13.56194496   86.28659821    4.90999985    2.69000006
   13.56444454   87.09210205    4.90999985    2.69000006
   13.56777763   81.45200348    4.90999985    2.69000006
   13.57083321   89.32810211    4.90999985    2.69000006
   13.57416630   89.66400146    4.90999985    2.69000006
   13.57722187   76.14270020    4.90999985    2.69000006
   13.58055592   89.67189789    4.90999985    2.69000006
   13.58388901   95.96009827    4.90999985    2.69000006
   13.58694458   90.84420013    4.90999985    2.69000006
   13.59027767   97.60659790    4.90999985    2.69000006
   13.59638882   97.60659790    4.90999985    2.69000006
   13.60027790   91.22830200    4.90999985    2.69000006
   13.60361195   94.73179626    4.90999985    2.69000006
   13.60694504   96.40989685    4.90999985    2.69000006
   13.61000061   88.86039734    4.90999985    2.69000006
   13.61333370  100.48600006    4.90999985    2.71000004
   13.61638927   84.74770355    4.90999985    2.69000006
   13.61972237   88.65249634    4.90999985    2.71000004
   13.62305546   88.38430023    4.90999985    2.69000006
   13.62611103   88.66059875    4.90999985    2.71000004
   13.62861156   83.03929901    4.90999985    2.71000004
   13.62972260   91.00759888    4.90999985    2.69000006
   13.63305569   84.16100311    4.90999985    2.69000006
   13.63916683   84.16100311    4.90999985    2.71000004
   13.64333344   88.57050323    4.90999985    2.71000004
   13.64638901   89.19270325    4.90999985    2.71000004
   13.64972210   82.39900208    4.90999985    2.71000004
   13.65277767   96.07910156    4.90999985    2.71000004
   13.65611076   86.14749908    4.90999985    2.69000006
   13.65944386   82.14050293    4.90999985    2.71000004
   13.66194439   91.68509674    4.90999985    2.69000006
   13.66305542   79.54660034    4.90999985    2.71000004
   13.66638851   92.80729675    4.90999985    2.71000004
   13.66944504   78.31469727    4.90999985    2.71000004
   13.67277813   83.78289795    4.90999985    2.69000006
   13.67583370   86.97489929    4.90999985    2.71000004
   13.68194485   86.97489929    4.90999985    2.71000004
   13.68611145   83.27189636    4.90999985    2.71000004
   13.68916702   84.63569641    4.90999985    2.71000004
   13.69250011   84.89540100    4.90999985    2.71000004
   13.69527817   87.28389740    4.90999985    2.71000004
   13.69611073   85.34169769    4.90999985    2.71000004
   13.69944477   86.49980164    4.90999985    2.71000004
   13.70249939   90.02100372    4.90999985    2.71000004
   13.70583344   94.85890198    4.90999985    2.71000004
   13.70888901   93.35839844    4.90999985    2.71000004
   13.71222210   90.97299957    4.90999985    2.71000004
   13.71555519   80.61340332    4.90999985    2.71000004
   13.71861076   91.35250092    4.90999985    2.71000004
   13.72472191   91.35250092    4.90999985    2.71000004
   13.72888851   83.27570343    4.90999985    2.71000004
   13.73222160   89.50250244    4.90999985    2.71000004
   13.73527813   94.74579620    4.90999985    2.71000004
   13.73861122   92.89420319    4.90999985    2.71000004
   13.74194431   86.53430176    4.90999985    2.71000004
   13.74499989   91.78829956    4.90999985    2.73000002
   13.74833393   90.20420074    4.90999985    2.71000004
   13.75138855   89.36360168    4.90999985    2.71000004
   13.75472260   95.31060028    4.90999985    2.71000004
   13.75805569   87.91719818    4.90999985    2.71000004
   13.76111126   97.77079773    4.90999985    2.71000004
   13.76194477   93.46080017    4.90999985    2.71000004
   13.76777744   93.46080017    4.90999985    2.71000004
   13.77166653   94.72720337    4.90999985    2.71000004
   13.77499962   93.24469757    4.90999985    2.71000004
   13.77833271   97.42469788    4.90999985    2.71000004
   13.79583359   92.73290253    4.90999985    2.73000002
   13.79805565   92.84300232    4.90999985    2.71000004
   13.80138874   96.38760376    4.90999985    2.71000004
   13.80472279   89.14810181    4.90999985    2.71000004
   13.81055546   89.14810181    4.90999985    2.73000002
   13.81472206  101.91999817    4.90999985    2.73000002
   13.81805515   92.41539764    4.90999985    2.73000002
   13.82111073   94.13970184    4.90999985    2.71000004
   13.82444477   88.87629700    4.90999985    2.71000004
   13.82777786   95.74539948    4.90999985    2.71000004
   13.82888889   85.97260284    4.90999985    2.73000002
   13.83138847   93.48739624    4.90999985    2.73000002
   13.83472157   92.28510284    4.90999985    2.71000004
   13.83805561   95.51840210    4.90999985    2.73000002
   13.84111118   93.94979858    4.90999985    2.73000002
   13.84444427   96.79879761    4.90999985    2.73000002
   13.84749985   93.10420227    4.90999985    2.71000004
   13.85361195   93.10420227    4.90999985    2.71000004
   13.85750008   88.38449860    4.90999985    2.73000002
   13.86083412   90.82589722    4.90999985    2.73000002
   13.86222267   91.02860260    4.90999985    2.75000000
   13.86444473   94.78829956    4.90999985    2.73000002
   13.86777782   99.17369843    4.90999985    2.71000004
   13.87083340   94.05909729    4.90999985    2.73000002
   13.87416649  103.04499817    4.90999985    2.73000002
   13.87750053   92.65730286    4.90999985    2.73000002
   13.88055611   94.38639832    4.90999985    2.73000002
   13.88388920   84.51840210    4.90999985    2.73000002
   13.88694477   98.46589661    4.90999985    2.73000002
   13.89027786   92.62599945    4.90999985    2.73000002
   13.89638901   92.62599945    4.90999985    2.75000000
   13.90055561   93.67900085    4.90999985    2.73000002
   13.90361118   97.27259827    4.90999985    2.75000000
   13.90694427   97.54180145    4.90999985    2.73000002
   13.91027737   99.50170135    4.90999985    2.73000002
   13.91333294   92.25720215    4.90999985    2.73000002
   13.91666698   98.81520081    4.90999985    2.73000002
   13.91972256   96.82720184    4.90999985    2.73000002
   13.92305565  108.08399963    4.90999985    2.73000002
   13.92638874  109.55599976    4.90999985    2.75000000
   13.92916679   85.82009888    4.90999985    2.73000002
   13.93000031   95.20570374    4.90999985    2.75000000
   13.93333340  103.02200317    4.90999985    2.75000000
   13.93916702  103.02200317    4.90999985    2.73000002
   13.94333363  106.36000061    4.90999985    2.73000002
   13.94666672  104.05699921    4.90999985    2.73000002
   13.94972229  104.33699799    4.90999985    2.75000000
   13.95305538  106.74800110    4.90999985    2.73000002
   13.95611095  102.60600281    4.90999985    2.73000002
   13.95944405  107.87300110    4.90999985    2.73000002
   13.96249962  103.24900055    4.90999985    2.73000002
   13.96305561  108.44599915    4.90999985    2.73000002
   13.96638870   96.04329681    4.90999985    2.73000002
   13.96944427   96.65599823    4.90999985    2.73000002
   13.97277737  102.86699677    4.90999985    2.75000000
   13.97611046  108.86900330    4.90999985    2.75000000
   13.98194408  108.86900330    4.90999985    2.73000002
   13.98611164  109.59500122    4.90999985    2.73000002
   13.98944473  108.14900208    4.90999985    2.75000000
   13.99250031   96.21230316    4.86999989    2.75000000
   13.99583340  104.67199707    3.46000004    2.75000000
   13.99611092  106.04699707    3.46000004    2.75000000
   13.99944496  108.08599854    2.34999990    2.75000000
   14.00277805  103.70800018    1.44000006    2.75000000
   14.00583363  107.33599854    1.13000000    2.75000000
   14.00916672  102.77700043    0.70999998    2.75000000
   14.01249981  101.69400024    0.67000002    2.73000002
   14.01555538   93.36380005    0.31999999    2.75000000
   14.01888847   97.74900055    0.25000000    2.75000000
   14.02499962   97.74900055    0.17000000    2.75000000
   14.02916622   98.87979889    0.13000000    2.75000000
   14.02944374   97.14209747    0.13000000    2.75000000
   14.03277779   98.11990356    0.11000000    2.75000000
   14.03583336  102.34300232    0.11000000    2.75000000
   14.03916740   99.95269775    0.11000000    2.75000000
   14.04250050   99.34259796    0.11000000    2.75000000
   14.04555607  101.64099884    0.11000000    2.75000000
   14.04888916   90.19360352    0.11000000    2.75000000
   14.05222225   99.96939850    0.11000000    2.75000000
   14.05527782  104.30300140    0.11000000    2.75000000
   14.05861092  101.52200317    0.11000000    2.75000000
   14.06166649  101.98699951    0.11000000    2.75000000
   14.06250000  103.28700256    0.11000000    2.75000000
   14.06777763  103.28700256    0.09000000    2.75000000
   14.07194424  100.84899902    0.09000000    2.75000000
   14.07499981  103.72899628    0.09000000    2.75000000
   14.07833290   98.77279663    0.09000000    2.76999998
   14.08166695  102.19200134    0.09000000    2.75000000
   14.08472157  110.22599792    0.09000000    2.75000000
   14.08805561  100.78600311    0.11000000    2.75000000
   14.09111118  100.71499634    0.11000000    2.75000000
   14.09444427  106.25399780    0.09000000    2.75000000
   14.09583282   92.63619995    0.09000000    2.73000002
   14.09805489   92.68789673    0.09000000    2.75000000
   14.10138893   95.46880341    0.09000000    2.75000000
   14.10444450   95.35289764    0.11000000    2.75000000
   14.11055565   95.35289764    0.09000000    2.75000000
   14.11472225  103.72599792    0.09000000    2.75000000
   14.11805534   99.31140137    0.09000000    2.75000000
   14.12111092   98.45089722    0.09000000    2.75000000
   14.12444496   88.80960083    0.09000000    2.75000000
   14.12750053   93.91369629    0.09000000    2.75000000
   14.12916660   92.30229950    0.09000000    2.75000000
   14.13111115   93.76349640    0.09000000    2.75000000
   14.13444424  103.90000153    0.09000000    2.75000000
   14.13777733   96.60140228    0.09000000    2.75000000
   14.14083290  100.19100189    0.09000000    2.75000000
   14.14416695   94.66089630    0.09000000    2.75000000
   14.14722252   93.58529663    0.09000000    2.75000000
   14.15333271   93.58529663    0.09000000    2.75000000
   14.15749931   99.35150146    0.09000000    2.76999998
   14.16083336  106.37899780    0.09000000    2.75000000
   14.16249943  102.26100159    0.09000000    2.75000000
   14.16444397   96.47450256    0.09000000    2.75000000
   14.16777802  106.48600006    0.09000000    2.75000000
   14.17111111   99.45790100    0.09000000    2.75000000
   14.17416668   94.85289764    0.09000000    2.75000000
   14.17750072   98.33899689    0.09000000    2.75000000
   14.18055630   98.37049866    0.09000000    2.75000000
   14.18388939   80.27860260    0.09000000    2.75000000
   14.18722248  101.61599731    0.07000000    2.75000000
   14.19027805  101.36299896    0.07000000    2.76999998
   14.19638920  101.36299896    0.07000000    2.75000000
   14.20027733  103.65100098    0.07000000    2.76999998
   14.20361137   88.47540283    0.09000000    2.75000000
   14.20694447   88.87239838    0.07000000    2.76999998
   14.21000004  101.40299988    0.07000000    2.76999998
   14.21333313   96.14379883    0.07000000    2.76999998
   14.21666622   99.25620270    0.09000000    2.76999998
   14.21972179  102.00099945    0.07000000    2.75000000
   14.22305489   94.79689789    0.07000000    2.76999998
   14.22611046   97.22940063    0.07000000    2.76999998
   14.22916603   94.16470337    0.07000000    2.76999998
   14.22972202   90.63539886    0.07000000    2.76999998
   14.23305511  109.13500214    0.07000000    2.76999998
   14.23916721  109.13500214    0.07000000    2.76999998
   14.24333382   95.10040283    0.07000000    2.76999998
   14.24638939   99.42240143    0.07000000    2.75000000
   14.24972248   97.96109772    0.07000000    2.76999998
   14.25305557   90.96070099    0.07000000    2.76999998
   14.25611115   98.78269958    0.07000000    2.76999998
   14.25944424  100.07599640    0.07000000    2.76999998
   14.26249981   98.38950348    0.07000000    2.78999996
   14.26305580  110.45200348    0.07000000    2.76999998
   14.26638889  100.06400299    0.07000000    2.76999998
   14.26972198   94.76239777    0.07000000    2.76999998
   14.27277756  102.85600281    0.07000000    2.78999996
   14.27611065   94.96489716    0.05000000    2.78999996
   14.28194427   94.96489716    0.05000000    2.76999998
   14.28611183   91.54740143    0.07000000    2.76999998
   14.28944492   91.16249847    0.07000000    2.76999998
   14.29250050  101.79000092    0.05000000    2.76999998
   14.29583359   92.24960327    0.07000000    2.76999998
   14.29611111   96.30319977    0.07000000    2.76999998
   14.29944515   93.35340118    0.05000000    2.76999998
   14.30277824   84.93019867    0.07000000    2.76999998
   14.30583382   98.58760071    0.05000000    2.76999998
   14.30916691   94.80609894    0.05000000    2.76999998
   14.31222248   93.14009857    0.07000000    2.78999996
   14.31555557   87.21479797    0.05000000    2.78999996
   14.31888866   92.34690094    0.07000000    2.78999996
   14.32472229   92.34690094    0.05000000    2.76999998
   14.32888889   96.12390137    0.05000000    2.78999996
   14.32944393   96.39240265    0.05000000    2.76999998
   14.33277798  102.40399933    0.05000000    2.78999996
   14.33583260  100.57199860    0.07000000    2.76999998
   14.33916664  107.00700378    0.05000000    2.76999998
   14.34249973   89.88310242    0.05000000    2.78999996
   14.34555531   98.33460236    0.05000000    2.76999998
   14.34888840  108.93399811    0.05000000    2.78999996
   14.35194492  103.56300354    0.07000000    2.78999996
   14.35527802  100.87799835    0.05000000    2.76999998
   14.35861111   94.70339966    0.07000000    2.76999998
   14.36166668   92.35140228    0.05000000    2.76999998
   14.36277771   87.04370117    0.05000000    2.76999998
   14.36777782   87.04370117    0.05000000    2.76999998
   14.37166691   93.75949860    0.07000000    2.76999998
   14.37500000   90.45200348    0.07000000    2.76999998
   14.37833309   93.32849884    0.07000000    2.78999996
   14.38138866   94.95059967    0.07000000    2.78999996
   14.38472176   92.76460266    0.05000000    2.78999996
   14.38805580   99.25640106    0.05000000    2.78999996
   14.39111137  104.73999786    0.05000000    2.78999996
   14.39444447   97.00599670    0.07000000    2.78999996
   14.39611053  101.61799622    0.07000000    2.78999996
   14.39805508   99.43800354    0.05000000    2.78999996
   14.40111065  101.51399994    0.05000000    2.78999996
   14.40444374   97.35320282    0.05000000    2.78999996
   14.41055489   97.35320282    0.07000000    2.78999996
   14.41472149  107.70099640    0.07000000    2.78999996
   14.41777802   97.08350372    0.07000000    2.78999996
   14.42111111   97.35150146    0.05000000    2.78999996
   14.42416668   91.78369904    0.05000000    2.78999996
   14.42750072   99.53410339    0.07000000    2.78999996
   14.42944431   92.17749786    0.05000000    2.78999996
   14.43138885  116.13500214    0.05000000    2.78999996
   14.43444443  105.92299652    0.07000000    2.78999996
   14.43777752   98.31130219    0.05000000    2.78999996
   14.44111156  104.98300171    0.07000000    2.78999996
   14.44416714   92.58280182    0.05000000    2.76999998
   14.44750023   97.70159912    0.05000000    2.78999996
   14.45333290   97.70159912    0.05000000    2.78999996
   14.45749950  102.76799774    0.05000000    2.78999996
   14.46055508  105.00199890    0.05000000    2.78999996
   14.46277714  108.09799957    0.05000000    2.78999996
   14.46444416   96.91300201    0.05000000    2.78999996
   14.46749973  105.32099915    0.05000000    2.78999996
   14.47083282  113.38500214    0.05000000    2.78999996
   14.47416592  101.84300232    0.05000000    2.78999996
   14.47722149   99.03549957    0.05000000    2.78999996
   14.48055553  115.48400116    0.05000000    2.78999996
   14.48361111  103.68900299    0.05000000    2.78999996
   14.48694515  107.44699860    0.05000000    2.78999996
   14.49027824   95.05500031    0.05000000    2.80999994
   14.49611092   95.05500031    0.05000000    2.78999996
   14.50027752   95.85320282    0.05000000    2.78999996
   14.50361156  107.61900330    0.05000000    2.78999996
   14.50666714  105.61499786    0.05000000    2.78999996
   14.51000023  108.31900024    0.05000000    2.78999996
   14.51333332  108.15000153    0.05000000    2.78999996
   14.51638889  114.83799744    0.05000000    2.78999996
   14.51972198   95.85600281    0.05000000    2.78999996
   14.52277756  104.66000366    0.05000000    2.78999996
   14.52611065  103.65000153    0.03000000    2.78999996
   14.52944374   99.23000336    0.05000000    2.78999996
   14.52999973  100.49600220    0.05000000    2.78999996
   14.53305531   96.72170258    0.03000000    2.80999994
   14.53888893   96.72170258    0.05000000    2.80999994
   14.54305553  101.95999908    0.03000000    2.78999996
   14.54638958  103.63999939    0.03000000    2.78999996
   14.54972267  106.90599823    0.05000000    2.80999994
   14.55277824  101.30000305    0.03000000    2.80999994
   14.55611134  103.88300323    0.05000000    2.80999994
   14.55916691  105.63600159    0.03000000    2.78999996
   14.56250000  107.36000061    0.03000000    2.80999994
   14.56333351  108.12500000    0.05000000    2.80999994
   14.56611156  105.95800018    0.03000000    2.78999996
   14.56944466  111.37300110    0.03000000    2.78999996
   14.57277775   94.03040314    0.05000000    2.78999996
   14.57583332   93.98149872    0.03000000    2.78999996
   14.58194447   93.98149872    0.05000000    2.78999996
   14.58611107   80.37020111    0.05000000    2.80999994
   14.58916664   99.08640289    0.03000000    2.80999994
   14.59249973   96.45249939    0.03000000    2.80999994
   14.59555531   98.77529907    0.03000000    2.78999996
   14.59666634  100.68000031    0.05000000    2.80999994
   14.59916592   88.04669952    0.03000000    2.78999996
   14.60249996   88.71970367    0.03000000    2.80999994
   14.60583401   94.11679840    0.03000000    2.80999994
   14.60888958   91.31099701    0.03000000    2.80999994
   14.61222267   90.15589905    0.03000000    2.78999996
   14.61527824  102.73999786    0.03000000    2.78999996
   14.61861134   99.11599731    0.03000000    2.78999996
   14.62472248   99.11599731    0.03000000    2.80999994
   14.62888908  109.17900085    0.03000000    2.80999994
   14.63000011   98.71929932    0.03000000    2.80999994
   14.63249969   94.76300049    0.03000000    2.78999996
   14.63583279   93.59559631    0.03000000    2.80999994
   14.63916683   99.99919891    0.03000000    2.80999994
   14.64222240   95.31169891    0.03000000    2.80999994
   14.64555550   93.68650055    0.03000000    2.80999994
   14.64861107   97.60980225    0.03000000    2.80999994
   14.65194416  100.86699677    0.03000000    2.80999994
   14.65527725  100.43800354    0.03000000    2.80999994
   14.65833282  103.05999756    0.03000000    2.80999994
   14.66194439   99.32250214    0.03000000    2.82999992
   14.66333294   92.36979675    0.03000000    2.82999992
   14.66750050   92.36979675    0.03000000    2.82999992
   14.67166710   97.57939911    0.03000000    2.80999994
   14.67500019   93.82839966    0.01000000    2.80999994
   14.67805576  101.25199890    0.03000000    2.78999996
   14.68138885   88.24310303    0.01000000    2.78999996
   14.68472195  101.98300171    0.01000000    2.80999994
   14.68777752   91.97010040    0.01000000    2.80999994
   14.69111156   95.66259766    0.01000000    2.80999994
   14.69444466   90.70800018    0.01000000    2.80999994
   14.69666672  101.00599670    0.01000000    2.80999994
   14.69777775   86.80539703    0.01000000    2.80999994
   14.70111084   96.53820038    0.01000000    2.80999994
   14.70444393   86.50219727    0.01000000    2.82999992
   14.71027756   86.50219727    0.01000000    2.80999994
   14.71444416   93.40239716    0.03000000    2.80999994
   14.71777725   91.19860077    0.01000000    2.80999994
   14.72111034   91.08020020    0.01000000    2.80999994
   14.72416592   92.39499664    0.01000000    2.80999994
   14.72749996   93.36560059    0.01000000    2.80999994
   14.72999954   91.04229736    0.03000000    2.80999994
   14.73111057   94.40869904    0.01000000    2.80999994
   14.73444462   93.36589813    0.01000000    2.80999994
   14.73777771   99.26319885    0.01000000    2.80999994
   14.74083328   92.20729828    0.01000000    2.80999994
   14.74416733   83.92539978    0.01000000    2.80999994
   14.74722290  101.34799957    0.01000000    2.80999994
   14.75333309  101.34799957    0.01000000    2.80999994
   14.75749969   97.14589691    0.01000000    2.80999994
   14.76055527   96.82309723    0.01000000    2.80999994
   14.76333332   94.07189941    0.01000000    2.80999994
   14.76416683   94.26439667    0.01000000    2.82999992
   14.76749992   91.82019806    0.01000000    2.80999994
   14.77083302   91.51419830    0.01000000    2.80999994
   14.77388859   86.73100281    0.01000000    2.82999992
   14.77722168   96.32270050    0.01000000    2.82999992
   14.78027725   97.15519714    0.01000000    2.80999994
   14.78361130   99.56159973    0.01000000    2.80999994
   14.78694534   86.59539795    0.01000000    2.82999992
   14.79000092  100.00900269    0.01000000    2.82999992
   14.79611111  100.00900269    0.01000000    2.80999994
   14.81444454  104.34100342    0.01000000    2.82999992
   14.81777763  106.73000336    0.01000000    2.82999992
   14.82083321  110.73699951    0.01000000    2.80999994
   14.82416630  100.00499725    0.01000000    2.82999992
   14.82750034  105.43199921    0.01000000    2.80999994
   14.83055592   94.39739990    0.01000000    2.80999994
   14.83388901  113.03600311    0.01000000    2.82999992
   14.83916664  113.03600311    0.01000000    2.82999992
   14.84333324   93.17980194    0.01000000    2.80999994
   14.84666634   98.11160278    0.01000000    2.80999994
   14.84749985   91.03890228    0.01000000    2.80999994
   14.85027790   92.03890228    0.01000000    2.82999992
   14.85333347  105.69499969    0.01000000    2.82999992
   14.85666752   99.29650116    0.01000000    2.82999992
   14.86000061  105.99500275    0.01000000    2.82999992
   14.86305618   98.11689758    0.01000000    2.82999992
   14.86638927   98.81770325    0.01000000    2.80999994
   14.86972237  103.46299744    0.01000000    2.80999994
   14.87277794  103.88500214    0.01000000    2.82999992
   14.87611103  100.81999969    0.01000000    2.80999994
   14.88194466  100.81999969    0.01000000    2.80999994
   14.88611126  102.89499664    0.03000000    2.80999994
   14.88944435   88.15859985    0.05000000    2.82999992
   14.89249992  103.55100250    4.90999985    2.82999992
   14.89583302   96.76300049    4.90999985    2.82999992
   14.99611092   -1.00000000   -1.00000000   -1.00000000
   15.09444427   -1.00000000   -1.00000000   -1.00000000
   15.21888828   -1.00000000   -1.00000000   -1.00000000
   15.58055592   70.87069702    4.90999985    2.86999989
   15.58388901   97.63899994    4.90999985    2.86999989
   15.58694458  100.56600189    4.90999985    2.84999990
   15.59027767   98.30660248    4.90999985    2.84999990
   15.59333324   96.33920288    4.90999985    2.84999990
   15.59666634   99.82679749    4.90999985    2.84999990
   15.60083389   99.82679749    4.90999985    2.84999990
   15.60500050  100.63999939    4.90999985    2.84999990
   15.60805607   91.70359802    4.90999985    2.84999990
   15.61138916   98.94789886    4.90999985    2.84999990
   15.61388969   94.69129944    4.90999985    2.84999990
   15.61527824   98.35949707    4.90999985    2.86999989
   15.61833382   91.49690247    4.90999985    2.86999989
   15.62166691   94.81169891    4.90999985    2.84999990
   15.62472248   95.40280151    4.90999985    2.84999990
   15.62805557  101.74500275    4.90999985    2.84999990
   15.63138866   97.16770172    4.90999985    2.84999990
   15.63444424   93.89240265    4.90999985    2.84999990
   15.63777733   98.40589905    4.90999985    2.84999990
   15.64361095   98.40589905    4.90999985    2.84999990
   15.64777756   97.90160370    4.90999985    2.84999990
   15.65111065   93.91200256    4.90999985    2.84999990
   15.65416622   96.11129761    4.90999985    2.86999989
   15.65749931   91.89810181    4.90999985    2.84999990
   15.66083336   90.61150360    4.90999985    2.84999990
   15.66388893   98.38130188    4.90999985    2.84999990
   15.66722298   98.30290222    4.90999985    2.84999990
   15.67027855   92.94319916    4.90999985    2.84999990
   15.67361164   92.57330322    4.90999985    2.84999990
   15.67694473   93.91010284    4.90999985    2.84999990
   15.68000031   98.71099854    4.90999985    2.84999990
   15.68055630  108.61499786    4.90999985    2.86999989
   15.68638897  108.61499786    4.90999985    2.86999989
   15.69055557   95.34159851    4.90999985    2.84999990
   15.69388866   94.54799652    4.90999985    2.84999990
   15.69722271  109.69599915    4.90999985    2.84999990
   15.70027733   96.30380249    4.90999985    2.84999990
   15.70361137  106.40399933    4.90999985    2.84999990
   15.70666695   98.84269714    4.90999985    2.84999990
   15.71000004  103.87400055    4.90999985    2.84999990
   15.71333313  105.84500122    4.90999985    2.84999990
   15.71388912   98.64430237    4.90999985    2.84999990
   15.71694374   99.85810089    4.90999985    2.84999990
   15.72027779   89.94349670    4.90999985    2.84999990
   15.72333336  102.94100189    4.90999985    2.84999990
   15.72944355  102.94100189    4.90999985    2.84999990
   15.73361111   95.17230225    4.90999985    2.84999990
   15.73666668   94.44819641    4.90999985    2.84999990
   15.74000072  102.15100098    4.90999985    2.84999990
   15.74305534  105.15499878    4.90999985    2.84999990
   15.74638939  104.71199799    4.90999985    2.84999990
   15.74722290  106.72200012    4.90999985    2.84999990
   15.75000000   95.18630219    4.90999985    2.84999990
   15.75333309   95.32060242    4.90999985    2.84999990
   15.75638866   97.49510193    4.90999985    2.86999989
   15.75972176  102.54799652    4.90999985    2.84999990
   15.76277733  106.82800293    4.90999985    2.86999989
   15.76611137   99.00050354    4.90999985    2.84999990
   15.77222157   99.00050354    4.90999985    2.84999990
   15.77638817   93.20429993    4.90999985    2.84999990
   15.77944374   92.19550323    4.90999985    2.84999990
   15.78055573   96.65039825    4.90999985    2.84999990
   15.78333378   97.82869720    4.90999985    2.84999990
   15.78666687  106.95099640    4.90999985    2.84999990
   15.78972244  105.13999939    4.90999985    2.86999989
   15.79305553  102.20500183    4.90999985    2.86999989
   15.79611111   98.16040039    4.90999985    2.86999989
   15.79944515   87.93270111    4.90999985    2.84999990
   15.80277824   97.98789978    4.90999985    2.84999990
   15.80583382   91.87609863    4.90999985    2.84999990
   15.80916691   95.11229706    4.90999985    2.84999990
   15.81500053   95.11229706    4.90999985    2.84999990
   15.81916618   88.69979858    4.90999985    2.86999989
   15.82250023   90.90560150    4.90999985    2.84999990
   15.82555580   90.85949707    4.90999985    2.84999990
   15.82888889   85.79730225    4.90999985    2.86999989
   15.83222198   91.60299683    4.90999985    2.84999990
   15.83527756   96.75990295    4.90999985    2.84999990
   15.83861065  102.10700226    4.90999985    2.84999990
   15.84166622   94.01390076    4.90999985    2.84999990
   15.84499931   92.19830322    4.90999985    2.84999990
   15.84722233   93.01380157    4.90999985    2.84999990
   15.84861088   96.29570007    4.90999985    2.84999990
   15.85194492   97.19920349    4.90999985    2.84999990
   15.85777855   97.19920349    4.90999985    2.84999990
   15.86194515   96.80249786    4.90999985    2.84999990
   15.86527824   99.76499939    4.90999985    2.84999990
   15.86861134   83.98650360    4.90999985    2.84999990
   15.87166691   96.58280182    4.90999985    2.84999990
   15.87500000   97.56420135    4.90999985    2.86999989
   15.87805557   97.26540375    4.90999985    2.84999990
   15.88055611   94.77839661    4.90999985    2.84999990
   15.88194466   87.70919800    4.90999985    2.84999990
   15.88527775   96.95960236    4.90999985    2.82999992
   15.88833332   97.92089844    4.90999985    2.84999990
   15.89166641   90.39600372    4.90999985    2.84999990
   15.89472198   87.45269775    4.90999985    2.82999992
   15.90083313   87.45269775    4.90999985    2.86999989
   15.90499973   96.22560120    4.90999985    2.84999990
   15.90805531   92.03620148    4.90999985    2.84999990
   15.91138840   94.14070129    4.90999985    2.84999990
   15.91388893   95.83560181    4.90999985    2.84999990
   15.91499996   93.04250336    4.90999985    2.86999989
   15.91833401   98.34120178    4.90999985    2.84999990
   15.92138958   96.25080109    4.90999985    2.84999990
   15.92472267   92.71469879    4.90999985    2.86999989
   15.92777824   93.62689972    4.90999985    2.86999989
   15.93111134   92.38410187    4.90999985    2.84999990
   15.93444443   82.87100220    4.90999985    2.84999990
   15.93750000   85.92939758    4.90999985    2.84999990
   15.94361115   85.92939758    4.90999985    2.84999990
   15.94777775   97.69229889    4.90999985    2.84999990
   15.95083332   88.51589966    4.90999985    2.84999990
   15.95416641  101.33799744    4.90999985    2.84999990
   15.95749950   91.68280029    4.90999985    2.84999990
   15.96055508   90.97959900    4.90999985    2.84999990
   15.96388912   86.72280121    4.90999985    2.86999989
   15.96722221   91.51519775    4.90999985    2.86999989
   15.97027779   98.45020294    4.90999985    2.86999989
   15.97361088   99.43900299    4.90999985    2.84999990
   15.97666645  101.85500336    4.90999985    2.84999990
   15.97999954   97.36139679    4.90999985    2.84999990
   15.98055553  109.60900116    4.90999985    2.84999990
   15.98638916  109.60900116    4.90999985    2.84999990
   15.99055576   93.49130249    4.90999985    2.84999990
   15.99388885  102.82399750    4.90999985    2.84999990
   15.99694443   92.67169952    4.90999985    2.86999989
   16.00027847   99.46669769    4.90999985    2.86999989
   16.00333405   88.91560364    4.90999985    2.86999989
   16.00666618   87.59760284    4.90999985    2.86999989
   16.01000023   95.63449860    4.90999985    2.84999990
   16.01305580  102.73699951    4.90999985    2.86999989
   16.01388931   91.33209991    4.90999985    2.84999990
   16.01666641  101.45899963    4.90999985    2.86999989
   16.02000046  105.39600372    4.90999985    2.84999990
   16.02305603   91.95780182    4.90999985    2.86999989
   16.02916718   91.95780182    4.90999985    2.86999989
   16.03333282   97.07669830    4.90999985    2.86999989
   16.03666687   88.04609680    4.90999985    2.86999989
   16.03999901   93.43820190    4.90999985    2.84999990
   16.04305458   97.63300323    4.90999985    2.86999989
   16.04638863   93.02050018    4.90999985    2.84999990
   16.04722214  101.48799896    4.90999985    2.86999989
   16.04999924   89.87249756    4.90999985    2.84999990
   16.05333328   95.57990265    4.90999985    2.84999990
   16.05638885   92.81690216    4.90999985    2.84999990
   16.05972099   92.13569641    4.90999985    2.89000010
   16.06305504   93.61399841    4.90999985    2.84999990
   16.06611061   99.48410034    4.90999985    2.84999990
   16.07222366   99.48410034    4.90999985    2.86999989
   16.07638931   90.99620056    4.90999985    2.86999989
   16.07944489   85.92209625    4.90999985    2.86999989
   16.08055687   97.06289673    4.90999985    2.84999990
   16.08305550   93.67289734    4.90999985    2.84999990
   16.08638954   95.32319641    4.90999985    2.84999990
   16.08944511   91.89060211    4.90999985    2.84999990
   16.09277916   93.60659790    4.90999985    2.84999990
   16.09611130   97.88870239    4.90999985    2.84999990
   16.09916687   94.51300049    4.90999985    2.84999990
   16.10250092   91.66880035    4.90999985    2.84999990
   16.10555649   89.08999634    4.90999985    2.86999989
   16.10888863   88.34320068    4.90999985    2.86999989
   16.11499977   88.34320068    4.90999985    2.84999990
   16.11916733   89.26719666    4.90999985    2.84999990
   16.12222290   96.76789856    4.90999985    2.84999990
   16.12555504   86.25140381    4.90999985    2.84999990
   16.12888908   94.42320251    4.90999985    2.84999990
   16.13194466   95.69349670    4.90999985    2.84999990
   16.13527679   94.12349701    4.90999985    2.84999990
   16.13861084   98.16449738    4.90999985    2.86999989
   16.14166641   97.65769958    4.90999985    2.84999990
   16.14500046   95.63279724    4.90999985    2.86999989
   16.14722252   96.58209991    4.90999985    2.86999989
   16.14861107   90.19999695    4.90999985    2.84999990
   16.15194321   99.76170349    4.90999985    2.86999989
   16.15777779   99.76170349    4.90999985    2.84999990
   16.16194344  102.55899811    4.90999985    2.86999989
   16.16527748  105.80899811    4.90999985    2.86999989
   16.16833305  100.21800232    4.90999985    2.86999989
   16.17166519  106.63099670    4.90999985    2.86999989
   16.17499924   97.01889801    4.90999985    2.86999989
   16.17805481   94.60910034    4.90999985    2.86999989
   16.18055534   94.17420197    4.90999985    2.84999990
   16.18166542   84.56780243    4.90999985    2.86999989
   16.18499947   98.27149963    4.90999985    2.84999990
   16.18805504   90.50650024    4.90999985    2.84999990
   16.19138718   90.61840057    4.90999985    2.84999990
   16.19472122   91.76619720    4.90999985    2.84999990
   16.20055580   91.76619720    4.90999985    2.84999990
   16.20472336   90.58180237    4.90999985    2.84999990
   16.20805550   85.10260010    4.90999985    2.84999990
   16.21138954   91.34760284    4.90999985    2.86999989
   16.21389008   86.90769958    4.90999985    2.86999989
   16.21500015   92.51039886    4.90999985    2.84999990
   16.21833420   82.51419830    4.90999985    2.84999990
   16.22138977   85.14499664    4.90999985    2.86999989
   16.22472191   84.45149994    4.90999985    2.84999990
   16.22805595   81.66760254    4.90999985    2.86999989
   16.23111153   88.69100189    4.90999985    2.84999990
   16.23444557   94.52850342    4.90999985    2.84999990
   16.23750114   93.49700165    4.90999985    2.84999990
   16.24361229   93.49700165    4.90999985    2.84999990
   16.24777794   91.36550140    4.90999985    2.84999990
   16.25083351   86.36560059    4.90999985    2.86999989
   16.25416756  100.05799866    4.90999985    2.84999990
   16.25722313   89.89260101    4.90999985    2.84999990
   16.26055527   96.10679626    4.90999985    2.86999989
   16.26388931   94.51789856    4.90999985    2.84999990
   16.26694489   93.80539703    4.90999985    2.86999989
   16.27027702   93.62660217    4.90999985    2.86999989
   16.27361107   99.19770050    4.90999985    2.86999989
   16.27666664   97.17579651    4.90999985    2.84999990
   16.28000069  102.91200256    4.90999985    2.86999989
   16.28055573   93.38140106    4.90999985    2.86999989
   16.28638840   93.38140106    4.90999985    2.86999989
   16.29055595   87.18779755    4.90999985    2.86999989
   16.29361153   95.89959717    4.90999985    2.84999990
   16.29694366   89.89070129    4.90999985    2.84999990
   16.30027771   97.25460052    4.90999985    2.84999990
   16.30333328   89.30049896    4.90999985    2.84999990
   16.30666542   90.79579926    4.90999985    2.84999990
   16.30999947   93.49259949    4.90999985    2.84999990
   16.31305504   97.41349792    4.90999985    2.84999990
   16.31388855   96.23940277    4.90999985    2.86999989
   16.31666756   96.30819702    4.90999985    2.86999989
   16.32000160   97.64360046    4.90999985    2.84999990
   16.32305717   92.95490265    4.90999985    2.86999989
   16.32916832   92.95490265    4.90999985    2.84999990
   16.33333397   95.55280304    4.90999985    2.84999990
   16.33666801   95.54499817    4.90999985    2.84999990
   16.33972359   87.34780121    4.90999985    2.84999990
   16.34305573   91.65480042    4.90999985    2.86999989
   16.34638977   86.07710266    4.90999985    2.86999989
   16.34722328   96.14270020    4.90999985    2.86999989
   16.34972191   90.95110321    4.90999985    2.84999990
   16.35305595   89.09970093    4.90999985    2.86999989
   16.35639000   90.68070221    4.90999985    2.86999989
   16.35944557   93.97889709    4.90999985    2.86999989
   16.36277771   91.58609772    4.90999985    2.84999990
   16.36611176   93.56189728    4.90999985    2.86999989
   16.37194443   93.56189728    4.90999985    2.84999990
   16.37611198   91.83760071    4.90999985    2.84999990
   16.37944412   84.96489716    4.90999985    2.84999990
   16.38083267   88.59829712    4.90999985    2.84999990
   16.38305473   90.26580048    4.90999985    2.84999990
   16.38638878   86.11940002    4.90999985    2.86999989
   16.38944435   93.71520233    4.90999985    2.86999989
   16.39277840   87.75170135    4.90999985    2.86999989
   16.39611053   88.26339722    4.90999985    2.86999989
   16.39916611   90.43090057    4.90999985    2.84999990
   16.40250015   91.04920197    4.90999985    2.84999990
   16.40583229   92.32209778    4.90999985    2.84999990
   16.40888786   92.21330261    4.90999985    2.86999989
   16.41499901   92.21330261    4.90999985    2.84999990
   16.41916656   95.61689758    4.90999985    2.86999989
   16.42222214   94.92880249    4.90999985    2.86999989
   16.42555428   87.97619629    4.90999985    2.84999990
   16.42860985   91.72290039    4.90999985    2.86999989
   16.43194389   98.34750366    4.90999985    2.84999990
   16.43527603   84.31330109    4.90999985    2.84999990
   16.43833160   97.73850250    4.90999985    2.84999990
   16.44166565   87.44799805    4.90999985    2.84999990
   16.44499969   96.54660034    4.90999985    2.84999990
   16.44749832   89.00759888    4.90999985    2.84999990
   16.44833183   93.19730377    4.90999985    2.84999990
   16.45166779   92.49880219    4.90999985    2.84999990
   16.45777893   92.49880219    4.90999985    2.86999989
   16.46194458  101.05899811    4.90999985    2.86999989
   16.46527863   90.13990021    4.90999985    2.86999989
   16.46833420   93.70079803    4.90999985    2.86999989
   16.47166634   88.44210052    4.90999985    2.86999989
   16.47472191   96.38880157    4.90999985    2.84999990
   16.47805595   94.07330322    4.90999985    2.86999989
   16.48083305   83.44979858    4.90999985    2.86999989
   16.48166656   96.38980103    4.90999985    2.86999989
   16.48500061  101.84100342    4.90999985    2.86999989
   16.48805618   93.03250122    4.90999985    2.86999989
   16.49138832   94.58249664    4.90999985    2.86999989
   16.49472237  102.05899811    4.90999985    2.86999989
   16.50055504  102.05899811    4.90999985    2.84999990
   16.50472260   97.62270355    4.90999985    2.84999990
   16.50805473   98.78790283    4.90999985    2.86999989
   16.51111031   86.70159912    4.90999985    2.86999989
   16.51416588   93.93119812    4.90999985    2.84999990
   16.51472282   86.05339813    4.90999985    2.86999989
   16.51805496   93.17690277    4.90999985    2.86999989
   16.52138901   89.21299744    4.90999985    2.84999990
   16.52444458   90.00099945    4.90999985    2.86999989
   16.52777672   92.47260284    4.90999985    2.84999990
   16.53083229   89.96839905    4.90999985    2.86999989
   16.53416634   94.09839630    4.90999985    2.86999989
   16.53750038  103.96499634    4.90999985    2.86999989
   16.54333305  103.96499634    4.90999985    2.86999989
   16.54749870   92.63510132    4.90999985    2.84999990
   16.55083275   91.93329620    4.90999985    2.84999990
   16.55416679   93.31829834    4.90999985    2.84999990
   16.55722237   86.41880035    4.90999985    2.84999990
   16.56055450   95.31510162    4.90999985    2.84999990
   16.56361008   90.59729767    4.90999985    2.84999990
   16.56694603   93.80370331    4.90999985    2.86999989
   16.57027817   93.90180206    4.90999985    2.84999990
   16.57333374   95.61239624    4.90999985    2.84999990
   16.57666779   89.72209930    4.90999985    2.86999989
   16.58000183  103.43599701    4.90999985    2.84999990
   16.58083344   94.66660309    4.90999985    2.84999990
   16.60138893   94.66660309    4.90999985    2.84999990
   16.60555649   84.93199921    4.90999985    2.84999990
   16.60861206   90.55010223    4.90999985    2.84999990
   16.61194420   93.23090363    4.90999985    2.84999990
   16.61416626   93.53189850    4.90999985    2.84999990
   16.61555672   95.98380280    4.90999985    2.84999990
   16.61888885   93.05979919    4.90999985    2.84999990
   16.62222290   91.93160248    4.90999985    2.86999989
   16.62527847   85.52649689    4.90999985    2.86999989
   16.62861061   88.18080139    4.90999985    2.86999989
   16.63194466   90.15679932    4.90999985    2.84999990
   16.63500023   93.39939880    4.90999985    2.84999990
   16.63833237   92.26180267    4.90999985    2.86999989
   16.64416695   92.26180267    4.90999985    2.84999990
   16.64833260   95.91339874    4.90999985    2.84999990
   16.65138817   96.29370117    4.90999985    2.84999990
   16.65472221   83.91819763    4.90999985    2.86999989
   16.65805435  105.80599976    4.90999985    2.86999989
   16.66110992   94.04850006    4.90999985    2.84999990
   16.66444397  104.33000183    4.90999985    2.84999990
   16.66749954   89.29010010    4.90999985    2.84999990
   16.67083359  106.73400116    4.90999985    2.86999989
   16.67416573  103.62400055    4.90999985    2.86999989
   16.67722130   96.46269989    4.90999985    2.86999989
   16.68055534   89.68740082    4.90999985    2.86999989
   16.68111038   92.68949890    4.90999985    2.86999989
   16.68694305   92.68949890    4.90999985    2.84999990
   16.69111061   99.37560272    4.90999985    2.84999990
   16.69444275  105.67199707    4.90999985    2.84999990
   16.69749832   93.57409668    4.90999985    2.86999989
   16.70083427  101.09400177    4.90999985    2.86999989
   16.70388985  104.68699646    4.90999985    2.86999989
   16.70722389  108.49700165    4.90999985    2.86999989
   16.71055603   98.56150055    4.90999985    2.86999989
   16.71361160  109.93099976    4.90999985    2.86999989
   16.71444511  108.92099762    4.90999985    2.86999989
   16.71750069   97.55599976    4.90999985    2.86999989
   16.72055626   93.36109924    4.90999985    2.86999989
   16.72389030  100.21900177    4.90999985    2.86999989
   16.72972298  100.21900177    4.90999985    2.86999989
   16.73388863   94.66770172    4.90999985    2.86999989
   16.73722267   93.62709808    4.90999985    2.86999989
   16.74027824  103.22200012    4.90999985    2.86999989
   16.74361229  102.49800110    4.90999985    2.86999989
   16.74694443   92.61730194    4.90999985    2.84999990
   16.74777794  100.80599976    4.90999985    2.86999989
   16.75027847   95.25209808    4.90999985    2.84999990
   16.75361061   94.79170227    4.90999985    2.86999989
   16.75694466   95.72810364    4.90999985    2.86999989
   16.76000023   91.43900299    4.90999985    2.84999990
   16.76333427   85.49140167    4.90999985    2.84999990
   16.76666641   90.44490051    4.90999985    2.86999989
   16.77277756   90.44490051    4.90999985    2.86999989
   16.77666664   91.40940094    4.90999985    2.86999989
   16.78000069   86.54599762    4.90999985    2.86999989
   16.78111076   83.85970306    4.90999985    2.86999989
   16.78361130   96.69270325    4.90999985    2.86999989
   16.78694344   95.20200348    4.90999985    2.84999990
   16.79027748   88.17440033    4.90999985    2.84999990
   16.79333305   93.74169922    4.90999985    2.84999990
   16.79666710   92.17079926    4.90999985    2.84999990
   16.79999924   88.51850128    4.90999985    2.86999989
   16.80305481   89.47840118    4.90999985    2.84999990
   16.80638885   90.43240356    4.90999985    2.84999990
   16.80944443   88.84780121    4.90999985    2.84999990
   16.81555557   88.84780121    4.90999985    2.84999990
   16.81972313   93.65080261    4.90999985    2.86999989
   16.82277870   89.93260193    4.90999985    2.84999990
   16.82611275  103.28199768    4.90999985    2.84999990
   16.82916832   91.93930054    4.90999985    2.86999989
   16.83250046  100.55899811    4.90999985    2.86999989
   16.83583450   92.57469940    4.90999985    2.84999990
   16.83889008  104.90699768    4.90999985    2.86999989
   16.84222221   96.57659912    4.90999985    2.86999989
   16.84555626   98.11340332    4.90999985    2.84999990
   16.84777832   99.43840027    4.90999985    2.86999989
   16.84889030  102.08999634    4.90999985    2.86999989
   16.85222244   98.68800354    4.90999985    2.84999990
   16.85833359   98.68800354    4.90999985    2.84999990
   16.86250114   90.36900330    4.90999985    2.84999990
   16.86555672  102.21099854    4.90999985    2.84999990
   16.86888885   93.58429718    4.90999985    2.86999989
   16.87222290   97.15740204    4.90999985    2.86999989
   16.87527847   97.64610291    4.90999985    2.84999990
   16.87861061  100.04900360    4.90999985    2.86999989
   16.88111115   92.68810272    4.90999985    2.86999989
   16.88222313  104.39099884    4.90999985    2.86999989
   16.88555527  101.28099823    4.90999985    2.86999989
   16.88888931   97.77010345    4.90999985    2.86999989
   16.89194489  105.29699707    4.90999985    2.86999989
   16.89527702  106.31900024    4.90999985    2.84999990
   16.90111160  106.31900024    4.90999985    2.84999990
   16.90527725   96.16030121    4.90999985    2.86999989
   16.90861130   91.34089661    4.90999985    2.86999989
   16.91166687   99.94589996    4.90999985    2.86999989
   16.91444397   91.66130066    4.90999985    2.84999990
   16.91555595   97.49359894    4.90999985    2.86999989
   16.91860962   98.07820129    4.90999985    2.86999989
   16.92194366   88.70249939    4.90999985    2.86999989
   16.92499924   99.05619812    4.90999985    2.84999990
   16.92833328  101.33300018    4.90999985    2.86999989
   16.93166542   86.26319885    4.90999985    2.86999989
   16.93472099   90.23049927    4.90999985    2.86999989
   16.93805504   94.96739960    4.90999985    2.84999990
   16.94416618   94.96739960    4.90999985    2.84999990
   16.94805527   97.83010101    4.90999985    2.86999989
   16.95138931   91.18920135    4.90999985    2.86999989
   16.95472336  102.63899994    4.90999985    2.86999989
   16.95777893   90.69339752    4.90999985    2.86999989
   16.96111107   93.15309906    4.90999985    2.86999989
   16.96444511   98.13289642    4.90999985    2.84999990
   16.96750069   96.63480377    4.90999985    2.84999990
   16.97083473  104.43800354    4.90999985    2.86999989
   16.97389030  104.03099823    4.90999985    2.84999990
   16.97722244  105.31800079    4.90999985    2.84999990
   16.98055649  100.42299652    4.90999985    2.84999990
   16.98111153  102.09799957    4.90999985    2.84999990
   16.98694420  102.09799957    4.90999985    2.86999989
   16.99111176  105.15599823    4.90999985    2.86999989
   16.99416733  102.00000000    4.90999985    2.84999990
   16.99749947   98.73329926    4.90999985    2.86999989
   17.00055504   98.17040253    4.90999985    2.84999990
   17.00388908   91.75939941    4.90999985    2.86999989
   17.00722313   97.42330170    4.90999985    2.84999990
   17.01027870   96.58429718    4.90999985    2.84999990
   17.01361084   98.44249725    4.90999985    2.86999989
   17.01444435   94.84239960    4.90999985    2.86999989
   17.01722145   98.28510284    4.90999985    2.84999990
   17.02027702   88.69259644    4.90999985    2.84999990
   17.02361107   98.28009796    4.90999985    2.84999990
   17.02972221   98.28009796    4.90999985    2.84999990
   17.03388786   98.02069855    4.90999985    2.84999990
   17.03694344   93.70600128    4.90999985    2.84999990
   17.04027748  103.22100067    4.90999985    2.86999989
   17.04361153   94.17259979    4.90999985    2.86999989
   17.04666710   97.07399750    4.90999985    2.86999989
   17.04777718   97.92769623    4.90999985    2.86999989
   17.05055428   96.29499817    4.90999985    2.84999990
   17.05360985  106.29000092    4.90999985    2.84999990
   17.05694389   97.23670197    4.90999985    2.86999989
   17.05999947  100.63400269    4.90999985    2.86999989
   17.06333351   99.06479645    4.90999985    2.86999989
   17.06666756   90.35469818    4.90999985    2.86999989
   17.07250023   90.35469818    4.90999985    2.84999990
   17.07666779   96.68419647    4.90999985    2.86999989
   17.08000183   97.22789764    4.90999985    2.86999989
   17.08111191   91.56379700    4.90999985    2.86999989
   17.08361244  100.39499664    4.90999985    2.86999989
   17.08666801   93.90529633    4.90999985    2.84999990
   17.09000015  101.35700226    4.90999985    2.86999989
   17.09305573   96.68830109    4.90999985    2.86999989
   17.09638977   96.25499725    4.90999985    2.84999990
   17.09972191   96.73049927    4.90999985    2.84999990
   17.10277748   93.44110107    4.90999985    2.86999989
   17.10611153   91.36969757    4.90999985    2.84999990
   17.10944557   92.61969757    4.90999985    2.86999989
   17.11555672   92.61969757    4.90999985    2.84999990
   17.11944389   94.25939941    4.90999985    2.86999989
   17.12277794   97.97000122    4.90999985    2.84999990
   17.12611198   95.10620117    4.90999985    2.86999989
   17.12916756   91.25659943    4.90999985    2.86999989
   17.13249969   90.90299988    4.90999985    2.86999989
   17.13555527   97.57309723    4.90999985    2.84999990
   17.13888931   95.43170166    4.90999985    2.86999989
   17.14222145   96.07980347    4.90999985    2.84999990
   17.14527702  100.75599670    4.90999985    2.84999990
   17.14777756   94.92089844    4.90999985    2.84999990
   17.14916611   91.47579956    4.90999985    2.86999989
   17.15222168  103.52700043    4.90999985    2.84999990
   17.15833282  103.52700043    4.90999985    2.84999990
   17.16250038   95.72769928    4.90999985    2.84999990
   17.16555595   87.84919739    4.90999985    2.86999989
   17.16888809   91.29779816    4.90999985    2.84999990
   17.17194366   88.40129852    4.90999985    2.86999989
   17.17527771   91.03600311    4.90999985    2.86999989
   17.17860985   96.12229919    4.90999985    2.84999990
   17.18111038   88.65000153    4.90999985    2.84999990
   17.18222237   86.97170258    4.90999985    2.84999990
   17.18527603   89.44730377    4.90999985    2.86999989
   17.18861008   93.94999695    4.90999985    2.84999990
   17.19166565   96.85900116    4.90999985    2.84999990
   17.19499969   96.12460327    4.90999985    2.84999990
   17.20111275   96.12460327    4.90999985    2.86999989
   17.20527840   94.87069702    4.90999985    2.86999989
   17.20833397   95.20960236    4.90999985    2.86999989
   17.21166801   90.95279694    4.90999985    2.84999990
   17.21444511   90.90440369    4.90999985    2.86999989
   17.21555710   92.87149811    4.90999985    2.84999990
   17.21861076   93.75550079    4.90999985    2.84999990
   17.22194481   86.52600098    4.90999985    2.84999990
   17.22500038   88.90859985    4.90999985    2.84999990
   17.22833443   91.30660248    4.90999985    2.86999989
   17.23166656   87.56839752    4.90999985    2.86999989
   17.23472214   90.75620270    4.90999985    2.84999990
   17.23805618   92.68319702    4.90999985    2.84999990
   17.24388885   92.68319702    4.90999985    2.86999989
   17.24805641   97.99030304    4.90999985    2.86999989
   17.25138855   94.06079865    4.90999985    2.86999989
   17.25444412   95.40209961    4.90999985    2.84999990
   17.25777817   96.74120331    4.90999985    2.86999989
   17.26111031  105.27200317    4.90999985    2.86999989
   17.26416588  105.31300354    4.90999985    2.86999989
   17.26749992   98.42259979    4.90999985    2.86999989
   17.27055550  106.76499939    4.90999985    2.86999989
   17.27388954   96.39070129    4.90999985    2.84999990
   17.27722168  103.99400330    4.90999985    2.84999990
   17.28027725   96.36049652    4.90999985    2.84999990
   17.28111076   92.62770081    4.90999985    2.84999990
   17.28666687   92.62770081    4.90999985    2.84999990
   17.29083252   95.26879883    4.90999985    2.86999989
   17.29416656   91.26509857    4.90999985    2.84999990
   17.29749870  101.60600281    4.90999985    2.86999989
   17.30055428   98.60720062    4.90999985    2.86999989
   17.30388832   98.31169891    4.90999985    2.84999990
   17.30722237   86.93139648    4.90999985    2.86999989
   17.31027794   89.29370117    4.90999985    2.86999989
   17.31361008   86.83139801    4.90999985    2.86999989
   17.31472206   95.20099640    4.90999985    2.86999989
   17.31722260   88.24430084    4.90999985    2.84999990
   17.32055664   89.18689728    4.90999985    2.86999989
   17.32361221   90.94850159    4.90999985    2.84999990
   17.32972336   90.94850159    4.90999985    2.86999989
   17.33388901   90.14790344    4.90999985    2.86999989
   17.33694458   93.57199860    4.90999985    2.86999989
   17.34027863   95.25379944    4.90999985    2.86999989
   17.34333420   97.40640259    4.90999985    2.86999989
   17.34666824   94.10549927    4.90999985    2.86999989
   17.34777832  105.79499817    4.90999985    2.86999989
   17.35027885  102.23899841    4.90999985    2.86999989
   17.35333443   93.61759949    4.90999985    2.86999989
   17.35666656   95.33260345    4.90999985    2.86999989
   17.36000061   98.42839813    4.90999985    2.86999989
   17.36305618   92.68430328    4.90999985    2.84999990
   17.36638832   93.33419800    4.90999985    2.86999989
   17.37249947   93.33419800    4.90999985    2.86999989
   17.37666702   92.93650055    4.90999985    2.86999989
   17.37972260   92.18540192    4.90999985    2.86999989
   17.38111115   88.22399902    4.90999985    2.86999989
   17.38361168   90.67040253    4.90999985    2.84999990
   17.38666725   86.51670074    4.90999985    2.86999989
   17.38999939  109.23699951    4.90999985    2.86999989
   17.39333344   90.81240082    4.90999985    2.86999989
   17.39638901   91.70970154    4.90999985    2.86999989
   17.39972115   87.82980347    4.90999985    2.86999989
   17.40277672   89.80490112    4.90999985    2.86999989
   17.40611076   95.60099792    4.90999985    2.84999990
   17.40944481   83.71170044    4.90999985    2.84999990
   17.41527748   83.71170044    4.90999985    2.86999989
   17.41944313   93.99490356    4.90999985    2.86999989
   17.42277718  255.97599792    4.90999985    2.86999989
   17.42583275  155.03799438    4.90999985    2.86999989
   17.42916679   94.02739716    4.90999985    2.84999990
   17.43249893   86.71859741    4.90999985    2.84999990
   17.43555450   90.97740173    4.90999985    2.84999990
   17.43888855   87.70980072    4.90999985    2.84999990
   17.44194412   90.11479950    4.90999985    2.86999989
   17.44527626   91.26959991    4.90999985    2.86999989
   17.44777679   88.88690186    4.90999985    2.86999989
   17.44888878   89.48419952    4.90999985    2.86999989
   17.45194435   91.66970062    4.90999985    2.86999989
   17.45833397   91.66970062    4.90999985    2.84999990
   17.46222305  101.45500183    4.90999985    2.86999989
   17.46555710   94.87270355    4.90999985    2.86999989
   17.46888924  105.16400146    4.90999985    2.86999989
   17.47194481   85.78079987    4.90999985    2.86999989
   17.47527885   91.72799683    4.90999985    2.86999989
   17.47833443  101.41799927    4.90999985    2.86999989
   17.48111153  101.91200256    4.90999985    2.86999989
   17.48222351   90.09609985    4.90999985    2.84999990
   17.48527718   84.00119781    4.90999985    2.86999989
   17.48861122   -1.00000000    4.90999985    2.84999990
   17.49194527   -1.00000000    4.90999985    2.84999990
   17.49500084   94.36209869    4.90999985    2.84999990
   17.50111198   94.36209869    4.90999985    2.86999989
   17.50527763   89.83300018    4.90999985    2.84999990
   17.50833321   92.08419800    4.90999985    2.86999989
   17.51166725   91.37590027    4.90999985    2.86999989
   17.51444435   85.91100311    4.90999985    2.86999989
   17.51527786   87.40399933    4.90999985    2.86999989
   17.51833344   86.98159790    4.90999985    2.86999989
   17.52166557   87.94439697    4.90999985    2.86999989
   17.52499962   89.76029968    4.90999985    2.84999990
   17.52805519   83.69429779    4.90999985    2.86999989
   17.53138924   88.76360321    4.90999985    2.86999989
   17.53444481   91.52510071    4.90999985    2.86999989
   17.53777695   87.32630157    4.90999985    2.86999989
   17.54388809   87.32630157    4.90999985    2.84999990
   17.54805565   91.38310242    4.90999985    2.84999990
   17.55111122   87.87429810    4.90999985    2.86999989
   17.55444336   88.97599792    4.90999985    2.86999989
   17.55777740   91.26589966    4.90999985    2.86999989
   17.56083298   96.79879761    4.90999985    2.86999989
   17.56416512   95.34780121    4.90999985    2.86999989
   17.56750107   91.47730255    4.90999985    2.84999990
   17.57055664   94.15969849    4.90999985    2.84999990
   17.57389069   88.48770142    4.90999985    2.86999989
   17.57694626   89.00810242    4.90999985    2.84999990
   17.58027840   86.94529724    4.90999985    2.84999990
   17.58111191   89.59889984    4.90999985    2.86999989
   17.58666801   89.59889984    4.90999985    2.86999989
   17.59083366   85.02860260    4.90999985    2.86999989
   17.59416771   89.57710266    4.90999985    2.84999990
   17.59722328   88.99150085    4.90999985    2.84999990
   17.61499977   89.20989990    4.90999985    2.86999989
   17.61722183   90.47530365    4.90999985    2.86999989
   17.62055588   93.09010315    4.90999985    2.84999990
   17.62361145   94.39779663    4.90999985    2.86999989
   17.62972260   94.39779663    4.90999985    2.86999989
   17.63388824   90.95880127    4.90999985    2.86999989
   17.63722229   86.41049957    4.90999985    2.86999989
   17.64027786  146.87600708    4.90999985    2.86999989
   17.64361191  171.02699280    4.90999985    2.86999989
   17.64666748  183.52000427    4.90999985    2.86999989
   17.64805603  213.80999756    4.90999985    2.84999990
   17.65055466  230.35000610    4.90999985    2.86999989
   17.65388870  333.16598511    4.90999985    2.86999989
   17.65583229  251.14900208    4.90999985    2.86999989
   17.65722275  222.08799744    4.90999985    2.86999989
   17.65722275  230.35000610    4.90999985    2.86999989
   17.65722275  333.16598511    4.90999985    2.86999989
   17.65749931   93.09010315    4.90999985    2.84999990
   17.65749931   94.39779663    4.90999985    2.86999989
   17.65749931   90.95880127    4.90999985    2.86999989
   17.65777779   86.41049957    4.90999985    2.86999989
   17.65777779  146.87600708    4.90999985    2.86999989
   17.65777779  171.02699280    4.90999985    2.86999989
   17.65805435  183.52000427    4.90999985    2.86999989
   17.65888786  148.62199402    4.90999985    2.86999989
   17.66194344   96.26450348    4.90999985    2.86999989
   17.66527748   91.42759705    4.90999985    2.86999989
   17.66860962   93.03869629    4.90999985    2.86999989
   17.67166519   94.97760010    4.90999985    2.86999989
   17.67805481   94.97760010    4.90999985    2.86999989
   17.68194389   94.34729767    4.90999985    2.86999989
   17.68527603   89.45279694    4.90999985    2.84999990
   17.68861008   -1.00000000    4.90999985    2.84999990
   17.69222069   -1.00000000    4.90999985    2.86999989
   17.69555473   -1.00000000    4.90999985    2.86999989
   17.69861031   -1.00000000    4.90999985    2.84999990
   17.70194435   -1.00000000    4.90999985    2.86999989
   17.70499992   -1.00000000    4.90999985    2.84999990
   17.70833397   -1.00000000    4.90999985    2.86999989
   17.71166801  111.16200256    4.90999985    2.84999990
   17.71472359   96.20459747    4.90999985    2.84999990
   17.72083473   96.20459747    4.90999985    2.84999990
   17.72500038  101.99400330    4.90999985    2.86999989
   17.72805595   90.10659790    4.90999985    2.84999990
   17.73139000   94.04840088    4.90999985    2.86999989
   17.73472214  102.54000092    4.90999985    2.86999989
   17.73777771   92.99379730    4.90999985    2.86999989
   17.74111176   -1.00000000    4.90999985    2.86999989
   17.74416733   -1.00000000    4.90999985    2.84999990
   17.74749947   -1.00000000    4.90999985    2.84999990
   17.75083351   -1.00000000    4.90999985    2.84999990
   17.75388908   -1.00000000    4.90999985    2.84999990
   17.75722313   -1.00000000    4.90999985    2.86999989
   17.76361084   -1.00000000    4.90999985    2.84999990
   17.76777840   95.15529633    4.90999985    2.86999989
   17.77111053   97.52259827    4.90999985    2.84999990
   17.77416611   99.61000061    4.90999985    2.84999990
   17.77750015   94.18520355    4.90999985    2.86999989
   17.78055573   95.13659668    4.90999985    2.86999989
   17.78388786   90.85359955    4.90999985    2.86999989
   17.78722191   92.73750305    4.90999985    2.84999990
   17.79027748   -1.00000000    4.90999985    2.84999990
   17.79388809   -1.00000000    4.90999985    2.84999990
   17.79722214   -1.00000000    4.90999985    2.86999989
   17.80027771   -1.00000000    4.90999985    2.84999990
   17.81055450   -1.00000000    4.90999985    2.84999990
   17.81361008   95.06189728    4.90999985    2.84999990
   17.81694603   95.46170044    4.90999985    2.86999989
   17.82027817   88.29740143    4.90999985    2.84999990
   17.82333374   96.00589752    4.90999985    2.84999990
   17.82444572   88.87030029    4.90999985    2.84999990
   17.82722282   99.68389893    4.90999985    2.86999989
   17.83027840   89.64270020    4.90999985    2.86999989
   17.83361244   94.42910004    4.90999985    2.84999990
   17.83666801   92.27469635    4.90999985    2.86999989
   17.84000015   -1.00000000    4.90999985    2.86999989
   17.84333420   -1.00000000    4.90999985    2.86999989
   17.85333443   -1.00000000    4.90999985    2.86999989
   17.85666656   -1.00000000    4.90999985    2.84999990
   17.86000061   -1.00000000    4.90999985    2.84999990
   17.86333466   93.25509644    4.90999985    2.84999990
   17.86638832   97.02040100    4.90999985    2.86999989
   17.86972237   94.34439850    4.90999985    2.86999989
   17.87305641   98.36660004    4.90999985    2.86999989
   17.87611198  100.91699982    4.90999985    2.86999989
   17.87944412   94.90180206    4.90999985    2.86999989
   17.88277817  100.27700043    4.90999985    2.84999990
   17.88583374  108.32800293    4.90999985    2.86999989
   17.89222145  108.32800293    4.90999985    2.84999990
   17.89638901  121.25000000    4.90999985    2.86999989
   17.89944458  121.21600342    4.90999985    2.84999990
   17.90277672  131.02000427    4.90999985    2.84999990
   17.90611076  125.51699829    4.90999985    2.86999989
   17.90916634  144.95799255    4.90999985    2.86999989
   17.91250038   94.37059784    4.90999985    2.86999989
   17.91555595   96.11669922    4.90999985    2.86999989
   17.91888809  100.04599762    4.90999985    2.84999990
   17.92222214  106.22499847    4.90999985    2.84999990
   17.92444420   98.10749817    4.90999985    2.84999990
   17.92583275   96.91310120    4.90999985    2.84999990
   17.92888832  253.55400085    4.90999985    2.84999990
   17.93499947  253.55400085    4.90999985    2.86999989
   17.93916512   35.58729935    4.90999985    2.86999989
   17.94249916   -1.00000000    4.90999985    2.86999989
   17.94555473   -1.00000000    4.90999985    2.86999989
   17.94888878   -1.00000000    4.90999985    2.84999990
   17.95222282   -1.00000000    4.90999985    2.84999990
   17.95527840   -1.00000000    4.90999985    2.84999990
   17.95888901   -1.00000000    4.90999985    2.84999990
   17.96222305  103.35299683    4.90999985    2.84999990
   17.96527863   96.02459717    4.90999985    2.84999990
   17.96861076  103.34700012    4.90999985    2.84999990
   17.97194481  100.06700134    4.90999985    2.84999990
   17.97777748  100.06700134    4.90999985    2.84999990
   17.98194504   -1.00000000    4.90999985    2.86999989
   17.98527718   -1.00000000    4.90999985    2.84999990
   17.98833275   -1.00000000    4.90999985    2.84999990
   17.99194527   -1.00000000    4.90999985    2.84999990
   17.99527740   -1.00000000    4.90999985    2.84999990
   17.99833298   -1.00000000    4.90999985    2.84999990
   18.00166702   -1.00000000    4.90999985    2.84999990
   18.00499916   -1.00000000    4.90999985    2.86999989
   18.00805473   -1.00000000    4.90999985    2.84999990
   18.01138878  106.53299713    4.90999985    2.86999989
   18.01472282  102.77400208    4.90999985    2.86999989
   18.02083397  102.77400208    4.90999985    2.86999989
   18.02472115   93.61060333    4.90999985    2.84999990
   18.02805519   -1.00000000    4.90999985    2.84999990
   18.03138924   -1.00000000    4.90999985    2.84999990
   18.03444481   -1.00000000    4.90999985    2.84999990
   18.03777695   -1.00000000    4.90999985    2.84999990
   18.04138756   -1.00000000    4.90999985    2.84999990
   18.04444313   -1.00000000    4.90999985    2.84999990
   18.04777718   -1.00000000    4.90999985    2.84999990
   18.05111122   -1.00000000    4.90999985    2.86999989
   18.05416679   -1.00000000    4.90999985    2.86999989
   18.05749893   -1.00000000    4.90999985    2.84999990
   18.06361008   -1.00000000    4.90999985    2.84999990
   18.06777954   95.75250244    4.90999985    2.84999990
   18.07083511  104.78099823    4.90999985    2.84999990
   18.07416725  101.29000092    4.90999985    2.84999990
   18.07722282  102.19799805    4.90999985    2.84999990
   18.08055687   -1.00000000    4.90999985    2.84999990
   18.08388901   -1.00000000    4.90999985    2.84999990
   18.08694458   -1.00000000    4.90999985    2.86999989
   18.09027863   -1.00000000    4.90999985    2.84999990
   18.09388924   -1.00000000    4.90999985    2.84999990
   18.09722328   -1.00000000    4.90999985    2.84999990
   18.10027885   -1.00000000    4.90999985    2.86999989
   18.11055565   -1.00000000    4.90999985    2.84999990
   18.11361122   93.94339752    4.90999985    2.84999990
   18.11694527   97.84480286    4.90999985    2.86999989
   18.12000084   96.64260101    4.90999985    2.84999990
   18.12333298   97.71769714    4.90999985    2.86999989
   18.12472153   88.93360138    4.90999985    2.84999990
   18.12694550   93.62390137    4.90999985    2.84999990
   18.13027763   -1.00000000    4.90999985    2.84999990
   18.13361168   -1.00000000    4.90999985    2.84999990
   18.13666725   -1.00000000    4.90999985    2.84999990
   18.13999939   -1.00000000    4.90999985    2.84999990
   18.14305496   -1.00000000    4.90999985    2.84999990
   18.15333366   -1.00000000    4.90999985    2.84999990
   18.15638924   -1.00000000    4.90999985    2.84999990
   18.15999985   -1.00000000    4.90999985    2.86999989
   18.16333389  114.04799652    4.90999985    2.84999990
   18.16638756   93.54540253    4.90999985    2.84999990
   18.16972160   96.93849945    4.90999985    2.80999994
   18.17305565  111.10600281    4.90999985    2.84999990
   18.17611122  114.22699738    4.90999985    2.84999990
   18.17944336   -1.00000000    4.90999985    2.84999990
   18.18249893   -1.00000000    4.90999985    2.84999990
   18.18583298   -1.00000000    4.90999985    2.84999990
   18.19610977   -1.00000000    4.90999985    2.84999990
   18.19944382   -1.00000000    4.90999985    2.84999990
   18.20250130   -1.00000000    4.90999985    2.84999990
   18.20583344   -1.00000000    4.90999985    2.84999990
   18.20916748   -1.00000000    4.90999985    2.84999990
   18.21222305   -1.00000000    4.90999985    2.84999990
   18.21555710   -1.00000000    4.90999985    2.84999990
   18.21861076   92.41339874    4.90999985    2.84999990
   18.22194481   92.28050232    4.90999985    2.84999990
   18.22472191   -1.00000000   -1.00000000   -1.00000000
   18.22583389   -1.00000000    4.90999985    2.86999989
   18.22888947   -1.00000000    4.90999985    2.84999990
   18.23888969   -1.00000000    4.90999985    2.84999990
   18.24222183   -1.00000000    4.90999985    2.84999990
   18.24555588   -1.00000000    4.90999985    2.84999990
   18.24861145   -1.00000000    4.90999985    2.84999990
   18.25194359   -1.00000000    4.90999985    2.84999990
   18.25499916   -1.00000000    4.90999985    2.84999990
   18.25861168   -1.00000000    4.90999985    2.84999990
   18.26194382   -1.00000000    4.90999985    2.84999990
   18.26499939   -1.00000000    4.90999985    2.84999990
   18.26833344   -1.00000000    4.90999985    2.84999990
   18.27166557   -1.00000000    4.90999985    2.82999992
   18.27777672   -1.00000000    4.90999985    2.82999992
   18.28194427   -1.00000000    4.90999985    2.84999990
   18.28499985   -1.00000000    4.90999985    2.82999992
   18.28833199   -1.00000000    4.90999985    2.84999990
   18.29194450   -1.00000000    4.90999985    2.84999990
   18.29527664   -1.00000000    4.90999985    2.86999989
   18.29833221   -1.00000000    4.90999985    2.84999990
   18.30166626   -1.00000000    4.90999985    2.84999990
   18.30499840   -1.00000000    4.90999985    2.84999990
   18.30805397   -1.00000000    4.90999985    2.84999990
   18.31138802   -1.00000000    4.90999985    2.82999992
   18.31444359   -1.00000000    4.90999985    2.84999990
   18.32472229   -1.00000000    4.90999985    2.84999990
   18.32777786   -1.00000000    4.90999985    2.84999990
   18.33111191   -1.00000000    4.90999985    2.84999990
   18.33444595   -1.00000000    4.90999985    2.84999990
   18.33750153   -1.00000000    4.90999985    2.84999990
   18.34083366   -1.00000000    4.90999985    2.82999992
   18.34416771   -1.00000000    4.90999985    2.82999992
   18.34722328   -1.00000000    4.90999985    2.84999990
   18.35055542   -1.00000000    4.90999985    2.82999992
   18.35361099   -1.00000000    4.90999985    2.82999992
   18.35694504   -1.00000000    4.90999985    2.84999990
   18.36750031   -1.00000000    4.90999985    2.82999992
   18.37083435   -1.00000000    4.90999985    2.84999990
   18.37388992   -1.00000000    4.90999985    2.82999992
   18.37722206   -1.00000000    4.90999985    2.84999990
   18.38055611   -1.00000000    4.90999985    2.84999990
   18.38361168   -1.00000000    4.90999985    2.84999990
   18.38694382   -1.00000000    4.90999985    2.82999992
   18.38999939   -1.00000000    4.90999985    2.84999990
   18.39361191   -1.00000000    4.90999985    2.82999992
   18.39694405   -1.00000000    4.90999985    2.82999992
   18.39999962   -1.00000000    4.90999985    2.82999992
   18.41027832   -1.00000000    4.90999985    2.82999992
   18.41361046   -1.00000000    4.90999985    2.82999992
   18.41666603   -1.00000000    4.90999985    2.84999990
   18.42000008   -1.00000000    4.90999985    2.84999990
   18.42333221   -1.00000000    4.90999985    2.82999992
   18.42666626   -1.00000000    4.90999985    2.82999992
   18.43000031   -1.00000000    4.90999985    2.82999992
   18.43305397   -1.00000000    4.90999985    2.84999990
   18.43638802   -1.00000000    4.90999985    2.82999992
   18.43972206   -1.00000000    4.90999985    2.84999990
   18.44277763   -1.00000000    4.90999985    2.82999992
   18.45333481   -1.00000000    4.90999985    2.84999990
   18.45639038   -1.00000000    4.90999985    2.82999992
   18.46000099   -1.00000000    4.90999985    2.84999990
   18.46333504   -1.00000000    4.90999985    2.82999992
   18.46638870   -1.00000000    4.90999985    2.82999992
   18.46972275   -1.00000000    4.90999985    2.84999990
   18.47305679   -1.00000000    4.90999985    2.82999992
   18.47611237   -1.00000000    4.90999985    2.82999992
   18.47944450   -1.00000000    4.90999985    2.82999992
   18.48277855   -1.00000000    4.90999985    2.82999992
   18.48583412   -1.00000000    4.90999985    2.82999992
   18.49611092   -1.00000000    4.90999985    2.82999992
   18.49916649   -1.00000000    4.90999985    2.84999990
   18.50250053   -1.00000000    4.90999985    2.82999992
   18.50583267   -1.00000000    4.90999985    2.82999992
   18.50888824   -1.00000000    4.90999985    2.84999990
   18.51222229   -1.00000000    4.90999985    2.82999992
   18.51527786   -1.00000000    4.90999985    2.82999992
   18.51861000   -1.00000000    4.90999985    2.82999992
   18.52194405   -1.00000000    4.90999985    2.82999992
   18.52527809   -1.00000000    4.90999985    2.82999992
   18.52861023   -1.00000000    4.90999985    2.84999990
   18.53888893   -1.00000000    4.90999985    2.82999992
   18.54222107   -1.00000000    4.90999985    2.82999992
   18.54527664   -1.00000000    4.90999985    2.82999992
   18.54861069   -1.00000000    4.90999985    2.82999992
   18.55166626   -1.00000000    4.90999985    2.82999992
   18.55499840   -1.00000000    4.90999985    2.82999992
   18.55861092   -1.00000000    4.90999985    2.82999992
   18.56194305   -1.00000000    4.90999985    2.82999992
   18.56499863   -1.00000000    4.90999985    2.82999992
   18.56833458   -1.00000000    4.90999985    2.82999992
   18.57166672   -1.00000000    4.90999985    2.82999992
   18.58166695   -1.00000000    4.90999985    2.84999990
   18.58500099   -1.00000000    4.90999985    2.82999992
   18.58805656   -1.00000000    4.90999985    2.82999992
   18.59166718   -1.00000000    4.90999985    2.82999992
   18.59500122   -1.00000000    4.90999985    2.82999992
   18.59805679   -1.00000000    4.90999985    2.84999990
   18.60138893   -1.00000000    4.90999985    2.82999992
   18.60472298   -1.00000000    4.90999985    2.82999992
   18.60777855   -1.00000000    4.90999985    2.82999992
   18.61111069   -1.00000000    4.90999985    2.82999992
   18.61444473   -1.00000000    4.90999985    2.82999992
   18.63972282   -1.00000000    4.90999985    2.82999992
   18.64277840   -1.00000000    4.90999985    2.82999992
   18.64611053   -1.00000000    4.90999985    2.82999992
   18.64944458   -1.00000000    4.90999985    2.82999992
   18.65250015   -1.00000000    4.90999985    2.82999992
   18.65583229   -1.00000000    4.90999985    2.82999992
   18.65888786   -1.00000000    4.90999985    2.82999992
   18.66222191   -1.00000000    4.90999985    2.82999992
   18.66555595   -1.00000000    4.90999985    2.82999992
   18.66888809   -1.00000000    4.90999985    2.80999994
   18.67222214   -1.00000000    4.90999985    2.82999992
   18.68249893   -1.00000000    4.90999985    2.82999992
   18.68555450   -1.00000000    4.90999985    2.82999992
   18.68888855   -1.00000000    4.90999985    2.82999992
   18.69222069   -1.00000000    4.90999985    2.82999992
   18.69527626   -1.00000000    4.90999985    2.82999992
   18.69861031   -1.00000000    4.90999985    2.82999992
   18.70194435   -1.00000000    4.90999985    2.82999992
   18.70527840   -1.00000000    4.90999985    2.80999994
   18.70861244   -1.00000000    4.90999985    2.82999992
   18.71166801   -1.00000000    4.90999985    2.82999992
   18.71500015   -1.00000000    4.90999985    2.80999994
   18.72527885   -1.00000000    4.90999985    2.80999994
   18.72861099   -1.00000000    4.90999985    2.82999992
   18.73166656   -1.00000000    4.90999985    2.80999994
   18.73527718   -1.00000000    4.90999985    2.80999994
   18.73861122   -1.00000000    4.90999985    2.80999994
   18.74166679   -1.00000000    4.90999985    2.82999992
   18.74500084   -1.00000000    4.90999985    2.82999992
   18.74833298   -1.00000000    4.90999985    2.82999992
   18.75138855   -1.00000000    4.90999985    2.80999994
   18.75472260   -1.00000000    4.90999985    2.80999994
   18.75805473   -1.00000000    4.90999985    2.82999992
   18.76805496   -1.00000000    4.90999985    2.80999994
   18.77138901   -1.00000000    4.90999985    2.80999994
   18.77444458   -1.00000000    4.90999985    2.80999994
   18.77777672   -1.00000000    4.90999985    2.82999992
   18.78111076   -1.00000000    4.90999985    2.82999992
   18.78416634   -1.00000000    4.90999985    2.82999992
   18.78750038   -1.00000000    4.90999985    2.80999994
   18.79055595   -1.00000000    4.90999985    2.80999994
   18.79388809   -1.00000000    4.90999985    2.80999994
   18.79722214   -1.00000000    4.90999985    2.80999994
   18.80055428   -1.00000000    4.90999985    2.80999994
   18.81083298   -1.00000000    4.90999985    2.80999994
   18.81416512   -1.00000000    4.90999985    2.80999994
   18.81750107   -1.00000000    4.90999985    2.82999992
   18.82055664   -1.00000000    4.90999985    2.80999994
   18.82389069   -1.00000000    4.90999985    2.80999994
   18.82722282   -1.00000000    4.90999985    2.82999992
   18.83027840   -1.00000000    4.90999985    2.82999992
   18.83388901   -1.00000000    4.90999985    2.80999994
   18.83722305   -1.00000000    4.90999985    2.82999992
   18.84027863   -1.00000000    4.90999985    2.80999994
   18.84361267   -1.00000000    4.90999985    2.80999994
   18.85388947   -1.00000000    4.90999985    2.80999994
   18.85694504   -1.00000000    4.90999985    2.80999994
   18.86027908   -1.00000000    4.90999985    2.80999994
   18.86361122   -1.00000000    4.90999985    2.82999992
   18.86694527   -1.00000000    4.90999985    2.82999992
   18.87027740   -1.00000000    4.90999985    2.80999994
   18.87333298   -1.00000000    4.90999985    2.82999992
   18.87666702   -1.00000000    4.90999985    2.80999994
   18.88000107   -1.00000000    4.90999985    2.80999994
   18.88333321   -1.00000000    4.90999985    2.80999994
   18.88666725   -1.00000000    4.90999985    2.80999994
   18.89666748   -1.00000000    4.90999985    2.82999992
   18.89999962   -1.00000000    4.90999985    2.80999994
   18.90361023   -1.00000000    4.90999985    2.82999992
   18.90666580   -1.00000000    4.90999985    2.82999992
   18.90999985   -1.00000000    4.90999985    2.80999994
   18.91333389   -1.00000000    4.90999985    2.80999994
   18.91638756   -1.00000000    4.90999985    2.80999994
   18.91972160   -1.00000000    4.90999985    2.80999994
   18.92305565   -1.00000000    4.90999985    2.80999994
   18.92611122   -1.00000000    4.90999985    2.80999994
   18.92944336   -1.00000000    4.90999985    2.80999994
   18.93944359   -1.00000000    4.90999985    2.80999994
   18.94277763   -1.00000000    4.90999985    2.80999994
   18.94583321   -1.00000000    4.90999985    2.80999994
   18.94916534   -1.00000000    4.90999985    2.80999994
   18.95250130   -1.00000000    4.90999985    2.80999994
   18.95555687   -1.00000000    4.90999985    2.80999994
   18.95888901   -1.00000000    4.90999985    2.80999994
   18.96194458   -1.00000000    4.90999985    2.80999994
   18.96527863   -1.00000000    4.90999985    2.82999992
   18.96888924   -1.00000000    4.90999985    2.82999992
   18.97194481   -1.00000000    4.90999985    2.80999994
   18.98222351   -1.00000000    4.90999985    2.80999994
   18.98555565   -1.00000000    4.90999985    2.78999996
   18.98888969   -1.00000000    4.90999985    2.80999994
   18.99194527   -1.00000000    4.90999985    2.78999996
   18.99527740   -1.00000000    4.90999985    2.80999994
   18.99861145   -1.00000000    4.90999985    2.80999994
   19.00194359   -1.00000000    4.90999985    2.80999994
   19.00499916   -1.00000000    4.90999985    2.78999996
   19.00833321   -1.00000000    4.90999985    2.82999992
   19.01166725   -1.00000000    4.90999985    2.78999996
   19.01472282   -1.00000000    4.90999985    2.80999994
   19.02527809   -1.00000000    4.90999985    2.80999994
   19.02833366   -1.00000000    4.90999985    2.80999994
   19.03166580   -1.00000000    4.90999985    2.78999996
   19.03527641   -1.00000000    4.90999985    2.80999994
   19.03861046   -1.00000000    4.90999985    2.82999992
   19.04166603   -1.00000000    4.90999985    2.80999994
   19.04500008   -1.00000000    4.90999985    2.78999996
   19.04833221   -1.00000000    4.90999985    2.78999996
   19.05138779   -1.00000000    4.90999985    2.80999994
   19.05472183   -1.00000000    4.90999985    2.80999994
   19.05777740   -1.00000000    4.90999985    2.80999994
   19.06805611   -1.00000000    4.90999985    2.80999994
   19.07111168   -1.00000000    4.90999985    2.80999994
   19.07444572   -1.00000000    4.90999985    2.80999994
   19.07777786   -1.00000000    4.90999985    2.80999994
   19.08083344   -1.00000000    4.90999985    2.78999996
   19.08416748   -1.00000000    4.90999985    2.78999996
   19.08750153   -1.00000000    4.90999985    2.80999994
   19.09055710   -1.00000000    4.90999985    2.80999994
   19.09388924   -1.00000000    4.90999985    2.80999994
   19.09694481   -1.00000000    4.90999985    2.78999996
   19.10027885   -1.00000000    4.90999985    2.78999996
   19.11083412   -1.00000000    4.90999985    2.78999996
   19.11416626   -1.00000000    4.90999985    2.80999994
   19.11722183   -1.00000000    4.90999985    2.80999994
   19.12055588   -1.00000000    4.90999985    2.80999994
   19.12388992   -1.00000000    4.90999985    2.80999994
   19.12694550   -1.00000000    4.90999985    2.78999996
   19.13027763   -1.00000000    4.90999985    2.78999996
   19.13333321   -1.00000000    4.90999985    2.80999994
   19.13694382   -1.00000000    4.90999985    2.80999994
   19.14027786   -1.00000000    4.90999985    2.80999994
   19.14361191   -1.00000000    4.90999985    2.78999996
   19.15361023   -1.00000000    4.90999985    2.78999996
   19.15694427   -1.00000000    4.90999985    2.78999996
   19.16027832   -1.00000000    4.90999985    2.78999996
   19.16333389   -1.00000000    4.90999985    2.78999996
   19.16666603   -1.00000000    4.90999985    2.78999996
   19.17000008   -1.00000000    4.90999985    2.78999996
   19.17333221   -1.00000000    4.90999985    2.78999996
   19.17666626   -1.00000000    4.90999985    2.78999996
   19.17972183   -1.00000000    4.90999985    2.78999996
   19.18305397   -1.00000000    4.90999985    2.78999996
   19.18610954   -1.00000000    4.90999985    2.78999996
   19.19666672   -1.00000000    4.90999985    2.78999996
   19.19972038   -1.00000000    4.90999985    2.78999996
   19.20333481   -1.00000000    4.90999985    2.78999996
   19.20666695   -1.00000000    4.90999985    2.78999996
   19.21000099   -1.00000000    4.90999985    2.78999996
   19.21305656   -1.00000000    4.90999985    2.78999996
   19.21638870   -1.00000000    4.90999985    2.78999996
   19.21944427   -1.00000000    4.90999985    2.78999996
   19.22277832   -1.00000000    4.90999985    2.78999996
   19.22611237   -1.00000000    4.90999985    2.78999996
   19.22916794   -1.00000000    4.90999985    2.78999996
   19.23944473   -1.00000000    4.90999985    2.78999996
   19.24250031   -1.00000000    4.90999985    2.76999998
   19.24583435   -1.00000000    4.90999985    2.76999998
   19.24916649   -1.00000000    4.90999985    2.78999996
   19.25222206   -1.00000000    4.90999985    2.78999996
   19.25555611   -1.00000000    4.90999985    2.78999996
   19.25888824   -1.00000000    4.90999985    2.78999996
   19.26194382   -1.00000000    4.90999985    2.78999996
   19.26527786   -1.00000000    4.90999985    2.78999996
   19.26861000   -1.00000000    4.90999985    2.80999994
   19.27194405   -1.00000000    4.90999985    2.78999996
   19.28222275   -1.00000000    4.90999985    2.78999996
   19.28555489   -1.00000000    4.90999985    2.78999996
   19.28861046   -1.00000000    4.90999985    2.78999996
   19.29194450   -1.00000000    4.90999985    2.78999996
   19.29527664   -1.00000000    4.90999985    2.78999996
   19.29833221   -1.00000000    4.90999985    2.78999996
   19.30194283   -1.00000000    4.90999985    2.78999996
   19.30527687   -1.00000000    4.90999985    2.78999996
   19.30861092   -1.00000000    4.90999985    2.78999996
   19.31166649   -1.00000000    4.90999985    2.78999996
   19.31499863   -1.00000000    4.90999985    2.78999996
   19.32500076   -1.00000000    4.90999985    2.78999996
   19.32833481   -1.00000000    4.90999985    2.78999996
   19.33166695   -1.00000000    4.90999985    2.76999998
   19.33500099   -1.00000000    4.90999985    2.78999996
   19.33833313   -1.00000000    4.90999985    2.76999998
   19.34166718   -1.00000000    4.90999985    2.76999998
   19.34472275   -1.00000000    4.90999985    2.76999998
   19.34805679   -1.00000000    4.90999985    2.76999998
   19.35111237   -1.00000000    4.90999985    2.76999998
   19.35444450   -1.00000000    4.90999985    2.76999998
   19.35777855   -1.00000000    4.90999985    2.76999998
   19.36777878   -1.00000000    4.90999985    2.76999998
   19.37111092   -1.00000000    4.90999985    2.76999998
   19.37444496   -1.00000000    4.90999985    2.76999998
   19.37750053   -1.00000000    4.90999985    2.76999998
   19.38083267   -1.00000000    4.90999985    2.76999998
   19.38416672   -1.00000000    4.90999985    2.76999998
   19.38722229   -1.00000000    4.90999985    2.76999998
   19.39055634   -1.00000000    4.90999985    2.76999998
   19.39361191   -1.00000000    4.90999985    2.76999998
   19.39694405   -1.00000000    4.90999985    2.76999998
   19.40027809   -1.00000000    4.90999985    2.76999998
   19.41083336   -1.00000000    4.90999985    2.76999998
   19.41388893   -1.00000000    4.90999985    2.76999998
   19.41722107   -1.00000000    4.90999985    2.76999998
   19.42055511   -1.00000000    4.90999985    2.76999998
   19.42361069   -1.00000000    4.90999985    2.76999998
   19.42694473   -1.00000000    4.90999985    2.76999998
   19.43027687   -1.00000000    4.90999985    2.76999998
   19.43333244   -1.00000000    4.90999985    2.78999996
   19.43666649   -1.00000000    4.90999985    2.76999998
   19.43999863   -1.00000000    4.90999985    2.76999998
   19.44333267   -1.00000000    4.90999985    2.76999998
   19.45361137   -1.00000000    4.90999985    2.75000000
   19.45694542   -1.00000000    4.90999985    2.76999998
   19.46000099   -1.00000000    4.90999985    2.78999996
   19.46333504   -1.00000000    4.90999985    2.76999998
   19.46666718   -1.00000000    4.90999985    2.76999998
   19.47000122   -1.00000000    4.90999985    2.76999998
   19.47333336   -1.00000000    4.90999985    2.76999998
   19.47666740   -1.00000000    4.90999985    2.76999998
   19.47972298   -1.00000000    4.90999985    2.76999998
   19.48305511   -1.00000000    4.90999985    2.75000000
   19.48638916   -1.00000000    4.90999985    2.76999998
   19.49638939   -1.00000000    4.90999985    2.75000000
   19.49972153   -1.00000000    4.90999985    2.75000000
   19.50305557   -1.00000000    4.90999985    2.76999998
   19.50638962   -1.00000000    4.90999985    2.76999998
   19.50972176   -1.00000000    4.90999985    2.76999998
   19.51277733   -1.00000000    4.90999985    2.75000000
   19.51611137   -1.00000000    4.90999985    2.75000000
   19.51916695   -1.00000000    4.90999985    2.75000000
   19.52249908   -1.00000000    4.90999985    2.75000000
   19.52583313   -1.00000000    4.90999985    2.75000000
   19.52888870   -1.00000000    4.90999985    2.75000000
   19.53916550   -1.00000000    4.90999985    2.75000000
   19.54249954   -1.00000000    4.90999985    2.75000000
   19.54583359   -1.00000000    4.90999985    2.75000000
   19.54888916   -1.00000000    4.90999985    2.75000000
   19.55222130   -1.00000000    4.90999985    2.75000000
   19.55555534   -1.00000000    4.90999985    2.75000000
   19.55861092   -1.00000000    4.90999985    2.75000000
   19.56194305   -1.00000000    4.90999985    2.75000000
   19.56499863   -1.00000000    4.90999985    2.75000000
   19.56861115   -1.00000000    4.90999985    2.75000000
   19.57194519   -1.00000000    4.90999985    2.75000000
   19.58222389   -1.00000000    4.90999985    2.75000000
   19.58527756   -1.00000000    4.90999985    2.75000000
   19.58861160   -1.00000000    4.90999985    2.75000000
   19.59194565   -1.00000000    4.90999985    2.75000000
   19.59500122   -1.00000000    4.90999985    2.75000000
   19.59833336   -1.00000000    4.90999985    2.75000000
   19.60166740   -1.00000000    4.90999985    2.75000000
   19.60499954   -1.00000000    4.90999985    2.75000000
   19.60833359   -1.00000000    4.90999985    2.75000000
   19.61138916   -1.00000000    4.90999985    2.75000000
   19.61472321   -1.00000000    4.90999985    2.75000000
   19.62500000   -1.00000000    4.90999985    2.75000000
   19.62833405   -1.00000000    4.90999985    2.73000002
   19.63138962   -1.00000000    4.90999985    2.75000000
   19.65138817   -1.00000000    4.90999985    2.73000002
   19.65444374   -1.00000000    4.90999985    2.75000000
   19.65777779   -1.00000000    4.90999985    2.73000002
   19.66805458   -1.00000000    4.90999985    2.75000000
   19.67111015   -1.00000000    4.90999985    2.75000000
   19.67444420   -1.00000000    4.90999985    2.73000002
   19.67749977   -1.00000000    4.90999985    2.75000000
   19.68083191   -1.00000000    4.90999985    2.75000000
   19.68416595   -1.00000000    4.90999985    2.73000002
   19.68750000   -1.00000000    4.90999985    2.73000002
   19.69083214   -1.00000000    4.90999985    2.73000002
   19.69388771   -1.00000000    4.90999985    2.73000002
   19.69722176   -1.00000000    4.90999985    2.75000000
   19.70027924   -1.00000000    4.90999985    2.73000002
   19.71083450   -1.00000000    4.90999985    2.75000000
   19.71389008   -1.00000000    4.90999985    2.75000000
   19.71750069   -1.00000000    4.90999985    2.73000002
   19.72083473   -1.00000000    4.90999985    2.73000002
   19.72416687   -1.00000000    4.90999985    2.73000002
   19.72722244   -1.00000000    4.90999985    2.73000002
   19.73055649   -1.00000000    4.90999985    2.75000000
   19.73361206   -1.00000000    4.90999985    2.73000002
   19.73694420   -1.00000000    4.90999985    2.73000002
   19.74027824   -1.00000000    4.90999985    2.73000002
   19.74333382   -1.00000000    4.90999985    2.73000002
   19.75361061   -1.00000000    4.90999985    2.75000000
   19.75694466   -1.00000000    4.90999985    2.73000002
   19.76000023   -1.00000000    4.90999985    2.75000000
   19.76333427   -1.00000000    4.90999985    2.73000002
   19.76666641   -1.00000000    4.90999985    2.73000002
   19.76972198   -1.00000000    4.90999985    2.73000002
   19.77305603   -1.00000000    4.90999985    2.73000002
   19.77611160   -1.00000000    4.90999985    2.71000004
   19.77944374   -1.00000000    4.90999985    2.73000002
   19.78277779   -1.00000000    4.90999985    2.73000002
   19.78610992   -1.00000000    4.90999985    2.73000002
   19.79638863   -1.00000000    4.90999985    2.71000004
   19.79972076   -1.00000000    4.90999985    2.71000004
   19.80277634   -1.00000000    4.90999985    2.71000004
   19.80611038   -1.00000000    4.90999985    2.73000002
   19.80944443   -1.00000000    4.90999985    2.73000002
   19.81250000   -1.00000000    4.90999985    2.73000002
   19.81611061   -1.00000000    4.90999985    2.73000002
   19.81944466   -1.00000000    4.90999985    2.73000002
   19.82277870   -1.00000000    4.90999985    2.73000002
   19.82583427   -1.00000000    4.90999985    2.73000002
   19.82916832   -1.00000000    4.90999985    2.73000002
   19.83944511   -1.00000000    4.90999985    2.71000004
   19.84250069   -1.00000000    4.90999985    2.71000004
   19.84583473   -1.00000000    4.90999985    2.73000002
   19.84916687   -1.00000000    4.90999985    2.71000004
   19.85250092   -1.00000000    4.90999985    2.71000004
   19.85583305   -1.00000000    4.90999985    2.71000004
   19.85888863   -1.00000000    4.90999985    2.71000004
   19.86222267   -1.00000000    4.90999985    2.71000004
   19.86527824   -1.00000000    4.90999985    2.71000004
   19.86861038   -1.00000000    4.90999985    2.73000002
   19.87194443   -1.00000000    4.90999985    2.71000004
   19.88222313   -1.00000000    4.90999985    2.71000004
   19.88583374   -1.00000000    4.90999985    2.71000004
   19.88916588   -1.00000000    4.90999985    2.71000004
   19.89222145   -1.00000000    4.90999985    2.71000004
   19.89555550   -1.00000000    4.90999985    2.71000004
   19.89861107   -1.00000000    4.90999985    2.71000004
   19.90194321   -1.00000000    4.90999985    2.71000004
   19.90527725   -1.00000000    4.90999985    2.71000004
   19.90833282   -1.00000000    4.90999985    2.71000004
   19.91166687   -1.00000000    4.90999985    2.71000004
   19.91499901   -1.00000000    4.90999985    2.71000004
   19.92499924   -1.00000000    4.90999985    2.71000004
   19.92833328   -1.00000000    4.90999985    2.71000004
   19.93138885   -1.00000000    4.90999985    2.71000004
   19.93472099   -1.00000000    4.90999985    2.69000006
   19.93777657   -1.00000000    4.90999985    2.71000004
   19.94111061   -1.00000000    4.90999985    2.71000004
   19.94444275   -1.00000000    4.90999985    2.71000004
   19.94749832   -1.00000000    4.90999985    2.71000004
   19.95111275   -1.00000000    4.90999985    2.71000004
   19.95444489   -1.00000000    4.90999985    2.71000004
   19.95750046   -1.00000000    4.90999985    2.71000004
   19.96777916   -1.00000000    4.90999985    2.71000004
   19.97111130   -1.00000000    4.90999985    2.69000006
   19.97416687   -1.00000000    4.90999985    2.69000006
   19.97750092   -1.00000000    4.90999985    2.69000006
   19.98083305   -1.00000000    4.90999985    2.69000006
   19.98444557   -1.00000000    4.90999985    2.71000004
   19.98777771   -1.00000000    4.90999985    2.69000006
   19.99083328   -1.00000000    4.90999985    2.69000006
   19.99416733   -1.00000000    4.90999985    2.69000006
   19.99722290   -1.00000000    4.90999985    2.69000006
   20.00055504   -1.00000000    4.90999985    2.71000004
   20.01055527   -1.00000000    4.90999985    2.69000006
   20.01388931   -1.00000000    4.90999985    2.69000006
   20.01749992   -1.00000000    4.90999985    2.69000006
   20.02083397   -1.00000000    4.90999985    2.69000006
   20.02388954   -1.00000000    4.90999985    2.69000006
   20.02722168   -1.00000000    4.90999985    2.71000004
   20.03027725   -1.00000000    4.90999985    2.71000004
   20.03361130   -1.00000000    4.90999985    2.71000004
   20.03694344   -1.00000000    4.90999985    2.69000006
   20.03999901   -1.00000000    4.90999985    2.69000006
   20.04333305   -1.00000000    4.90999985    2.69000006
   20.05360985   -1.00000000    4.90999985    2.69000006
   20.05666542   -1.00000000    4.90999985    2.69000006
   20.05999947   -1.00000000    4.90999985    2.69000006
   20.06333351   -1.00000000    4.90999985    2.69000006
   20.06638718   -1.00000000    4.90999985    2.69000006
   20.06972313   -1.00000000    4.90999985    2.69000006
   20.07277870   -1.00000000    4.90999985    2.67000008
   20.07611275   -1.00000000    4.90999985    2.67000008
   20.07944489   -1.00000000    4.90999985    2.69000006
   20.08250046   -1.00000000    4.90999985    2.69000006
   20.08638954   -1.00000000    4.90999985    2.67000008
   20.09638977   -1.00000000    4.90999985    2.69000006
   20.09972191   -1.00000000    4.90999985    2.69000006
   20.10277748   -1.00000000    4.90999985    2.69000006
   20.10611153   -1.00000000    4.90999985    2.67000008
   20.10916710   -1.00000000    4.90999985    2.69000006
   20.11250114   -1.00000000    4.90999985    2.69000006
   20.11583328   -1.00000000    4.90999985    2.69000006
   20.11944389   -1.00000000    4.90999985    2.67000008
   20.12249947   -1.00000000    4.90999985    2.67000008
   20.12583351   -1.00000000    4.90999985    2.67000008
   20.12888908   -1.00000000    4.90999985    2.67000008
   20.13916588   -1.00000000    4.90999985    2.67000008
   20.14249992   -1.00000000    4.90999985    2.67000008
   20.14555550   -1.00000000    4.90999985    2.67000008
   20.14888954   -1.00000000    4.90999985    2.69000006
   20.15250015   -1.00000000    4.90999985    2.67000008
   20.15555573   -1.00000000    4.90999985    2.67000008
   20.15888786   -1.00000000    4.90999985    2.67000008
   20.16194344   -1.00000000    4.90999985    2.69000006
   20.16527748   -1.00000000    4.90999985    2.69000006
   20.16860962   -1.00000000    4.90999985    2.69000006
   20.17166519   -1.00000000    4.90999985    2.67000008
   20.18194389   -1.00000000    4.90999985    2.67000008
   20.18583298   -1.00000000    4.90999985    2.67000008
   20.18888855   -1.00000000    4.90999985    2.67000008
   20.19222069   -1.00000000    4.90999985    2.67000008
   20.19527626   -1.00000000    4.90999985    2.67000008
   20.19861031   -1.00000000    4.90999985    2.67000008
   20.20194435   -1.00000000    4.90999985    2.67000008
   20.20499992   -1.00000000    4.90999985    2.67000008
   20.20833397   -1.00000000    4.90999985    2.67000008
   20.21138954   -1.00000000    4.90999985    2.67000008
   20.21472359   -1.00000000    4.90999985    2.67000008
   20.22500038   77.53589630    4.90999985    2.67000008
   20.22833443   84.24479675    4.90999985    2.67000008
   20.23139000   83.15769958    4.90999985    2.66000009
   20.23472214   81.12580109    4.90999985    2.66000009
   20.23805618   83.86199951    4.90999985    2.67000008
   20.24111176   82.01509857    4.90999985    2.67000008
   20.24444389   80.69380188    4.90999985    2.66000009
   20.24777794   83.38240051    4.90999985    2.66000009
   20.24972153   87.66850281    4.90999985    2.66000009
   20.25138855   81.20110321    4.90999985    2.66000009
   20.25472260   81.85949707    4.90999985    2.66000009
   20.25777817   85.29280090    4.90999985    2.66000009
   20.26388931   85.29280090    4.90999985    2.66000009
   20.26777840   82.47129822    4.90999985    2.66000009
   20.27111053   81.63629913    4.90999985    2.66000009
   20.27444458   79.36859894    4.90999985    2.67000008
   20.27750015   80.99330139    4.90999985    2.66000009
   20.28083229   81.10720062    4.90999985    2.66000009
   20.28305435   80.84120178    4.90999985    2.66000009
   20.28444481   78.35310364    4.90999985    2.66000009
   20.28777695   80.59870148    4.90999985    2.66000009
   20.29083252   81.16439819    4.90999985    2.66000009
   20.29416656   88.62850189    4.90999985    2.66000009
   20.29749870   84.59899902    4.90999985    2.67000008
   20.30055428   86.09809875    4.90999985    2.66000009
   20.30666542   86.09809875    4.90999985    2.66000009
   20.31083298   81.39849854    4.90999985    2.66000009
   20.31388855   81.30560303    4.90999985    2.66000009
   20.31638718   83.63490295    4.90999985    2.66000009
   20.31750107   80.87329865    4.90999985    2.66000009
   20.32083511   86.36039734    4.90999985    2.64000010
   20.32389069   88.20670319    4.90999985    2.66000009
   20.32722282   82.50830078    4.90999985    2.64000010
   20.33055687   80.33149719    4.90999985    2.66000009
   20.33361244   82.50340271    4.90999985    2.64000010
   20.33694458   79.05500031    4.90999985    2.66000009
   20.34055710   83.88449860    4.90999985    2.66000009
   20.34361267   80.81369781    4.90999985    2.66000009
   20.34944534   80.81369781    4.90999985    2.66000009
   20.35361099   80.97969818    4.90999985    2.67000008
   20.35722351   81.33679962    4.90999985    2.66000009
   20.36027908   80.36889648    4.90999985    2.66000009
   20.36361122   80.43550110    4.90999985    2.66000009
   20.36694527   83.51709747    4.90999985    2.66000009
   20.37000084   81.91670227    4.90999985    2.66000009
   20.37333298   82.31349945    4.90999985    2.66000009
   20.37638855   81.60579681    4.90999985    2.66000009
   20.37972260   83.47910309    4.90999985    2.66000009
   20.38305473   79.22299957    4.90999985    2.66000009
   20.38444519   81.50610352    4.90999985    2.64000010
   20.38666725   83.05950165    4.90999985    2.66000009
   20.39222145   83.05950165    4.90999985    2.66000009
   20.39638901   82.24700165    4.90999985    2.64000010
   20.39972115   88.06929779    4.90999985    2.64000010
   20.40277672   81.29319763    4.90999985    2.64000010
   20.40611076   81.66269684    4.90999985    2.64000010
   20.40944481   79.43129730    4.90999985    2.64000010
   20.41250038   79.86509705    4.90999985    2.64000010
   20.41583252   83.40509796    4.90999985    2.64000010
   20.41777802   81.71320343    4.90999985    2.64000010
   20.41944313   83.37020111    4.90999985    2.64000010
   20.42249870   85.23660278    4.90999985    2.64000010
   20.42583275   82.61900330    4.90999985    2.66000009
   20.42916679   81.43489838    4.90999985    2.64000010
   20.43527603   81.43489838    4.90999985    2.64000010
   20.43916512   81.16670227    4.90999985    2.64000010
   20.44249916   78.58149719    4.90999985    2.64000010
   20.44583321   79.52899933    4.90999985    2.64000010
   20.44888878   78.49929810    4.90999985    2.61999989
   20.45138931   79.90969849    4.90999985    2.64000010
   20.45277786   82.73919678    4.90999985    2.64000010
   20.45583344   85.90519714    4.90999985    2.64000010
   20.45916748   82.11810303    4.90999985    2.64000010
   20.46222305   80.35030365    4.90999985    2.64000010
   20.46555710   79.08399963    4.90999985    2.61999989
   20.46888924   79.06710052    4.90999985    2.61999989
   20.47194481   83.81159973    4.90999985    2.64000010
   20.47805595   83.81159973    4.90999985    2.61999989
   20.48222351   86.33760071    4.90999985    2.64000010
   20.48472214   83.57479858    4.90999985    2.61999989
   20.48583412   86.85639954    4.90999985    2.61999989
   20.48888969   80.92690277    4.90999985    2.64000010
   20.49222183   82.77610016    4.90999985    2.64000010
   20.49527740   84.29280090    4.90999985    2.64000010
   20.49861145   81.67700195    4.90999985    2.61999989
   20.50194359   81.33419800    4.90999985    2.61999989
   20.50499916   87.46219635    4.90999985    2.61999989
   20.50833321   84.74240112    4.90999985    2.61999989
   20.51138878   78.35649872    4.90999985    2.61999989
   20.51472282   80.32649994    4.90999985    2.61999989
   20.52083397   80.32649994    4.90999985    2.64000010
   20.52499962   82.65390015    4.90999985    2.61999989
   20.52805519   83.32420349    4.90999985    2.61999989
   20.53138924   90.25209808    4.90999985    2.64000010
   20.53472137   85.80020142    4.90999985    2.61999989
   20.53805542   86.39949799    4.90999985    2.61999989
   20.54111099   88.59290314    4.90999985    2.61999989
   20.54444313   86.21150208    4.90999985    2.61999989
   20.54749870   81.16349792    4.90999985    2.61999989
   20.55083275   86.93640137    4.90999985    2.59999990
   20.55166626   85.13700104    4.90999985    2.61999989
   20.55444336   88.04409790    4.90999985    2.59999990
   20.55749893   84.89420319    4.90999985    0.01000000
   20.56361008   84.89420319    4.90999985    2.59999990
   20.56777954   84.90630341    4.90999985    2.59999990
   20.57111168   84.72000122    4.90999985    2.59999990
   20.57416725   85.72859955    4.90999985    2.59999990
   20.57750130   89.38480377    4.90999985    2.59999990
   20.58083344   86.01670074    4.90999985    2.59999990
   20.58388901   90.87909698    4.90999985    2.59999990
   20.58500099   86.76519775    4.90999985    2.59999990
   20.58750153   84.88700104    4.90999985    2.59999990
   20.59055710   87.54260254    4.90999985    2.59999990
   20.59388924   89.82209778    4.90999985    2.59999990
   20.59722328   80.20580292    4.90999985    2.59999990
   20.60027885   87.64189911    4.90999985    2.59999990
   20.60666656   87.64189911    4.90999985    2.57999992
   20.61055565   88.21289825    4.90999985    2.57999992
   20.61388969   88.76560211    4.90999985    2.59999990
   20.61722183   88.18450165    4.90999985    2.57999992
   20.61861038   85.12660217    4.90999985    2.57999992
   20.62083435   92.84519958    4.90999985    2.57999992
   20.62388992   86.64459991    4.90999985    2.59999990
   20.62722206   86.73110199    4.90999985    2.59999990
   20.63027763   90.39949799    4.90999985    2.57999992
   20.63361168   87.67379761    4.90999985    2.59999990
   20.63694382   90.10540009    4.90999985    2.57999992
   20.63999939   86.39540100    4.90999985    2.59999990
   20.64333344   96.74320221    4.90999985    2.57999992
   20.64944458   96.74320221    4.90999985    2.57999992
   20.66777802   85.14189911    4.90999985    2.57999992
   20.67111015   98.12709808    4.90999985    2.57999992
   20.67416573   84.61190033    4.90999985    2.59999990
   20.67749977   93.92269897    4.90999985    2.57999992
   20.68055534   85.12180328    4.90999985    2.57999992
   20.68388748   87.60070038    4.90999985    2.55999994
   20.68722153   88.59480286    4.90999985    2.57999992
   20.69249916   88.59480286    4.90999985    2.55999994
   20.69666672   95.09660339    4.90999985    2.57999992
   20.69972038   92.15260315    4.90999985    2.57999992
   20.70083427   91.32250214    4.90999985    2.55999994
   20.70361137   95.62129974    4.90999985    2.57999992
   20.70666695   95.30850220    4.90999985    2.57999992
   20.71000099   93.66359711    4.90999985    2.57999992
   20.71305656   93.40380096    4.90999985    2.57999992
   20.71638870   87.23410034    4.90999985    2.57999992
   20.71972275   92.63629913    4.90999985    2.57999992
   20.72277832   93.51670074    4.90999985    2.57999992
   20.72611237   91.23090363    4.90999985    2.57999992
   20.72944450   99.33329773    4.90999985    2.55999994
   20.73527718   99.33329773    4.90999985    2.55999994
   20.73944473  141.28599548    4.90999985    2.55999994
   20.74277878  150.08299255    4.90999985    2.55999994
   20.74583435  173.49499512    4.90999985    2.55999994
   20.74916649  183.88800049    4.90999985    2.55999994
   20.75222206  183.72399902    4.90999985    2.55999994
   20.75555611  197.75900269    4.90999985    2.55999994
   20.75888824   -1.00000000    4.90999985    2.55999994
   20.76194382   -1.00000000    4.90999985    2.55999994
   20.76527786   -1.00000000    4.90999985    2.55999994
   20.76861000   -1.00000000    4.90999985    2.55999994
   20.77194405   -1.00000000    4.90999985    2.55999994
   20.78222275   -1.00000000    4.90999985    2.55999994
   20.78555489   -1.00000000    4.90999985    2.55999994
   20.78861046   -1.00000000    4.90999985    2.53999996
   20.79194450   -1.00000000    4.90999985    2.53999996
   20.79500008   -1.00000000    4.90999985    2.53999996
   20.79833221   -1.00000000    4.90999985    2.53999996
   20.80194283   -1.00000000    4.90999985    2.53999996
   20.80527687   -1.00000000    4.90999985    2.55999994
   20.80833244   -1.00000000    4.90999985    2.55999994
   20.81166649   -1.00000000    4.90999985    2.53999996
   20.81499863   -1.00000000    4.90999985    2.53999996
   20.82500076   -1.00000000    4.90999985    2.53999996
   20.82833481   -1.00000000    4.90999985    2.53999996
   20.83139038   -1.00000000    4.90999985    2.53999996
   20.83500099   -1.00000000    4.90999985    2.53999996
   20.83833313   -1.00000000    4.90999985    2.53999996
   20.84138870   -1.00000000    4.90999985    2.53999996
   20.84472275   -1.00000000    4.90999985    2.53999996
   20.84805679   -1.00000000    4.90999985    2.53999996
   20.85111237   -1.00000000    4.90999985    2.53999996
   20.85444450   -1.00000000    4.90999985    2.53999996
   20.85777855   -1.00000000    4.90999985    2.51999998
   20.86777878   -1.00000000    4.90999985    2.51999998
   20.87111092   -1.00000000    4.90999985    2.51999998
   20.87444496   -1.00000000    4.90999985    2.51999998
   20.87750053   -1.00000000    4.90999985    2.51999998
   20.88083267   -1.00000000    4.90999985    2.51999998
   20.88416672   -1.00000000    4.90999985    2.51999998
   20.88722229   -1.00000000    4.90999985    2.51999998
   20.89055634   -1.00000000    4.90999985    2.51999998
   20.89361191   -1.00000000    4.90999985    2.51999998
   20.89694405   -1.00000000    4.90999985    2.51999998
   20.90027809   -1.00000000    4.90999985    2.51999998
   20.91083336   -1.00000000    4.90999985    2.51999998
   20.91388893   -1.00000000    4.90999985    2.51999998
   20.91722107   -1.00000000    4.90999985    2.51999998
   20.92027664   -1.00000000    4.90999985    2.51999998
   20.92361069   -1.00000000    4.90999985    2.51999998
   20.92694473   -1.00000000    4.90999985    2.50000000
   20.93000031   -1.00000000    4.90999985    2.50000000
   20.93333244   -1.00000000    4.90999985    2.50000000
   20.93666649   -1.00000000    4.90999985    2.50000000
