    HOUR (UT)   FLARE FACTOR    SKY TESTER    SUN TESTER
   11.42527771   -1.00000000   -1.00000000   -1.00000000
   11.49499989  130.19500732    4.48999977    2.61999989
   11.49805546  116.79699707    4.46999979    2.61999989
   11.50138855  110.98500061    4.46999979    2.64000010
   11.50472260  115.12999725    4.48999977    2.61999989
   11.50777817  130.46699524    4.51000023    2.61999989
   11.51111126  110.91200256    4.53999996    2.64000010
   11.51527786  110.91200256    4.53000021    2.61999989
   11.51944447  133.56799316    4.53999996    2.61999989
   11.52250004  133.52600098    4.55999994    2.61999989
   11.52583313  129.66600037    4.55999994    2.61999989
   11.52833271  145.84300232    4.57999992    2.61999989
   11.52944374  141.11000061    4.59999990    2.61999989
   11.53277779  133.72300720    4.59999990    2.64000010
   11.53583336  120.66300201    4.63999987    2.64000010
   11.53916740  127.36499786    4.67999983    2.61999989
   11.54250050  128.88999939    4.59999990    2.64000010
   11.54555607  134.10000610    4.63999987    2.64000010
   11.54888916  139.05799866    4.63999987    2.61999989
   11.55222225  155.79400635    4.61999989    2.61999989
   11.55805588  155.79400635    4.63999987    2.64000010
   11.56222248  139.36199951    4.59999990    2.64000010
   11.56527805  140.19400024    4.61999989    2.64000010
   11.56861115  137.01100159    4.61999989    2.64000010
   11.57194424  134.52299500    4.63999987    2.64000010
   11.57499981  148.88999939    4.61999989    2.64000010
   11.57833290  141.65800476    4.61999989    2.64000010
   11.58166695  137.58700562    4.57999992    2.64000010
   11.58472157  127.69599915    4.59999990    2.64000010
   11.58805561  113.53600311    4.61999989    2.64000010
   11.59138870  126.94599915    4.53000021    2.64000010
   11.59444427  121.07900238    4.57999992    2.64000010
   11.59499931  140.83999634    4.57999992    2.64000010
   11.60083389  140.83999634    4.53000021    2.66000009
   11.60500050  122.96399689    4.53000021    2.64000010
   11.60833359  133.98100281    4.53000021    2.66000009
   11.61138916  126.82099915    4.53000021    2.64000010
   11.61472225  132.01699829    4.53000021    2.66000009
   11.61777782  129.83399963    4.48999977    2.66000009
   11.62111092  124.57099915    4.53000021    2.66000009
   11.62444496  130.00500488    4.57999992    2.66000009
   11.62750053  121.51699829    4.55999994    2.66000009
   11.62833309  132.06700134    4.53000021    2.66000009
   11.63138866  134.62199402    4.51000023    2.66000009
   11.63444424  149.84300232    4.53999996    2.66000009
   11.63777733  149.11700439    4.57999992    2.66000009
   11.64361095  149.11700439    4.61999989    2.66000009
   11.64777756  137.82800293    4.53000021    2.66000009
   11.65111065  144.83700562    4.53999996    2.66000009
   11.65416622  144.78300476    4.59999990    2.66000009
   11.65749931  134.17599487    4.53999996    2.66000009
   11.66083336  155.77299500    4.59999990    2.66000009
   11.66166592  155.71800232    4.55999994    2.66000009
   11.66444397  199.42300415    4.59999990    2.66000009
   11.66750050  168.17700195    4.57999992    2.66000009
   11.67083359  166.89599609    4.59999990    2.67000008
   11.67416668  168.49200439    4.57999992    2.66000009
   11.67722225  182.47599792    4.57999992    2.66000009
   11.68055630  192.48800659    4.53000021    2.67000008
   11.68666649  192.48800659    4.55999994    2.67000008
   11.69055557  170.36900330    4.55999994    2.67000008
   11.69388866  183.78900146    4.59999990    2.66000009
   11.69499969  174.94999695    4.61999989    2.67000008
   11.69750023  184.34500122    4.59999990    2.67000008
   11.70055580  180.80900574    4.57999992    2.66000009
   11.70388889  177.05200195    4.63999987    2.66000009
   11.70722198  182.01800537    4.63999987    2.67000008
   11.71027756  176.86700439    4.65999985    2.67000008
   11.71361065  174.58999634    4.63999987    2.67000008
   11.71694374  176.23500061    4.65999985    2.66000009
   11.71999931  174.61799622    4.65999985    2.67000008
   11.72333336  206.05499268    4.67999983    2.67000008
   11.72944355  206.05499268    4.71999979    2.67000008
   11.73361111  190.70500183    4.63999987    2.67000008
   11.73666668  176.11399841    4.67999983    2.67000008
   11.74000072  164.59199524    4.67999983    2.67000008
   11.74333382  173.39700317    4.65999985    2.67000008
   11.74638939  164.93200684    4.67999983    2.69000006
   11.74972248  145.68299866    4.67999983    2.69000006
   11.75305557  162.40600586    4.69999981    2.67000008
   11.75611115  151.98800659    4.69999981    2.67000008
   11.75944424  169.79699707    4.65999985    2.67000008
   11.76166630  173.18699646    4.65999985    2.67000008
   11.76305580  187.67599487    4.67999983    2.69000006
   11.76611137  154.84100342    4.65999985    2.67000008
   11.77222157  154.84100342    4.65999985    2.67000008
   11.77638817  149.39799500    4.65999985    2.69000006
   11.77972221  154.48899841    4.67999983    2.69000006
   11.78277779  150.67700195    4.63999987    2.69000006
   11.78611183  166.64100647    4.67999983    2.67000008
   11.78916740  163.80000305    4.61999989    2.69000006
   11.79250050  149.73500061    4.63999987    2.69000006
   11.79500008  154.51600647    4.59999990    2.69000006
   11.79611111  156.99699402    4.69999981    2.69000006
   11.79916668  147.37800598    4.59999990    2.71000004
   11.80249977  139.58099365    4.71999979    2.69000006
   11.80583382  138.58099365    4.59999990    2.69000006
   11.80888939  145.14900208    4.65999985    2.69000006
   11.81500053  145.14900208    4.57999992    2.69000006
   11.81916618  133.69500732    4.69999981    2.69000006
   11.82250023  141.82099915    4.59999990    2.69000006
   11.82555580  145.57000732    4.63999987    2.69000006
   11.82833290  152.69299316    4.63999987    2.69000006
   11.82972240  153.23699951    4.63999987    2.69000006
   11.83305550  150.33500671    4.63999987    2.69000006
   11.83611107  147.07200623    4.69999981    2.69000006
   11.83944416  146.93699646    4.73999977    2.69000006
   11.84249973  154.11799622    4.73999977    2.69000006
   11.84583282  130.49200439    4.71999979    2.69000006
   11.84916592  132.63900757    4.71999979    2.69000006
   11.85222244  152.77400208    4.67999983    2.71000004
   11.85805607  152.77400208    4.67999983    2.71000004
   11.86194515  170.93299866    4.67999983    2.69000006
   11.86527824  140.58399963    4.73999977    2.69000006
   11.86861134  128.47999573    4.73999977    2.69000006
   11.87166691  131.95500183    4.71999979    2.71000004
   11.87500000  144.45599365    4.65999985    2.71000004
   11.87833309  131.51800537    4.71999979    2.69000006
   11.88138866  128.92399597    4.69999981    2.71000004
   11.88472176  147.39300537    4.76000023    2.71000004
   11.88777733  138.22300720    4.76000023    2.71000004
   11.89111137  130.27699280    4.78000021    2.71000004
   11.89444447  116.44499969    4.78000021    2.71000004
   11.89499950  128.25100708    4.78000021    2.71000004
   11.90083313  128.25100708    4.76000023    2.71000004
   11.90499973  129.78799438    4.80999994    2.71000004
   11.90805531  144.29899597    4.80000019    2.71000004
   11.91138840  152.74000549    4.82999992    2.71000004
   11.91472149  150.50000000    4.80999994    2.71000004
   11.91777802  158.33799744    4.86999989    2.71000004
   11.92111111  172.59500122    4.84999990    2.71000004
   11.92416668  158.44099426    4.88999987    2.71000004
   11.92750072  140.66900635    4.82999992    2.73000002
   11.92833328  156.14599609    4.88999987    2.71000004
   11.93111134  161.42599487    4.86999989    2.71000004
   11.93444443  156.33200073    4.82999992    2.71000004
   11.93750000  157.55599976    4.84999990    2.71000004
   11.94361115  157.55599976    4.82999992    2.71000004
   11.94777775  138.02000427    4.80999994    2.71000004
   11.95111084  146.20199585    4.86999989    2.71000004
   11.95416641  145.94599915    4.80000019    2.71000004
   11.95749950  148.20899963    4.80000019    2.71000004
   11.96055508  140.82499695    4.80000019    2.71000004
   11.96166611  139.74099731    4.84999990    2.71000004
   11.96444416  161.05200195    4.80999994    2.71000004
   11.96777725  164.54600525    4.82999992    2.73000002
   11.97083282  153.61799622    4.80999994    2.73000002
   11.97416592  155.13800049    4.82999992    2.71000004
   11.97722149  147.20300293    4.88999987    2.71000004
   11.98055553  149.99600220    4.88999987    2.71000004
   11.98638916  149.99600220    4.90999985    2.71000004
   11.99055576  147.61000061    4.90999985    2.73000002
   11.99388885  142.26499939    4.90999985    2.73000002
   11.99499989  161.32899475    4.90999985    2.71000004
   11.99750042  148.55400085    4.90999985    2.73000002
   12.00083351  141.24800110    4.90999985    2.73000002
   12.00388908  149.80799866    4.90999985    2.73000002
   12.00722218  132.77699280    4.90999985    2.73000002
   12.01027775  144.75000000    4.90999985    2.73000002
   12.01361084  139.83900452    4.90999985    2.73000002
   12.01694393  141.04600525    4.90999985    2.73000002
   12.01999950  147.07899475    4.90999985    2.73000002
   12.02333355  140.24899292    4.90999985    2.73000002
   12.02944374  140.24899292    4.90999985    2.75000000
   12.03333378  137.68200684    4.90999985    2.73000002
   12.03666687  129.11300659    4.90999985    2.73000002
   12.04000092  134.58299255    4.90999985    2.73000002
   12.04305553  148.88499451    4.90999985    2.73000002
   12.04638958  158.26499939    4.90999985    2.73000002
   12.04972267  124.80699921    4.90999985    2.73000002
   12.05277824  128.93499756    4.90999985    2.73000002
   12.05611134  157.14700317    4.90999985    2.73000002
   12.05916691  149.44000244    4.90999985    2.73000002
   12.06166649  139.36199951    4.90999985    2.75000000
   12.06305599  145.43299866    4.90999985    2.73000002
   12.06638908  152.90400696    4.90999985    2.75000000
   12.07222176  152.90400696    4.90999985    2.73000002
   12.07638836  151.84700012    4.90999985    2.75000000
   12.07944393  155.94599915    4.90999985    2.73000002
   12.08277798  183.15199280    4.90999985    2.73000002
   12.08611107  165.10099792    4.90999985    2.73000002
   12.08916664  146.45100403    4.90999985    2.75000000
   12.09249973  148.62300110    4.90999985    2.73000002
   12.09499931  159.68899536    4.90999985    2.75000000
   12.09611034  185.32499695    4.90999985    2.75000000
   12.09944439  177.94400024    4.90999985    2.75000000
   12.10249996  158.40899658    4.90999985    2.75000000
   12.10583401  138.69400024    4.90999985    2.75000000
   12.10888958  172.66900635    4.90999985    2.75000000
   12.11500072  172.66900635    4.90999985    2.75000000
   12.11916637  151.79200745    4.90999985    2.75000000
   12.12250042  167.49299622    4.90999985    2.75000000
   12.12555599  141.68099976    4.90999985    2.75000000
   12.12833309  150.55799866    4.90999985    2.75000000
   12.12916660  138.16700745    4.90999985    2.75000000
   12.13249969  143.13299561    4.90999985    2.75000000
   12.13555527  152.52699280    4.90999985    2.75000000
   12.13888836  147.41099548    4.90999985    2.75000000
   12.14194393  136.85000610    4.90999985    2.75000000
   12.14527798  127.22100067    4.90999985    2.75000000
   12.14861107  152.58000183    4.90999985    2.75000000
   12.15166664  136.64700317    4.90999985    2.76999998
   12.15777779  136.64700317    4.90999985    2.75000000
   12.16194439  133.67399597    4.90999985    2.75000000
   12.16527748  137.98399353    4.90999985    2.76999998
   12.16833401  157.16200256    4.90999985    2.75000000
   12.17166710  141.85699463    4.90999985    2.76999998
   12.17500019  147.62699890    4.90999985    2.75000000
   12.17805576  142.67399597    4.90999985    2.75000000
   12.18138885  131.33700562    4.90999985    2.75000000
   12.18472195  140.11599731    4.90999985    2.75000000
   12.18777752  139.31700134    4.90999985    2.75000000
   12.19111156  134.90299988    4.90999985    2.75000000
   12.19444466  128.83399963    4.90999985    2.75000000
   12.19499969  147.54400635    4.90999985    2.75000000
   12.20083332  147.54400635    4.90999985    2.76999998
   12.20472240  138.41000366    4.90999985    2.75000000
   12.20805550  134.24600220    4.90999985    2.76999998
   12.21138859  136.52299500    4.90999985    2.76999998
   12.21444416  139.30000305    4.90999985    2.75000000
   12.21777725  146.98199463    4.90999985    2.76999998
   12.22111034  154.29100037    4.90999985    2.76999998
   12.22416592  121.26899719    4.90999985    2.78999996
   12.22749996  151.53399658    4.90999985    2.76999998
   12.22833252  140.52600098    4.90999985    2.76999998
   12.23111057  170.47000122    4.90999985    2.76999998
   12.23444462  150.28799438    4.90999985    2.76999998
   12.23750019  146.76600647    4.90999985    2.76999998
   12.24361134  146.76600647    4.90999985    2.75000000
   12.24777794  144.35800171    4.90999985    2.76999998
   12.25083351  146.48500061    4.90999985    2.76999998
   12.25416660  143.77900696    4.90999985    2.76999998
   12.25749969  147.63800049    4.90999985    2.76999998
   12.26055527  155.08999634    4.90999985    2.76999998
   12.26166630  153.54499817    4.90999985    2.76999998
   12.26416683  137.24000549    4.90999985    2.78999996
   12.26749992  141.72700500    4.90999985    2.76999998
   12.27055550  134.66099548    4.90999985    2.76999998
   12.27388859  143.95300293    4.90999985    2.76999998
   12.27722168  140.54800415    4.90999985    2.76999998
   12.28027725  117.48100281    4.90999985    2.75000000
   12.28638935  117.48100281    4.90999985    2.76999998
   12.29055595  127.35299683    4.90999985    2.76999998
   12.29388905  119.92900085    4.90999985    2.76999998
   12.29500008  138.00500488    4.90999985    2.76999998
   12.29750061  126.82199860    4.90999985    2.76999998
   12.30083370  143.49099731    4.90999985    2.76999998
   12.30388927  132.47099304    4.90999985    2.76999998
   12.30722237  121.88300323    4.90999985    2.76999998
   12.31055546  147.21699524    4.90999985    2.76999998
   12.31361103  136.12199402    4.90999985    2.78999996
   12.31694412  133.16499329    4.90999985    2.76999998
   12.31999969  138.54800415    4.90999985    2.76999998
   12.32333374  141.05700684    4.90999985    2.76999998
   12.32916641  141.05700684    4.90999985    2.76999998
   12.33333302  137.78799438    4.90999985    2.76999998
   12.33666611  133.94500732    4.90999985    2.76999998
   12.33972168  128.33599854    4.90999985    2.76999998
   12.34305477  151.84599304    4.90999985    2.76999998
   12.34638882  147.25799561    4.90999985    2.76999998
   12.34944439  138.63499451    4.90999985    2.78999996
   12.35277843  154.37100220    4.90999985    2.78999996
   12.35611153  161.17399597    4.90999985    2.78999996
   12.35916710  140.00100708    4.90999985    2.76999998
   12.36166668  154.64300537    4.90999985    2.76999998
   12.36277771  138.96000671    4.90999985    2.76999998
   12.36611176  132.83500671    4.90999985    2.76999998
   12.37194443  132.83500671    4.90999985    2.76999998
   12.37611103  132.96099854    4.90999985    2.76999998
   12.37944412  133.85400391    4.90999985    2.76999998
   12.38277817  166.09599304    4.90999985    2.76999998
   12.38583279  141.63900757    4.90999985    2.78999996
   12.38916683  160.91000366    4.90999985    2.78999996
   12.39249992  178.93200684    4.90999985    2.78999996
   12.39499950  169.66200256    4.90999985    2.76999998
   12.39611053  166.11999512    4.90999985    2.78999996
   12.39944458  168.69200134    4.90999985    2.76999998
   12.40249920  165.99800110    4.90999985    2.76999998
   12.40583324  167.10299683    4.90999985    2.78999996
   12.40916634  194.64199829    4.90999985    2.78999996
   12.41499996  194.64199829    4.90999985    2.78999996
   12.41916656  163.75599670    4.90999985    2.76999998
   12.42222214  169.52099609    4.90999985    2.76999998
   12.42555618  169.87500000    4.90999985    2.78999996
   12.42861176  167.89500427    4.90999985    2.76999998
   12.42916679  133.53100586    4.90999985    2.78999996
   12.43249989  178.11799622    4.90999985    2.76999998
   12.43555546  173.85899353    4.90999985    2.78999996
   12.43888855  183.47700500    4.90999985    2.78999996
   12.44222260  165.87600708    4.90999985    2.78999996
   12.44527817  142.06700134    4.90999985    2.78999996
   12.44861126  167.63400269    4.90999985    2.78999996
   12.45166683  179.02099609    4.90999985    2.78999996
   12.45777798  179.02099609    4.90999985    2.78999996
   12.46194458  168.28399658    4.90999985    2.78999996
   12.46500015  151.27099609    4.90999985    2.78999996
   12.46833324  174.24099731    4.90999985    2.78999996
   12.47166634  156.55700684    4.90999985    2.78999996
   12.47472191  138.02299500    4.90999985    2.78999996
   12.47805500  186.27799988    4.90999985    2.78999996
   12.48138809  149.91200256    4.90999985    2.78999996
   12.48444462  157.48100281    4.90999985    2.78999996
   12.48777771  139.72099304    4.90999985    2.78999996
   12.49083328  147.34199524    4.90999985    2.78999996
   12.49416733  136.17700195    4.90999985    2.78999996
   12.49499989  155.96000671    4.90999985    2.76999998
   12.51583290  155.96000671    4.90999985    2.78999996
   12.51999950  159.31900024    4.90999985    2.78999996
   12.52305508  160.48399353    4.90999985    2.78999996
   12.52638817  167.86399841    4.90999985    2.78999996
   12.52833271  160.95899963    4.90999985    2.78999996
   12.52999973  147.38900757    4.90999985    2.78999996
   12.53333378  166.37500000    4.90999985    2.80999994
   12.53666687  153.69200134    4.90999985    2.78999996
   12.53972244  159.65499878    4.90999985    2.80999994
   12.54305553  165.46699524    4.90999985    2.78999996
   12.54638958  154.28500366    4.90999985    2.78999996
   12.54944515  137.52999878    4.90999985    2.78999996
   12.55277824  139.66099548    4.90999985    2.80999994
   12.55861092  139.66099548    4.90999985    2.80999994
   12.56277752  130.20500183    4.90999985    2.78999996
   12.56583309  137.83700562    4.90999985    2.80999994
   12.56916618  128.69799805    4.90999985    2.78999996
   12.57250023  137.83500671    4.90999985    2.80999994
   12.57555580  136.01300049    4.90999985    2.78999996
   12.57888889  127.44699860    4.90999985    2.80999994
   12.58194447  153.62300110    4.90999985    2.78999996
   12.58527756  159.33799744    4.90999985    2.80999994
   12.58861065  150.49699402    4.90999985    2.80999994
   12.59166622  134.16400146    4.90999985    2.78999996
   12.59499931  140.90899658    4.90999985    2.80999994
   12.59555531  138.42700195    4.90999985    2.80999994
   12.60138893  138.42700195    4.90999985    2.82999992
   12.60611153  136.22200012    4.90999985    2.82999992
   12.60944462  130.61000061    4.90999985    2.80999994
   12.61277771  136.98100281    4.90999985    2.80999994
   12.61583328  117.26399994    4.90999985    2.80999994
   12.61916637  120.30899811    4.90999985    2.80999994
   12.62250042  110.63300323    4.90999985    2.80999994
   12.62555599  121.39900208    4.90999985    2.80999994
   12.62888908  112.68000031    4.90999985    2.80999994
   12.62916660  104.48300171    4.90999985    2.80999994
   12.63249969  117.91799927    4.90999985    2.80999994
   12.63583279  102.55699921    4.90999985    2.80999994
   12.63888836  118.50299835    4.90999985    2.82999992
   12.64416695  118.50299835    4.90999985    2.80999994
   12.64833355  101.23600006    4.90999985    2.80999994
   12.65166664  121.01200104    4.90999985    2.78999996
   12.65472221  109.91100311    4.90999985    2.80999994
   12.65805531  117.94699860    4.90999985    2.80999994
   12.66138840  116.69000244    4.90999985    2.80999994
   12.66222191  115.98500061    4.90999985    2.80999994
   12.66472149  108.10800171    4.90999985    2.80999994
   12.66805553  109.07700348    4.90999985    2.82999992
   12.67138958  134.75999451    4.90999985    2.80999994
   12.67444515  122.22899628    4.90999985    2.80999994
   12.67777824  102.22000122    4.90999985    2.80999994
   12.68111134  114.80899811    4.90999985    2.80999994
   12.68694496  114.80899811    4.90999985    2.80999994
   12.69111156  124.59600067    4.90999985    2.80999994
   12.69444466  111.47499847    4.90999985    2.80999994
   12.69555569  122.15899658    4.90999985    2.80999994
   12.69805527  115.56199646    4.90999985    2.80999994
   12.70138836  120.98200226    4.90999985    2.80999994
   12.70472240  115.23100281    4.90999985    2.80999994
   12.70777798  115.87100220    4.90999985    2.82999992
   12.71111107  118.05699921    4.90999985    2.82999992
   12.71444416  107.45200348    4.90999985    2.82999992
   12.71749973  114.64600372    4.90999985    2.80999994
   12.72083282  104.76300049    4.90999985    2.80999994
   12.72388840  121.32800293    4.90999985    2.78999996
   12.72999954  121.32800293    4.90999985    2.82999992
   12.73416710  125.03900146    4.90999985    2.82999992
   12.73722267  122.66500092    4.90999985    2.80999994
   12.74055576  108.26100159    4.90999985    2.82999992
   12.74361134  110.19300079    4.90999985    2.82999992
   12.74694443  117.67700195    4.90999985    2.82999992
   12.75027752  124.80899811    4.90999985    2.80999994
   12.75333309  122.42600250    4.90999985    2.82999992
   12.75666714  138.48199463    4.90999985    2.82999992
   12.76000023  113.86699677    4.90999985    2.82999992
   12.76222229  121.08499908    4.90999985    2.80999994
   12.76333332  125.64600372    4.90999985    2.80999994
   12.76666641  119.83100128    4.90999985    2.80999994
   12.77277756  119.83100128    4.90999985    2.82999992
   12.77694416  117.73100281    4.90999985    2.82999992
   12.77999973  117.28500366    4.90999985    2.82999992
   12.78333378  122.23100281    4.90999985    2.82999992
   12.78666687  120.64499664    4.90999985    2.80999994
   12.78972244  124.48699951    4.90999985    2.80999994
   12.79305553  123.85700226    4.90999985    2.82999992
   12.79555607  132.15499878    4.90999985    2.80999994
   12.79666710  132.02999878    4.90999985    2.82999992
   12.80000019  123.87500000    4.90999985    2.82999992
   12.80333328  132.34199524    4.90999985    2.80999994
   12.80638885  129.98500061    4.90999985    2.80999994
   12.80972195  136.57899475    4.90999985    2.82999992
   12.81555557  136.57899475    4.90999985    2.82999992
   12.81972218  141.65600586    4.90999985    2.82999992
   12.82305527  143.02999878    4.90999985    2.82999992
   12.82611084  145.78900146    4.90999985    2.82999992
   12.82888889  143.19299316    4.90999985    2.80999994
   12.82972240  144.08500671    4.90999985    2.80999994
   12.83305550  140.01400757    4.90999985    2.82999992
   12.83638859  130.13499451    4.90999985    2.82999992
   12.83944416  135.38000488    4.90999985    2.82999992
   12.84277725  133.51499939    4.90999985    2.82999992
   12.84611034  139.35099792    4.90999985    2.82999992
   12.84916592  139.99099731    4.90999985    2.82999992
   12.85249996  145.85600281    4.90999985    2.82999992
   12.85833359  145.85600281    4.90999985    2.82999992
   12.86250019  127.62100220    4.90999985    2.82999992
   12.86583328  145.47799683    4.90999985    2.80999994
   12.86916637  145.11000061    4.90999985    2.82999992
   12.87222195  145.61399841    4.90999985    2.82999992
   12.87555599  161.95300293    4.90999985    2.82999992
   12.87861156  169.55000305    4.90999985    2.82999992
   12.88194466  142.78999329    4.90999985    2.82999992
   12.88527775  163.83200073    4.90999985    2.82999992
   12.88833332  151.59500122    4.90999985    2.80999994
   12.89166641  162.69900513    4.90999985    2.82999992
   12.89499950  167.59599304    4.90999985    2.82999992
   12.89555550  169.16900635    4.90999985    2.82999992
   12.90138817  169.16900635    4.90999985    2.82999992
   12.90555477  155.28399658    4.90999985    2.82999992
   12.90861034  154.40400696    4.90999985    2.82999992
   12.91194439  155.83000183    4.90999985    2.82999992
   12.91527748  160.60400391    4.90999985    2.84999990
   12.91833401  160.27200317    4.90999985    2.82999992
   12.92166710  171.94400024    4.90999985    2.82999992
   12.92500019  157.56500244    4.90999985    2.82999992
   12.92805576  157.70100403    4.90999985    2.80999994
   12.92888927  162.73100281    4.90999985    2.82999992
   12.93166733  158.05000305    4.90999985    2.82999992
   12.93472195  155.29400635    4.90999985    2.82999992
   12.93805599  158.39300537    4.90999985    2.82999992
   12.94416714  158.39300537    4.90999985    2.82999992
   12.94833374  154.80900574    4.90999985    2.82999992
   12.95166683  150.03900146    4.90999985    2.82999992
   12.95472240  150.22500610    4.90999985    2.84999990
   12.95805550  156.41299438    4.90999985    2.82999992
   12.96138859  146.68200684    4.90999985    2.82999992
   12.96222210  147.55099487    4.90999985    2.82999992
   12.96500015  146.33900452    4.90999985    2.82999992
   12.96805477  158.17399597    4.90999985    2.82999992
   12.97138882  149.62500000    4.90999985    2.82999992
   12.97472191  151.83299255    4.90999985    2.84999990
   12.97777748  157.99499512    4.90999985    2.82999992
   12.98111057  139.33200073    4.90999985    2.82999992
   12.98694515  139.33200073    4.90999985    2.84999990
   12.99111176  121.04799652    4.90999985    2.82999992
   12.99444485  146.72799683    4.90999985    2.82999992
   12.99555588  126.66100311    4.90999985    2.82999992
   12.99805546  149.71899414    4.90999985    2.82999992
   13.00111103  137.29100037    4.90999985    2.84999990
   13.00444412  145.08099365    4.90999985    2.84999990
   13.00749969  119.13999939    4.90999985    2.82999992
   13.01083374  147.23300171    4.90999985    2.82999992
   13.01416683  151.09199524    4.90999985    2.84999990
   13.01722240  138.82499695    4.90999985    2.82999992
   13.02055550  132.47500610    4.90999985    2.82999992
   13.02388859  152.20399475    4.90999985    2.82999992
   13.02972221  152.20399475    4.90999985    2.84999990
   13.03388977  141.52600098    4.90999985    2.82999992
   13.03722286  150.92700195    4.90999985    2.82999992
   13.04055595  123.92400360    4.90999985    2.82999992
   13.04361153  141.18099976    4.90999985    2.82999992
   13.04694462  168.78399658    4.90999985    2.84999990
   13.05000019  160.06500244    4.90999985    2.82999992
   13.05333328  154.24699402    4.90999985    2.82999992
   13.05666733  169.17199707    4.90999985    2.84999990
   13.05972195  153.56100464    4.90999985    2.84999990
   13.06222248  153.87800598    4.90999985    2.84999990
   13.06361103  164.06700134    4.90999985    2.84999990
   13.06666660  172.08399963    4.90999985    2.84999990
   13.07277775  172.08399963    4.90999985    2.84999990
   13.07694435  136.86999512    4.90999985    2.84999990
   13.07999992  156.31300354    4.90999985    2.84999990
   13.08333302  150.47399902    4.90999985    2.84999990
   13.08638859  174.61700439    4.90999985    2.84999990
   13.08972168  181.64799500    4.90999985    2.84999990
   13.09305477  155.92700195    4.90999985    2.84999990
   13.09555531  161.56100464    4.90999985    2.84999990
   13.09666634  158.42399597    4.90999985    2.84999990
   13.09972191  157.13000488    4.90999985    2.84999990
   13.10305595  138.75999451    4.90999985    2.84999990
   13.10611153  159.52099609    4.90999985    2.84999990
   13.10944462  146.07600403    4.90999985    2.84999990
   13.11555576  146.07600403    4.90999985    2.84999990
   13.11972237  148.10400391    4.90999985    2.84999990
   13.12277794  139.24200439    4.90999985    2.84999990
   13.12611103  135.88800049    4.90999985    2.84999990
   13.12888908  131.73199463    4.90999985    2.84999990
   13.13000011  141.39900208    4.90999985    2.84999990
   13.13305569  148.82000732    4.90999985    2.86999989
   13.13638878  126.24099731    4.90999985    2.84999990
   13.13944435  152.56700134    4.90999985    2.84999990
   13.14277744  130.82600403    4.90999985    2.84999990
   13.14611053  147.93499756    4.90999985    2.84999990
   13.14916611  128.17599487    4.90999985    2.86999989
   13.15249920  117.27700043    4.90999985    2.84999990
   13.15833282  117.27700043    4.90999985    2.84999990
   13.16249943  138.85499573    4.90999985    2.86999989
   13.16583252  129.92900085    4.90999985    2.86999989
   13.16888905  113.05999756    4.90999985    2.84999990
   13.17222214  143.80299377    4.90999985    2.84999990
   13.17527771  148.35299683    4.90999985    2.84999990
   13.17861176  142.47700500    4.90999985    2.86999989
   13.18194485  144.06500244    4.90999985    2.84999990
   13.18500042  124.23200226    4.90999985    2.84999990
   13.18833351  135.06199646    4.90999985    2.86999989
   13.19166660  132.77900696    4.90999985    2.84999990
   13.19472218  126.71499634    4.90999985    2.84999990
   13.19555569  121.60299683    4.90999985    2.86999989
   13.20111084  121.60299683    4.90999985    2.86999989
   13.20527744  122.29199982    4.90999985    2.84999990
   13.20861053  134.50900269    4.90999985    2.84999990
   13.21166611  151.79600525    4.90999985    2.86999989
   13.21500015  137.13699341    4.90999985    2.86999989
   13.21833324  128.10099792    4.90999985    2.86999989
   13.22166634  131.93699646    4.90999985    2.84999990
   13.22472191  144.15699768    4.90999985    2.86999989
   13.22805500  148.69200134    4.90999985    2.84999990
   13.22888851  134.98800659    4.90999985    2.84999990
   13.23166656  128.80599976    4.90999985    2.84999990
   13.23472214  119.67299652    4.90999985    2.82999992
   13.23805618  133.24699402    4.90999985    2.86999989
   13.24416733  133.24699402    4.90999985    2.84999990
   13.24833393  130.42999268    4.90999985    2.86999989
   13.25138855  125.02899933    4.90999985    2.84999990
   13.25472260  130.29200745    4.90999985    2.84999990
   13.25805569  129.33200073    4.90999985    2.84999990
   13.26111126  130.16400146    4.90999985    2.84999990
   13.26222229  143.80999756    4.90999985    2.84999990
   13.26472187  137.23599243    4.90999985    2.86999989
   13.26777744  135.33700562    4.90999985    2.84999990
   13.27111053  141.35699463    4.90999985    2.86999989
   13.27444458  135.92500305    4.90999985    2.84999990
   13.27750015  160.15600586    4.90999985    2.86999989
   13.28083324  154.49299622    4.90999985    2.84999990
   13.28694534  154.49299622    4.90999985    2.84999990
   13.29111195  147.02000427    4.90999985    2.84999990
   13.29444504  129.29200745    4.90999985    2.86999989
   13.29555607  153.61399841    4.90999985    2.84999990
   13.29805565  138.33399963    4.90999985    2.84999990
   13.30111122  151.39999390    4.90999985    2.86999989
   13.30444431  181.04699707    4.90999985    2.84999990
   13.30777836  174.59199524    4.90999985    2.86999989
   13.31083393  172.35499573    4.90999985    2.86999989
   13.31416702  170.33099365    4.90999985    2.84999990
   13.31722260  156.91299438    4.90999985    2.84999990
   13.32055569  172.73399353    4.90999985    2.84999990
   13.32388878  149.78900146    4.90999985    2.84999990
   13.32972240  149.78900146    4.90999985    2.86999989
   13.33388901  150.66000366    4.90999985    2.84999990
   13.33722210  175.52400208    4.90999985    2.86999989
   13.34027767  150.21099854    4.90999985    2.86999989
   13.34361076  150.75799561    4.90999985    2.84999990
   13.34694386  152.96099854    4.90999985    2.86999989
   13.35000038  165.20799255    4.90999985    2.86999989
   13.35333347  165.37500000    4.90999985    2.86999989
   13.35666752  165.12500000    4.90999985    2.86999989
   13.35972214  162.64300537    4.90999985    2.86999989
   13.36222267  158.90199280    4.90999985    2.84999990
   13.36361122  163.74600220    4.90999985    2.84999990
   13.36666679  147.64700317    4.90999985    2.86999989
   13.37277794  147.64700317    4.90999985    2.86999989
   13.37666702  149.51600647    4.90999985    2.84999990
   13.38000011  159.16900635    4.90999985    2.86999989
   13.38333321  160.63600159    4.90999985    2.86999989
   13.38638878  162.05599976    4.90999985    2.86999989
   13.38972187  175.23899841    4.90999985    2.86999989
   13.39277744  146.50599670    4.90999985    2.86999989
   13.39555550  134.82400513    4.90999985    2.84999990
   13.39666653  129.99699402    4.90999985    2.84999990
   13.39972210  164.16700745    4.90999985    2.86999989
   13.40305519  156.08000183    4.90999985    2.86999989
   13.40638828  140.44400024    4.90999985    2.86999989
   13.40944386  141.57099915    4.90999985    2.86999989
   13.41555500  141.57099915    4.90999985    2.86999989
   13.41972256  151.63800049    4.90999985    2.89000010
   13.42277813  151.65400696    4.90999985    2.86999989
   13.42611122  147.19099426    4.90999985    2.89000010
   13.42888927  124.95500183    4.90999985    2.86999989
   13.42972279  128.57499695    4.90999985    2.86999989
   13.43277836  137.99899292    4.90999985    2.86999989
   13.43611145  161.82400513    4.90999985    2.86999989
   13.43944454  146.74699402    4.90999985    2.86999989
   13.44250011  156.52099609    4.90999985    2.89000010
   13.44583321  156.12699890    4.90999985    2.86999989
   13.44888878  139.00799561    4.90999985    2.86999989
   13.45222187  153.71600342    4.90999985    2.86999989
   13.45833302  153.71600342    4.90999985    2.86999989
   13.46249962  173.61599731    4.90999985    2.86999989
   13.46555519  192.72099304    4.90999985    2.89000010
   13.46888828  212.10099792    4.90999985    2.84999990
   13.47222137  201.76400757    4.90999985    2.86999989
   13.47527695  180.17100525    4.90999985    2.86999989
   13.47861099  183.43400574    4.90999985    2.86999989
   13.48194408  172.74200439    4.90999985    2.89000010
   13.48500061  173.75000000    4.90999985    2.86999989
   13.48833370  168.71499634    4.90999985    2.84999990
   13.49138927  170.07000732    4.90999985    2.89000010
   13.49472237  161.44799805    4.90999985    2.89000010
   13.49555588  169.65100098    4.90999985    2.86999989
   13.50111103  169.65100098    4.90999985    2.89000010
   13.50527763  174.76899719    4.90999985    2.86999989
   13.50861073  203.59199524    4.90999985    2.86999989
   13.51166630  212.91799927    4.90999985    2.86999989
   13.52916622  174.33999634    4.90999985    2.89000010
   13.53166676  191.66000366    4.90999985    2.89000010
   13.53500080  207.19099426    4.90999985    2.89000010
   13.53805637  220.45199585    4.90999985    2.86999989
   13.54416752  220.45199585    4.90999985    2.86999989
   13.54833412  215.77299500    4.90999985    2.89000010
   13.55166721  163.63000488    4.90999985    2.89000010
   13.55472279  220.00999451    4.90999985    2.89000010
   13.55805588  193.88099670    4.90999985    2.89000010
   13.56111145  196.41900635    4.90999985    2.89000010
   13.56250000  205.81100464    4.90999985    2.89000010
   13.56500053  185.35499573    4.90999985    2.89000010
   13.56833363  192.88000488    4.90999985    2.89000010
   13.57138920  211.20500183    4.90999985    2.89000010
   13.57472229  223.89999390    4.90999985    2.89000010
   13.57805538  196.70799255    4.90999985    2.89000010
   13.58111095  176.83799744    4.90999985    2.89000010
   13.58694458  176.83799744    4.90999985    2.86999989
   13.59111118  184.54699707    4.90999985    2.86999989
   13.59444427  185.59399414    4.90999985    2.86999989
   13.59583282  163.70399475    4.90999985    2.89000010
   13.59805489  185.77999878    4.90999985    2.89000010
   13.60138893  185.27000427    4.90999985    2.89000010
   13.60444450  169.36500549    4.90999985    2.89000010
   13.60777855  209.79899597    4.90999985    2.86999989
   13.61083412  197.61300659    4.90999985    2.89000010
   13.61416721  215.55900574    4.90999985    2.89000010
   13.61750031  207.76400757    4.90999985    2.89000010
   13.62055588  210.44599915    4.90999985    2.86999989
   13.62388897  235.48300171    4.90999985    2.89000010
   13.63000011  235.48300171    4.90999985    2.89000010
   13.63416672  205.40199280    4.90999985    2.89000010
   13.63722229  221.80499268    4.90999985    2.91000009
   13.64055538  203.57899475    4.90999985    2.89000010
   13.64361095  181.39500427    4.90999985    2.89000010
   13.64694405  171.77499390    4.90999985    2.89000010
   13.65027714  190.41000366    4.90999985    2.89000010
   13.65333271  188.63499451    4.90999985    2.89000010
   13.65666676  202.08799744    4.90999985    2.89000010
   13.65972137  175.59100342    4.90999985    2.89000010
   13.66249943  178.13600159    4.90999985    2.89000010
   13.66361046  186.19599915    4.90999985    2.91000009
   13.66694450  177.79499817    4.90999985    2.91000009
   13.67277813  177.79499817    4.90999985    2.89000010
   13.67694473  155.89300537    4.90999985    2.93000007
   13.68000031  159.27499390    4.90999985    2.89000010
   13.68333340  146.94500732    4.90999985    2.89000010
   13.68666649  158.01300049    4.90999985    2.86999989
   13.68972206  147.36399841    4.90999985    2.89000010
   13.69305515  149.45599365    4.90999985    2.89000010
   13.69583321  151.35000610    4.90999985    2.86999989
   13.69666672  140.44599915    4.90999985    2.86999989
   13.69999981  151.82099915    4.90999985    2.89000010
   13.70305538  154.50799561    4.90999985    2.91000009
   13.70638847  141.98800659    4.90999985    2.89000010
   13.70944405  155.86999512    4.90999985    2.89000010
   13.71555519  155.86999512    4.90999985    2.89000010
   13.71972179  172.36999512    4.90999985    2.89000010
   13.72305489  178.75999451    4.90999985    2.89000010
   13.72611046  155.02099609    4.90999985    2.89000010
   13.72916603  173.55000305    4.90999985    2.91000009
   13.72972202  161.04200745    4.90999985    2.91000009
   13.73305511  154.72799683    4.90999985    2.89000010
   13.73611164  165.90100098    4.90999985    2.89000010
   13.73944473  160.70899963    4.90999985    2.89000010
   13.74277782  177.33099365    4.90999985    2.89000010
   13.74583340  169.42700195    4.90999985    2.89000010
   13.74916649  158.52299500    4.90999985    2.89000010
   13.75249958  171.71600342    4.90999985    2.89000010
   13.75833321  171.71600342    4.90999985    2.89000010
   13.76249981  156.61399841    4.90999985    2.89000010
   13.76305580  177.25500488    4.90999985    2.89000010
   13.76638889  159.21200562    4.90999985    2.89000010
   13.76944447  164.54299927    4.90999985    2.89000010
   13.77277756  154.71000671    4.90999985    2.89000010
   13.77611065  174.93800354    4.90999985    2.91000009
   13.77916622  178.00100708    4.90999985    2.89000010
   13.78249931  177.58200073    4.90999985    2.89000010
   13.78555584  190.20199585    4.90999985    2.91000009
   13.78888893  167.84399414    4.90999985    2.89000010
   13.79222298  156.13699341    4.90999985    2.89000010
   13.79527855  162.16000366    4.90999985    2.91000009
   13.79583359  173.94999695    4.90999985    2.89000010
   13.80138874  173.94999695    4.90999985    2.89000010
   13.80555534  167.59800720    4.90999985    2.91000009
   13.80861092  159.15100098    4.90999985    2.89000010
   13.81194496  162.96899414    4.90999985    2.89000010
   13.81500053  179.05299377    4.90999985    2.89000010
   13.81833363  174.36399841    4.90999985    2.89000010
   13.82166672  183.34399414    4.90999985    2.89000010
   13.82472229  185.17999268    4.90999985    2.89000010
   13.82805538  166.80299377    4.90999985    2.89000010
   13.82916641  171.48500061    4.90999985    2.89000010
   13.83166695  151.64900208    4.90999985    2.89000010
   13.83500004  172.71600342    4.90999985    2.91000009
   13.83805561  173.75000000    4.90999985    2.91000009
   13.84416676  173.75000000    4.90999985    2.91000009
   13.84833336  165.15100098    4.90999985    2.91000009
   13.85138893  161.49099731    4.90999985    2.91000009
   13.85472298  187.57099915    4.90999985    2.91000009
   13.85805607  165.21400452    4.90999985    2.89000010
   13.86111164  166.06599426    4.90999985    2.89000010
   13.86250019  164.46200562    4.90999985    2.91000009
   13.86472225  158.81100464    4.90999985    2.89000010
   13.86805534  182.46299744    4.90999985    2.89000010
   13.87111092  169.78599548    4.90999985    2.89000010
   13.87444496  169.73199463    4.90999985    2.91000009
   13.87777805  184.27600098    4.90999985    2.91000009
   13.88083363  184.91799927    4.90999985    2.89000010
   13.88694477  184.91799927    4.90999985    2.91000009
   13.89111137  171.93800354    4.90999985    2.89000010
   13.89444447  139.42599487    4.90999985    2.89000010
   13.89583302  148.22099304    4.90999985    2.89000010
   13.89805508  153.93499756    4.90999985    2.91000009
   13.90138817  147.32600403    4.90999985    2.89000010
   13.90444374  176.21400452    4.90999985    2.89000010
   13.90777779  150.48399353    4.90999985    2.89000010
   13.91111088  159.35099792    4.90999985    2.89000010
   13.91416645  161.16200256    4.90999985    2.91000009
   13.91750050  152.84199524    4.90999985    2.91000009
   13.92083359  152.85000610    4.90999985    2.91000009
   13.92388916  126.99299622    4.90999985    2.91000009
   13.92972279  126.99299622    4.90999985    2.89000010
   13.93388939  133.13099670    4.90999985    2.89000010
   13.93722248  170.64700317    4.90999985    2.89000010
   13.94027805  145.49699402    4.90999985    2.91000009
   13.94361115  160.49600220    4.90999985    2.89000010
   13.94694424  152.60899353    4.90999985    2.89000010
   13.94999981  160.95500183    4.90999985    2.91000009
   13.95333290  152.64999390    4.90999985    2.91000009
   13.95638847  139.02999878    4.90999985    2.91000009
   13.95972157  147.86999512    4.90999985    2.89000010
   13.96249962  158.96000671    4.90999985    2.89000010
   13.96333313  144.30999756    4.90999985    2.89000010
   13.96666622  180.08700562    4.90999985    2.91000009
   13.97249985  180.08700562    4.90999985    2.91000009
   13.97666645  205.98199463    4.90999985    2.89000010
   13.97999954  255.60000610    4.90999985    2.91000009
   13.98333359  226.97099304    4.90999985    2.91000009
   13.98638916  271.27899170    4.90999985    2.91000009
   13.98972225  252.53700256    4.90999985    2.91000009
   13.99277782  222.88600159    4.90999985    2.91000009
   13.99583340  244.83099365    4.90999985    2.91000009
   13.99666691  214.52900696    4.90999985    2.91000009
   14.00000000  235.02299500    4.90999985    2.89000010
   14.00305557  225.81500244    4.90999985    2.89000010
   14.00638866  260.75100708    4.90999985    2.89000010
   14.00944424  243.80499268    4.90999985    2.89000010
   14.01555538  243.80499268    4.90999985    2.89000010
   14.01972198  211.41000366    4.90999985    2.89000010
   14.02277756  264.51000977    4.90999985    2.89000010
   14.02611065  291.91699219    4.90999985    2.91000009
   14.02916622  272.47500610    4.90999985    2.89000010
   14.02972221  268.62600708    4.90999985    2.89000010
   14.03305531  299.61499023    4.90999985    2.89000010
   14.03611183  238.15800476    4.90999985    2.91000009
   14.03944492  220.63499451    4.90999985    2.89000010
   14.04250050  227.63499451    4.90999985    2.89000010
   14.04583359  227.35400391    4.90999985    2.89000010
   14.04916668  247.46600342    4.90999985    2.89000010
   14.05222225  231.37500000    4.90999985    2.89000010
   14.05833340  231.37500000    4.90999985    2.89000010
   14.06250000  223.73599243    4.90999985    2.91000009
   14.06305599  216.42999268    4.90999985    2.89000010
   14.06638908  236.22999573    4.90999985    2.89000010
   14.06944466  243.56399536    4.90999985    2.89000010
   14.07277775  252.73699951    4.90999985    2.89000010
   14.07583332  219.14100647    4.90999985    2.89000010
   14.07916641  246.58200073    4.90999985    2.89000010
   14.08249950  201.44000244    4.90999985    2.89000010
   14.08555508  187.54100037    4.90999985    2.89000010
   14.08888817  162.20799255    4.90999985    2.89000010
   14.09222221  166.75599670    4.90999985    2.89000010
   14.09527779  188.04200745    4.90999985    2.89000010
   14.09638882  179.13099670    4.90999985    2.89000010
   14.10111141  179.13099670    4.90999985    2.89000010
   14.10527802  143.53999329    4.90999985    2.91000009
   14.10861111  191.50399780    4.90999985    2.89000010
   14.11166668  171.33200073    4.90999985    2.89000010
   14.11500072  203.00799561    4.90999985    2.86999989
   14.11833382  212.55999756    4.90999985    2.89000010
   14.12138939  191.67100525    4.90999985    2.89000010
   14.12472248  156.37899780    4.90999985    2.89000010
   14.12777805  162.53900146    4.90999985    2.89000010
   14.12972260  151.72399902    4.90999985    2.89000010
   14.13138866  128.86700439    4.90999985    2.91000009
   14.13472176  181.11399841    4.90999985    2.91000009
   14.13805580  140.08099365    4.90999985    2.89000010
   14.14388847  140.08099365    4.90999985    2.91000009
   14.14805508  129.49299622    4.90999985    2.89000010
   14.15138817  169.18099976    4.90999985    2.89000010
   14.15472221  156.00900269    4.90999985    2.86999989
   14.15777779  146.99600220    4.90999985    2.89000010
   14.16111088  156.38699341    4.90999985    2.89000010
   14.16305542  166.56199646    4.90999985    2.89000010
   14.16472149  144.95199585    4.90999985    2.89000010
   14.16805553  157.86900330    4.90999985    2.89000010
   14.17138958  158.10400391    4.90999985    2.91000009
   14.17444515  151.48599243    4.90999985    2.86999989
   14.17777824  157.21899414    4.90999985    2.89000010
   14.18111134  157.08799744    4.90999985    2.89000010
   14.18694496  157.08799744    4.90999985    2.89000010
   14.19111156  177.81399536    4.90999985    2.89000010
   14.19416714  179.17700195    4.90999985    2.89000010
   14.19638920  194.03199768    4.90999985    2.89000010
   14.19777775  153.16499329    4.90999985    2.89000010
   14.20111084  180.51899719    4.90999985    2.91000009
   14.20444393  193.18400574    4.90999985    2.89000010
   14.20749950  163.17100525    4.90999985    2.91000009
   14.21083355  166.35800171    4.90999985    2.89000010
   14.21416664  131.17399597    4.90999985    2.89000010
   14.21722221  150.77400208    4.90999985    2.89000010
   14.22055531  147.85200500    4.90999985    2.89000010
   14.22361088  141.89999390    4.90999985    2.89000010
   14.22972202  141.89999390    4.90999985    2.89000010
   14.23388958  151.50999451    4.90999985    2.89000010
   14.23694515  161.92500305    4.90999985    2.89000010
   14.24027824  146.19700623    4.90999985    2.91000009
   14.24361134  162.15299988    4.90999985    2.89000010
   14.24666691  146.63099670    4.90999985    2.91000009
   14.25000000  151.06599426    4.90999985    2.89000010
   14.25305557  158.38900757    4.90999985    2.89000010
   14.25638866  149.69700623    4.90999985    2.89000010
   14.25972176  157.98399353    4.90999985    2.89000010
   14.26277733  154.74899292    4.90999985    2.91000009
   14.26333332  166.80900574    4.90999985    2.89000010
   14.26666641  147.63499451    4.90999985    2.91000009
   14.27250004  147.63499451    4.90999985    2.91000009
   14.27666664  143.58799744    4.90999985    2.91000009
   14.27999973  151.14599609    4.90999985    2.89000010
   14.28305531  139.45500183    4.90999985    2.91000009
   14.28638935  140.86799622    4.90999985    2.89000010
   14.28944492  158.90699768    4.90999985    2.89000010
   14.29277802  163.94099426    4.90999985    2.91000009
   14.29611111  140.31900024    4.90999985    2.91000009
   14.29666710  145.66099548    4.90999985    2.89000010
   14.29972267  147.93499756    4.90999985    2.91000009
   14.30305576  152.18200684    4.90999985    2.94000006
   14.30611134  146.50199890    4.90999985    2.89000010
   14.30944443  168.26300049    4.90999985    2.91000009
   14.31527805  168.26300049    4.90999985    2.91000009
   14.31944466  164.16299438    4.90999985    2.89000010
   14.32277775  148.50900269    4.90999985    2.89000010
   14.32583332  136.98399353    4.90999985    2.89000010
   14.32916641  154.22700500    4.90999985    2.91000009
   14.32999992  150.57600403    4.90999985    2.91000009
   14.33277798  151.27200317    4.90999985    2.91000009
   14.33611107  141.83299255    4.90999985    2.91000009
   14.33916664  157.38400269    4.90999985    2.91000009
   14.34249973  166.93800354    4.90999985    2.89000010
   14.34555531  167.28799438    4.90999985    2.91000009
   14.34888840  145.83700562    4.90999985    2.91000009
   14.35222244  192.51199341    4.90999985    2.91000009
   14.35833359  192.51199341    4.90999985    2.89000010
   14.36250019  187.59899902    4.90999985    2.91000009
   14.36333370  184.41600037    4.90999985    2.91000009
   14.36611176  178.33399963    4.90999985    2.89000010
   14.36944485  168.12100220    4.90999985    2.91000009
   14.37250042  198.15299988    4.90999985    2.91000009
   14.37583351  152.54200745    4.90999985    2.89000010
   14.37888908  159.22300720    4.90999985    2.89000010
   14.38222218  169.61500549    4.90999985    2.91000009
   14.38555527  206.48599243    4.90999985    2.91000009
   14.38861084  210.86599731    4.90999985    2.89000010
   14.39194393  197.89199829    4.90999985    2.89000010
   14.39527798  170.94099426    4.90999985    2.89000010
   14.39666653  162.64300537    4.90999985    2.89000010
   14.40111065  162.64300537    4.90999985    2.89000010
   14.40527725  156.35299683    4.90999985    2.89000010
   14.40833282  153.78700256    4.90999985    2.89000010
   14.41166592  162.38600159    4.90999985    2.89000010
   14.41499996  150.12600708    4.90999985    2.91000009
   14.41805553  148.78100586    4.90999985    2.89000010
   14.42138958  159.87899780    4.90999985    2.91000009
   14.42472267  156.82099915    4.90999985    2.91000009
   14.42777824  172.32600403    4.90999985    2.91000009
   14.43000031  161.28100586    4.90999985    2.89000010
   14.43138885  146.89999390    4.90999985    2.91000009
   14.43472195  140.61000061    4.90999985    2.91000009
   14.43777752  154.02499390    4.90999985    2.91000009
   14.44388866  154.02499390    4.90999985    2.91000009
   14.44805527  150.95300293    4.90999985    2.89000010
   14.45138836  168.61000061    4.90999985    2.91000009
   14.45444393  158.20500183    4.90999985    2.91000009
   14.45777798  145.89399719    4.90999985    2.93000007
   14.46083355  155.90100098    4.90999985    2.89000010
   14.46333313  156.19200134    4.90999985    2.91000009
   14.46472168  160.94299316    4.90999985    2.91000009
   14.46805477  156.56100464    4.90999985    2.89000010
   14.47111034  150.42900085    4.90999985    2.91000009
   14.47444439  160.65899658    4.90999985    2.89000010
   14.47749996  166.16099548    4.90999985    2.89000010
   14.48083305  154.96699524    4.90999985    2.89000010
   14.48666668  154.96699524    4.90999985    2.91000009
   14.49083328  143.96699524    4.90999985    2.89000010
   14.49416733  142.27699280    4.90999985    2.91000009
   14.49666691  150.66400146    4.90999985    2.91000009
   14.49777794  147.25599670    4.90999985    2.91000009
   14.50111103  157.44999695    4.90999985    2.91000009
   14.50416660  152.19099426    4.90999985    2.89000010
   14.50749969  153.04499817    4.90999985    2.91000009
   14.51055527  150.04499817    4.90999985    2.91000009
   14.51388931  155.16700745    4.90999985    2.91000009
   14.51722240  148.69099426    4.90999985    2.89000010
   14.52027798  155.89799500    4.90999985    2.91000009
   14.52361107  156.97700500    4.90999985    2.91000009
   14.52972221  156.97700500    4.90999985    2.91000009
   14.54805565  165.64999390    4.90999985    2.91000009
   14.55111122  155.82200623    4.90999985    2.91000009
   14.55444431  158.84300232    4.90999985    2.93000007
   14.55777836  147.79899597    4.90999985    2.89000010
   14.56083393  154.68400574    4.90999985    2.91000009
   14.56416702  164.28300476    4.90999985    2.91000009
   14.56750011  155.93099976    4.90999985    2.91000009
   14.57277775  155.93099976    4.90999985    2.91000009
   14.57694435  155.73699951    4.90999985    2.91000009
   14.57999992  158.08700562    4.90999985    2.91000009
   14.58111095  161.33099365    4.90999985    2.91000009
   14.58361053  142.78700256    4.90999985    2.91000009
   14.58694458  158.22200012    4.90999985    2.91000009
   14.59027767  158.45399475    4.90999985    2.89000010
   14.59333324  150.70500183    4.90999985    2.91000009
   14.59666634  160.53500366    4.90999985    2.91000009
   14.60000038  154.42999268    4.90999985    2.91000009
   14.60305595  152.45300293    4.90999985    2.91000009
   14.60638905  160.08500671    4.90999985    2.89000010
   14.60972214  158.63999939    4.90999985    2.91000009
   14.61555576  158.63999939    4.90999985    2.91000009
   14.61972237  158.69799805    4.90999985    2.89000010
   14.62277794  157.50300598    4.90999985    2.91000009
   14.62611103  143.78900146    4.90999985    2.91000009
   14.62944412  156.74499512    4.90999985    2.91000009
   14.63249969  137.75700378    4.90999985    2.91000009
   14.63583279  160.19299316    4.90999985    2.91000009
   14.63916683  163.48800659    4.90999985    2.91000009
   14.64222240  162.26499939    4.90999985    2.91000009
   14.64555550  160.44200134    4.90999985    2.91000009
   14.64777756  167.44400024    4.90999985    2.91000009
   14.64888859  167.55000305    4.90999985    2.91000009
   14.65222168  157.81300354    4.90999985    2.91000009
   14.65833282  157.81300354    4.90999985    2.91000009
   14.66249943  163.27900696    4.90999985    2.91000009
   14.66583252  155.71200562    4.90999985    2.91000009
   14.66888905  154.83200073    4.90999985    2.91000009
   14.67222214  166.95599365    4.90999985    2.91000009
   14.67555618  177.32200623    4.90999985    2.91000009
   14.67861176  166.17799377    4.90999985    2.91000009
   14.68111134  154.70199585    4.90999985    2.91000009
   14.68222237  165.62500000    4.90999985    2.91000009
   14.68555546  174.24400330    4.90999985    2.91000009
   14.68888855  153.21499634    4.90999985    2.91000009
   14.69194412  169.54800415    4.90999985    2.91000009
   14.69527817  161.30099487    4.90999985    2.91000009
   14.70111084  161.30099487    4.90999985    2.91000009
   14.70527744  159.25900269    4.90999985    2.91000009
   14.70861053  163.85499573    4.90999985    2.91000009
   14.71194458  158.87399292    4.90999985    2.91000009
   14.71444416  163.36999512    4.90999985    2.91000009
   14.71527767  167.31100464    4.90999985    2.91000009
   14.71861076  161.54100037    4.90999985    2.89000010
   14.72194386  164.86099243    4.90999985    2.91000009
   14.72499943  162.37899780    4.90999985    2.89000010
   14.72833252  176.92100525    4.90999985    2.89000010
   14.73166656  169.99499512    4.90999985    2.91000009
   14.73472214  164.55499268    4.90999985    2.91000009
   14.73805618  174.50300598    4.90999985    2.91000009
   14.74416733  174.50300598    4.90999985    2.91000009
   14.74833393  163.94099426    4.90999985    2.89000010
   14.75138855  158.31100464    4.90999985    2.91000009
   14.75472260  162.37699890    4.90999985    2.91000009
   14.75777817  162.34599304    4.90999985    2.91000009
   14.76111126  173.95899963    4.90999985    2.91000009
   14.76444435  153.07200623    4.90999985    2.91000009
   14.76749992  157.65100098    4.90999985    2.91000009
   14.77083302  156.23699951    4.90999985    2.91000009
   14.77416611  148.13400269    4.90999985    2.91000009
   14.77722168  169.15299988    4.90999985    2.91000009
   14.78055573  153.24000549    4.90999985    2.91000009
   14.78111076  160.52499390    4.90999985    2.91000009
   14.78694534  160.52499390    4.90999985    2.91000009
   14.79111195  156.28300476    4.90999985    2.91000009
   14.79416752  151.51600647    4.90999985    2.91000009
   14.79750061  158.46099854    4.90999985    2.91000009
   14.80083370  158.63900757    4.90999985    2.91000009
   14.80388927  143.70100403    4.90999985    2.91000009
   14.80722237  148.72799683    4.90999985    2.91000009
   14.81055546  159.47200012    4.90999985    2.91000009
   14.81361103  166.82800293    4.90999985    2.91000009
   14.81444454  166.54299927    4.90999985    2.91000009
   14.81750011  156.85000610    4.90999985    2.91000009
   14.82055569  150.75300598    4.90999985    2.91000009
   14.82388878  159.96699524    4.90999985    2.91000009
   14.82972240  159.96699524    4.90999985    2.91000009
   14.83388901  147.10600281    4.90999985    2.91000009
   14.83722210  141.90299988    4.90999985    2.91000009
   14.84027767  138.57200623    4.90999985    2.91000009
   14.84361076  151.64599609    4.90999985    2.91000009
   14.84694386  162.66000366    4.90999985    2.91000009
   14.84777737  161.61199951    4.90999985    2.91000009
   14.85055637  160.77999878    4.90999985    2.93000007
   14.85361195  138.88999939    4.90999985    2.91000009
   14.85694504  146.00900269    4.90999985    2.91000009
   14.86000061  136.96099854    4.90999985    2.91000009
   14.86333370  142.35600281    4.90999985    2.91000009
   14.86666679  153.78199768    4.90999985    2.91000009
   14.87250042  153.78199768    4.90999985    2.89000010
   14.87666702  167.46699524    4.90999985    2.91000009
   14.88000011  173.17999268    4.90999985    2.91000009
   14.88111115  152.66099548    4.90999985    2.91000009
   14.88361073  180.63600159    4.90999985    2.89000010
   14.88666630  177.86700439    4.90999985    2.91000009
   14.89000034  207.21299744    4.90999985    2.91000009
   14.89305496  191.60000610    4.90999985    2.91000009
   14.89638901  146.61799622    4.90999985    2.93000007
   14.89972210  160.04400635    4.90999985    2.91000009
   14.90277767  165.63299561    4.90999985    2.91000009
   14.90611076  158.09599304    4.90999985    2.93000007
   14.90944386  157.05700684    4.90999985    2.91000009
   14.91555500  157.05700684    4.90999985    2.91000009
   14.91972256  168.00900269    4.90999985    2.91000009
   14.92277813  149.45899963    4.90999985    2.91000009
   14.92611122  172.20799255    4.90999985    2.91000009
   14.92944431  163.89300537    4.90999985    2.91000009
   14.93249989  193.44999695    4.90999985    2.91000009
   14.93583298  182.45899963    4.90999985    2.91000009
   14.93916702  159.81700134    4.90999985    2.91000009
   14.94222260  156.94799805    4.90999985    2.91000009
   14.94555569  162.35200500    4.90999985    2.91000009
   14.94777775  155.28399658    4.90999985    2.93000007
   14.94916630  196.31900024    4.90999985    2.91000009
   14.95222187  156.01400757    4.90999985    2.93000007
   14.95833302  156.01400757    4.90999985    2.91000009
   14.96249962  192.97500610    4.90999985    2.93000007
   14.96583271  167.52699280    4.90999985    2.91000009
   14.96888828  186.92500305    4.90999985    2.91000009
   14.97222137  160.37600708    4.90999985    2.91000009
   14.97527695  147.83200073    4.90999985    2.91000009
   14.97861099  158.53199768    4.90999985    2.91000009
   14.98111057  182.85499573    4.90999985    2.91000009
   14.98249912  194.58700562    4.90999985    2.89000010
   14.98555565  171.14300537    4.90999985    2.91000009
   14.98888874  149.57899475    4.90999985    2.91000009
   14.99194431  154.69900513    4.90999985    2.91000009
   14.99527836  170.30000305    4.90999985    2.89000010
   15.00111103  170.30000305    4.90999985    2.91000009
   15.00527763  160.46299744    4.90999985    2.91000009
   15.00861073  165.05200195    4.90999985    2.91000009
   15.01166630  157.94400024    4.90999985    2.93000007
   15.01444435  148.94500732    4.90999985    2.91000009
   15.01555538  167.30999756    4.90999985    2.91000009
   15.01861095  148.13000488    4.90999985    2.91000009
   15.02194405  159.68699646    4.90999985    2.91000009
   15.02499962  144.39599609    4.90999985    2.91000009
   15.02833271  158.46800232    4.90999985    2.91000009
   15.03166676  152.32499695    4.90999985    2.91000009
   15.03472233  149.92999268    4.90999985    2.91000009
   15.03805637  147.50700378    4.90999985    2.91000009
   15.04388905  147.50700378    4.90999985    2.91000009
   15.04805565  163.02600098    4.90999985    2.93000007
   15.05138874  152.91999817    4.90999985    2.91000009
   15.05472279  143.01800537    4.90999985    2.89000010
   15.05777836  129.42199707    4.90999985    2.91000009
   15.06111145  141.65400696    4.90999985    2.91000009
   15.06416702  156.83000183    4.90999985    2.91000009
   15.06750011  154.04299927    4.90999985    2.91000009
   15.07083321  154.87399292    4.90999985    2.91000009
   15.07388878  154.64700317    4.90999985    2.91000009
   15.07722187  174.99600220    4.90999985    2.91000009
   15.08055592  147.13600159    4.90999985    2.91000009
   15.08111095  142.40899658    4.90999985    2.91000009
   15.08694458  142.40899658    4.90999985    2.89000010
   15.09111118  138.01699829    4.90999985    2.91000009
   15.09416676  151.74099731    4.90999985    2.91000009
   15.09749985  146.54400635    4.90999985    2.91000009
   15.10055637  149.28700256    4.90999985    2.91000009
   15.10388947  132.05900574    4.90999985    2.91000009
   15.10722256  157.78599548    4.90999985    2.89000010
   15.11055565  147.99800110    4.90999985    2.91000009
   15.11361122  154.12100220    4.90999985    2.91000009
   15.11444473  156.68400574    4.90999985    2.91000009
   15.11750031  139.55000305    4.90999985    2.91000009
   15.12055588  154.18099976    4.90999985    2.91000009
   15.12388897  159.42599487    4.90999985    2.91000009
   15.12972260  159.42599487    4.90999985    2.91000009
   15.13388920  137.02400208    4.90999985    2.93000007
   15.13694477  132.66799927    4.90999985    2.91000009
   15.14027786  144.95700073    4.90999985    2.93000007
   15.14361095  134.32200623    4.90999985    2.91000009
   15.14666653  149.24099731    4.90999985    2.91000009
   15.14777756  134.31199646    4.90999985    2.91000009
   15.15055561  144.72399902    4.90999985    2.91000009
   15.15388870  151.20300293    4.90999985    2.91000009
   15.15694427  141.75500488    4.90999985    2.91000009
   15.16027737  132.58299255    4.90999985    2.91000009
   15.16361046  146.84100342    4.90999985    2.91000009
   15.16666698  168.04699707    4.90999985    2.89000010
   15.17277813  168.04699707    4.90999985    2.93000007
   15.17666721  132.53599548    4.90999985    2.91000009
   15.18000031  162.15699768    4.90999985    2.91000009
   15.18111134  173.76800537    4.90999985    2.91000009
   15.18361092  157.22099304    4.90999985    2.91000009
   15.18694496  148.80499268    4.90999985    2.91000009
   15.19027805  130.96699524    4.90999985    2.93000007
   15.19333363  141.69000244    4.90999985    2.91000009
   15.19666672  146.25999451    4.90999985    2.91000009
   15.30444431   -1.00000000   -1.00000000   -1.00000000
   15.40361118   -1.00000000   -1.00000000   -1.00000000
   15.61972237   -1.00000000   -1.00000000   -1.00000000
   15.65333271   85.93699646    4.90999985    2.91000009
   15.65638828  138.95399475    4.90999985    2.93000007
   15.65972137  144.04499817    4.90999985    2.91000009
   15.66305542  146.41600037    4.90999985    2.91000009
   15.66611099  140.12199402    4.90999985    2.91000009
   15.66944504  143.75399780    4.90999985    2.91000009
   15.67361164  143.75399780    4.90999985    2.93000007
   15.67777824  144.62600708    4.90999985    2.91000009
   15.68083382  138.33500671    4.90999985    2.91000009
   15.68416691  133.44799805    4.90999985    2.91000009
   15.68666649  142.80099487    4.90999985    2.91000009
   15.68777752  144.18200684    4.90999985    2.91000009
   15.69111156  137.49600220    4.90999985    2.91000009
   15.69444466  141.16400146    4.90999985    2.91000009
   15.69750023  147.02000427    4.90999985    2.91000009
   15.70083332  135.23100281    4.90999985    2.91000009
   15.70388889  147.14100647    4.90999985    2.91000009
   15.70722198  147.93699646    4.90999985    2.93000007
   15.71055508  153.16299438    4.90999985    2.91000009
   15.71638870  153.16299438    4.90999985    2.91000009
   15.72055531  148.21899414    4.90999985    2.91000009
   15.72388840  143.63999939    4.90999985    2.91000009
   15.72694397  134.85099792    4.90999985    2.91000009
   15.73027706  140.37800598    4.90999985    2.91000009
   15.73361111  143.21699524    4.90999985    2.91000009
   15.73666668  139.79200745    4.90999985    2.91000009
   15.74000072  133.13400269    4.90999985    2.93000007
   15.74305534  134.19700623    4.90999985    2.91000009
   15.74638939  132.26800537    4.90999985    2.91000009
   15.74972248  135.55799866    4.90999985    2.91000009
   15.75305557  130.26199341    4.90999985    2.91000009
   15.75333309  120.97599792    4.90999985    2.91000009
   15.75916672  120.97599792    4.90999985    2.91000009
   15.76333332  139.60600281    4.90999985    2.89000010
   15.76666641  126.97599792    4.90999985    2.93000007
   15.76999950  134.94900513    4.90999985    2.89000010
   15.77305508  134.70199585    4.90999985    2.91000009
   15.77638817  123.50000000    4.90999985    2.91000009
   15.77944374  137.37100220    4.90999985    2.91000009
   15.78277779  141.68400574    4.90999985    2.89000010
   15.78611183  124.99299622    4.90999985    2.89000010
   15.78666687  129.19299316    4.90999985    2.89000010
   15.78972244  135.63000488    4.90999985    2.91000009
   15.79305553  129.66200256    4.90999985    2.91000009
   15.79611111  124.51100159    4.90999985    2.91000009
   15.80222225  124.51100159    4.90999985    2.91000009
   15.80638885  134.56900024    4.90999985    2.91000009
   15.80944443  139.71499634    4.90999985    2.89000010
   15.81277752  125.03900146    4.90999985    2.91000009
   15.81583309  126.53900146    4.90999985    2.91000009
   15.81916618  125.44799805    4.90999985    2.91000009
   15.81999969  126.57399750    4.90999985    2.91000009
   15.82277775  128.27499390    4.90999985    2.91000009
   15.82611084  126.89900208    4.90999985    2.91000009
   15.82944393  131.46899414    4.90999985    2.91000009
   15.83249950  139.36199951    4.90999985    2.91000009
   15.83583260  142.17199707    4.90999985    2.91000009
   15.83888817  142.75199890    4.90999985    2.91000009
   15.84499931  142.75199890    4.90999985    2.91000009
   15.84916592  139.06399536    4.90999985    2.91000009
   15.85222244  144.14999390    4.90999985    2.91000009
   15.85333347  136.10000610    4.90999985    2.89000010
   15.85583401  135.92900085    4.90999985    2.89000010
   15.85916710  134.14700317    4.90999985    2.91000009
   15.86222267  145.58599854    4.90999985    2.91000009
   15.86555576  144.61399841    4.90999985    2.91000009
   15.86888885  140.84100342    4.90999985    2.89000010
   15.87194443  131.31199646    4.90999985    2.91000009
   15.87527752  132.39399719    4.90999985    2.91000009
   15.87861156  140.39599609    4.90999985    2.91000009
   15.88166714  133.26100159    4.90999985    2.91000009
   15.88777733  133.26100159    4.90999985    2.91000009
   15.89194393  133.67100525    4.90999985    2.91000009
   15.89527798  137.19400024    4.90999985    2.91000009
   15.89833355  128.14700317    4.90999985    2.91000009
   15.90166664  123.45200348    4.90999985    2.91000009
   15.90472221  138.44299316    4.90999985    2.91000009
   15.90805531  127.91899872    4.90999985    2.91000009
   15.91138840  127.91899872    4.90999985    2.93000007
   15.91444397  126.79599762    4.90999985    2.93000007
   15.91777802  127.86799622    4.90999985    2.91000009
   15.92000008  132.04600525    4.90999985    2.91000009
   15.92138958  136.64999390    4.90999985    2.91000009
   15.92472267  135.78999329    4.90999985    2.93000007
   15.93055630  135.78999329    4.90999985    2.91000009
   15.93472195  128.78599548    4.90999985    2.91000009
   15.93805599  122.53399658    4.90999985    2.91000009
   15.94138908  114.88200378    4.90999985    2.91000009
   15.94444466  122.99299622    4.90999985    2.91000009
   15.94777775  134.33099365    4.90999985    2.91000009
   15.95083332  125.29499817    4.90999985    2.91000009
   15.95361137  119.73000336    4.90999985    2.91000009
   15.95444393  121.32099915    4.90999985    2.93000007
   15.95777798  116.68399811    4.90999985    2.93000007
   15.96083355  126.17800140    4.90999985    2.91000009
   15.96416664  121.34200287    4.90999985    2.91000009
   15.96749973  132.88299561    4.90999985    2.89000010
   15.97361088  132.88299561    4.90999985    2.93000007
   15.97749996  137.25599670    4.90999985    2.91000009
   15.98083305  141.60800171    4.90999985    2.91000009
   15.98416710  141.98199463    4.90999985    2.91000009
   15.98694515  144.96200562    4.90999985    2.91000009
   15.98777771  152.20399475    4.90999985    2.91000009
   15.99111176  142.03100586    4.90999985    2.91000009
   15.99416733  150.59599304    4.90999985    2.91000009
   15.99750042  143.54800415    4.90999985    2.91000009
   16.00083351  150.23800659    4.90999985    2.91000009
   16.00388908  142.25500488    4.90999985    2.91000009
   16.00722313  143.50000000    4.90999985    2.91000009
   16.01027870  149.78100586    4.90999985    2.91000009
   16.01638794  149.78100586    4.90999985    2.91000009
   16.02055550  177.27900696    4.90999985    2.91000009
   16.02361107  148.33299255    4.90999985    2.91000009
   16.02694511  155.43099976    4.90999985    2.91000009
   16.03027725  157.57899475    4.90999985    2.91000009
   16.03333282  148.51400757    4.90999985    2.91000009
   16.03666687  162.27900696    4.90999985    2.91000009
   16.03972244  168.85099792    4.90999985    2.91000009
   16.04305458  156.64900208    4.90999985    2.91000009
   16.04638863  152.05900574    4.90999985    2.91000009
   16.04944420  168.33000183    4.90999985    2.93000007
   16.05277634  142.58299255    4.90999985    2.91000009
   16.05360985  173.96400452    4.90999985    2.91000009
   16.05916595  173.96400452    4.90999985    2.91000009
   16.06333351  176.53100586    4.90999985    2.93000007
   16.06666756  179.92100525    4.90999985    2.91000009
   16.06972313  171.70100403    4.90999985    2.91000009
   16.07305717  180.42199707    4.90999985    2.91000009
   16.07638931  170.35899353    4.90999985    2.91000009
   16.07944489  186.38000488    4.90999985    2.91000009
   16.08277893  187.12500000    4.90999985    2.91000009
   16.08611107  188.79499817    4.90999985    2.89000010
   16.08694458  182.68899536    4.90999985    2.93000007
   16.08944511  174.66000366    4.90999985    2.91000009
   16.09277916  170.06599426    4.90999985    2.91000009
   16.09611130  186.65899658    4.90999985    2.91000009
   16.10194397  186.65899658    4.90999985    2.93000007
   16.10611153  177.23100281    4.90999985    2.91000009
   16.10944557  151.97000122    4.90999985    2.91000009
   16.11277771  153.19900513    4.90999985    2.91000009
   16.11583328  195.33799744    4.90999985    2.91000009
   16.11916733  168.71099854    4.90999985    2.91000009
   16.12027740  157.89199829    4.90999985    2.91000009
   16.12277794  172.16499329    4.90999985    2.91000009
   16.12611198  161.45399475    4.90999985    2.93000007
   16.12944412  181.93899536    4.90999985    2.93000007
   16.13249969  151.37199402    4.90999985    2.91000009
   16.13583374  178.86300659    4.90999985    2.91000009
   16.13888931  169.97599792    4.90999985    2.91000009
   16.14500046  169.97599792    4.90999985    2.91000009
   16.14888954  175.13499451    4.90999985    2.91000009
   16.15222168  167.07200623    4.90999985    2.91000009
   16.15361023  180.50599670    4.90999985    2.93000007
   16.15583229  168.88499451    4.90999985    2.91000009
   16.15916634  176.44700623    4.90999985    2.91000009
   16.16222191  157.91200256    4.90999985    2.91000009
   16.16555595  154.33000183    4.90999985    2.91000009
   16.16888809  145.93600464    4.90999985    2.91000009
   16.17194366  162.12199402    4.90999985    2.91000009
   16.17527771  157.52900696    4.90999985    2.93000007
   16.17888832  154.15899658    4.90999985    2.91000009
   16.18194389  154.92300415    4.90999985    2.91000009
   16.18777657  154.92300415    4.90999985    2.93000007
   16.19194412  145.15199280    4.90999985    2.91000009
   16.19499969  138.56900024    4.90999985    2.91000009
   16.19833183  142.97700500    4.90999985    2.91000009
   16.20166779  155.05000305    4.90999985    2.91000009
   16.20472336  148.46400452    4.90999985    2.91000009
   16.20805550  149.87600708    4.90999985    2.91000009
   16.21111107  142.87800598    4.90999985    2.91000009
   16.21444511  150.63299561    4.90999985    2.91000009
   16.21777916  138.44900513    4.90999985    2.91000009
   16.22027779  138.41700745    4.90999985    2.91000009
   16.22138977  134.17700195    4.90999985    2.91000009
   16.22472191  138.87699890    4.90999985    2.91000009
   16.23055649  138.87699890    4.90999985    2.91000009
   16.23472214  134.72099304    4.90999985    2.91000009
   16.23777771  130.19500732    4.90999985    2.91000009
   16.24111176  129.65899658    4.90999985    2.91000009
   16.24444389  133.00599670    4.90999985    2.91000009
   16.24749947  142.03300476    4.90999985    2.91000009
   16.25083351  142.39500427    4.90999985    2.91000009
   16.25361061  135.11700439    4.90999985    2.91000009
   16.25444412  130.41200256    4.90999985    2.91000009
   16.25777817  135.52200317    4.90999985    2.91000009
   16.26111031  143.91600037    4.90999985    2.91000009
   16.26416588  140.86799622    4.90999985    2.91000009
   16.26749992  144.44299316    4.90999985    2.91000009
   16.27333260  144.44299316    4.90999985    2.91000009
   16.27750015  147.23100281    4.90999985    2.91000009
   16.28083229  142.63600159    4.90999985    2.91000009
   16.28388786  143.21899414    4.90999985    2.91000009
   16.28694344  139.49200439    4.90999985    2.91000009
   16.28750038  153.51800537    4.90999985    2.91000009
   16.29083252  152.21699524    4.90999985    2.91000009
   16.29388809  153.79499817    4.90999985    2.91000009
   16.29722214  147.41099548    4.90999985    2.91000009
   16.30055428  155.55099487    4.90999985    2.91000009
   16.30360985  145.92500305    4.90999985    2.91000009
   16.30694389  139.36900330    4.90999985    2.93000007
   16.31027794  145.17399597    4.90999985    2.93000007
   16.31638718  145.17399597    4.90999985    2.91000009
   16.32027817  144.97700500    4.90999985    2.91000009
   16.32361221  143.34899902    4.90999985    2.91000009
   16.32694626  140.97200012    4.90999985    2.91000009
   16.33000183  147.01199341    4.90999985    2.91000009
   16.33333397  139.61700439    4.90999985    2.93000007
   16.33666801  142.48199463    4.90999985    2.91000009
   16.33972359  150.12199402    4.90999985    2.91000009
   16.34305573  139.63600159    4.90999985    2.91000009
   16.34638977  142.88600159    4.90999985    2.91000009
   16.34944534  145.05299377    4.90999985    2.93000007
   16.35277748  138.29899597    4.90999985    2.93000007
   16.35361099  142.71000671    4.90999985    2.91000009
   16.35916710  142.71000671    4.90999985    2.93000007
   16.36333466  139.43800354    4.90999985    2.91000009
   16.36638832  136.51699829    4.90999985    2.91000009
   16.36972237  142.26600647    4.90999985    2.93000007
   16.37277794  135.34500122    4.90999985    2.91000009
   16.37611198  135.01100159    4.90999985    2.93000007
   16.37944412  140.71099854    4.90999985    2.93000007
   16.38249969  133.99000549    4.90999985    2.91000009
   16.38583374  138.52400208    4.90999985    3.03999996
   16.38694382  133.13499451    4.90999985    3.03999996
   16.38944435  136.03500366    0.07000000    0.38000000
   16.39277840  136.44999695    0.07000000    0.38000000
   16.39611053  141.49699402    0.07000000    0.38000000
   16.40194321  141.49699402    0.07000000    0.38000000
   16.40611076  144.90199280    0.07000000    0.38000000
   16.40916634  142.30000305    0.07000000    0.38000000
   16.41250038  164.74899292    0.07000000    0.38000000
   16.41583252  137.79299927    0.07000000    0.38000000
   16.41888809  140.34599304    0.07000000    0.38000000
   16.42027664  154.01400757    0.07000000    0.38000000
   16.42249870  152.52699280    0.07000000    0.38000000
   16.42583275  146.73800659    0.07000000    0.38000000
   16.42916679  142.61399841    0.07000000    0.38000000
   16.43222237  140.52600098    0.07000000    0.38000000
   16.43555450  148.31199646    0.07000000    0.38000000
   16.43861008  140.56700134    0.07000000    0.38000000
   16.44499969  140.56700134    0.07000000    0.38000000
   16.44916534  141.02600098    0.07000000    0.38000000
   16.45222282  127.54900360    0.07000000    0.38000000
   16.45361137  142.47099304    0.07000000    0.38000000
   16.45583344  140.73699951    0.07000000    0.38000000
   16.45916748  132.97500610    0.07000000    0.38000000
   16.46250153  139.38600159    0.07000000    0.38000000
   16.46555710  134.16999817    0.07000000    0.38000000
   16.46888924  147.29600525    0.07000000    0.38000000
   16.47194481  132.09300232    0.07000000    0.38000000
   16.47527885  135.32000732    0.07000000    0.38000000
   16.47861099  132.38299561    0.07000000    0.38000000
   16.48166656  119.63500214    0.07000000    0.38000000
   16.48777771  119.63500214    0.07000000    0.38000000
   16.49166679  139.26899719    0.07000000    0.38000000
   16.49500084  140.56900024    0.07000000    0.38000000
   16.49833298  128.44900513    0.07000000    0.38000000
   16.50138855  138.23599243    0.07000000    0.38000000
   16.50472260  147.30599976    0.07000000    0.38000000
   16.50777817  132.34500122    0.07000000    0.38000000
   16.51111031  136.17300415    0.07000000    0.38000000
   16.51444435  125.30599976    0.07000000    0.38000000
   16.51749992  125.64299774    0.07000000    0.38000000
   16.52027702  142.21499634    0.07000000    0.38000000
   16.52111053  142.94200134    0.07000000    0.38000000
   16.52444458  134.12899780    0.07000000    0.38000000
   16.53055573  134.12899780    0.07000000    0.38000000
   16.53472137  137.05900574    0.07000000    0.38000000
   16.53777695  151.39199829    0.07000000    0.38000000
   16.54111099  140.95100403    0.07000000    0.38000000
   16.54416656  136.56300354    0.07000000    0.38000000
   16.54749870  143.92399597    0.07000000    0.38000000
   16.55083275  151.36799622    0.07000000    0.38000000
   16.55360985  139.74499512    0.07000000    0.38000000
   16.55416679  156.46800232    0.07000000    0.38000000
   16.55749893  137.38800049    0.07000000    0.38000000
   16.56083298  144.16200256    0.07000000    0.38000000
   16.56388855  144.71400452    0.07000000    0.38000000
   16.56722260  146.31500244    0.07000000    0.38000000
   16.57333374  146.31500244    0.07000000    0.38000000
   16.57750130  151.91900635    0.07000000    0.38000000
   16.58083344  152.58099365    0.07000000    0.38000000
   16.58388901  163.03300476    0.07000000    0.38000000
   16.58694458  152.58000183    0.07000000    0.38000000
   16.58750153  151.81300354    0.07000000    0.38000000
   16.59083366  142.69700623    0.07000000    0.38000000
   16.59416771  137.63800049    0.07000000    0.38000000
   16.59722328  137.98199463    0.07000000    0.38000000
   16.60055542  144.26300049    0.07000000    0.38000000
   16.60361099  146.45599365    0.07000000    0.38000000
   16.60694504  144.40400696    0.07000000    0.38000000
   16.61027908  137.95399475    0.07000000    0.38000000
   16.61666679  137.95399475    0.07000000    0.38000000
   16.62055588  128.55799866    0.07000000    0.38000000
   16.62388992  135.66200256    0.07000000    0.38000000
   16.62722206  121.54499817    0.07000000    0.38000000
   16.63027763  142.01699829    0.07000000    0.38000000
   16.63361168  139.24000549    0.07000000    0.38000000
   16.63694382  125.07700348    0.07000000    0.38000000
   16.63999939  128.51199341    0.07000000    0.38000000
   16.64333344  129.47700500    0.07000000    0.38000000
   16.64638901  130.88299561    0.07000000    0.38000000
   16.64972115  134.29100037    0.07000000    0.38000000
   16.65305519  138.50100708    0.07000000    0.38000000
   16.65361023  134.65899658    0.07000000    0.38000000
   16.67416573  134.65899658    0.07000000    0.38000000
   16.67833328  143.37100220    0.07000000    0.38000000
   16.68166542  156.60699463    0.07000000    0.38000000
   16.68472099  141.75100708    0.07000000    0.38000000
   16.68694305  140.08500671    0.07000000    0.38000000
   16.68833160  137.81900024    0.07000000    0.38000000
   16.69166565  137.20100403    0.07000000    0.38000000
   16.69499969  138.93299866    0.07000000    0.38000000
   16.69805527  141.30000305    0.07000000    0.38000000
   16.70138931  137.03700256    0.07000000    0.38000000
   16.70472336  133.47399902    0.07000000    0.38000000
   16.70777893  129.46000671    0.07000000    0.38000000
   16.71111107  138.84800720    0.07000000    0.38000000
   16.71694565  138.84800720    0.07000000    0.38000000
   16.72111130  134.88200378    0.07000000    0.38000000
   16.72444534  140.85400391    0.07000000    0.38000000
   16.72750092  129.36000061    0.07000000    0.38000000
   16.73083305  128.49600220    0.07000000    0.38000000
   16.73416710  139.47099304    0.07000000    0.38000000
   16.73722267  135.10499573    0.07000000    0.38000000
   16.74055672  136.86900330    0.07000000    0.38000000
   16.74361229  131.78900146    0.07000000    0.38000000
   16.74694443  141.27299500    0.07000000    0.38000000
   16.75027847  139.03300476    0.07000000    0.38000000
   16.75333405  139.01100159    0.07000000    0.38000000
   16.75388908  135.67199707    0.07000000    0.38000000
   16.75972176  135.67199707    0.07000000    0.38000000
   16.76388931  133.24400330    0.07000000    0.38000000
   16.76722145  139.55299377    0.07000000    0.38000000
   16.77055550  130.73300171    0.07000000    0.38000000
   16.77361107  140.25900269    0.07000000    0.38000000
   16.77694511  137.70899963    0.07000000    0.38000000
   16.78000069  139.24800110    0.07000000    0.38000000
   16.78333282  139.72000122    0.07000000    0.38000000
   16.78666687  139.06799316    0.07000000    0.38000000
   16.78722191  133.31199646    0.07000000    0.38000000
   16.79027748  146.19900513    0.07000000    0.38000000
   16.79361153  137.17999268    0.07000000    0.38000000
   16.79666710  132.74800110    0.07000000    0.38000000
   16.80277634  132.74800110    0.07000000    0.38000000
   16.80694389  145.43099976    0.07000000    0.38000000
   16.80999947  144.10499573    0.07000000    0.38000000
   16.81333351  139.52000427    0.07000000    0.38000000
   16.81638718  130.08299255    0.07000000    0.38000000
   16.81972313  137.51699829    0.07000000    0.38000000
   16.82055664  135.98100281    0.07000000    0.38000000
   16.82333374  137.81599426    0.07000000    0.38000000
   16.82666779  145.30299377    0.07000000    0.38000000
   16.82972336  149.22200012    0.07000000    0.38000000
   16.83305550  141.94400024    0.07000000    0.38000000
   16.83611107  145.30099487    0.07000000    0.38000000
   16.83944511  139.47900391    0.07000000    0.38000000
   16.84555626  139.47900391    0.07000000    0.38000000
   16.84972191  140.63299561    0.07000000    0.38000000
   16.85277748  138.83399963    0.07000000    0.38000000
   16.85388947  132.82200623    0.07000000    0.38000000
   16.85666656  136.98599243    0.07000000    0.38000000
   16.86000061  127.80799866    0.07000000    0.38000000
   16.86305618  131.40699768    0.07000000    0.38000000
   16.86638832  138.91400146    0.07000000    0.38000000
   16.86944389  139.97700500    0.07000000    0.38000000
   16.87277794  130.33399963    0.07000000    0.38000000
   16.87611198  132.27200317    0.07000000    0.38000000
   16.87916756  136.71299744    0.07000000    0.38000000
   16.88249969  128.86000061    0.07000000    0.38000000
   16.88833237  128.86000061    0.07000000    0.38000000
   16.89249992  128.71800232    0.07000000    0.38000000
   16.89583397  122.13300323    0.07000000    0.38000000
   16.89888954  126.02700043    0.07000000    0.38000000
   16.90222168  121.78600311    0.07000000    0.38000000
   16.90555573  120.16400146    0.07000000    0.38000000
   16.90861130  116.07099915    0.07000000    0.38000000
   16.91194344  123.55999756    0.07000000    0.38000000
   16.91499901  128.43099976    0.07000000    0.38000000
   16.91833305  128.04299927    0.07000000    0.38000000
   16.92055511  121.42500305    0.07000000    0.38000000
   16.92194366  125.87300110    0.07000000    0.38000000
   16.92527771  127.92400360    0.07000000    0.38000000
   16.93111038  127.92400360    0.07000000    0.38000000
   16.93527603  125.09400177    0.07000000    0.38000000
   16.93861008  130.29400635    0.07000000    0.38000000
   16.94194412  136.25700378    0.07000000    0.38000000
   16.94499969  130.00500488    0.07000000    0.38000000
   16.94833183  128.85800171    0.07000000    0.38000000
   16.95138931  118.68299866    0.07000000    0.38000000
   16.95388985  133.86999512    0.07000000    0.38000000
   16.95527840  128.21000671    0.07000000    0.38000000
   16.95861244  130.21000671    0.07000000    0.38000000
   16.96166801  118.58399963    0.07000000    0.38000000
   16.96500015  127.18299866    0.07000000    0.38000000
   16.96805573  133.43800354    0.07000000    0.38000000
   16.97416687  133.43800354    0.07000000    0.38000000
   16.97833443  131.38800049    0.07000000    0.38000000
   16.98139000  128.77200317    0.07000000    0.38000000
   16.98472214  121.87999725    0.07000000    0.38000000
   16.98722267  121.36599731    0.07000000    0.38000000
   16.98833275  114.74700165    0.07000000    0.38000000
   16.99166679  118.53099823    0.07000000    0.38000000
   16.99472237  128.46200562    0.07000000    0.38000000
   16.99805641  128.43200684    0.07000000    0.38000000
   17.00111198  137.13299561    0.07000000    0.38000000
   17.00444412  141.43200684    0.07000000    0.38000000
   17.00777817  137.12300110    0.07000000    0.38000000
   17.01111031  122.57499695    0.07000000    0.38000000
   17.01694489  122.57499695    0.07000000    0.38000000
   17.02111053  231.31799316    0.07000000    0.38000000
   17.02416611  122.14399719    0.07000000    0.38000000
   17.02750015  123.18199921    0.07000000    0.38000000
   17.03083229  127.23500061    0.07000000    0.38000000
   17.03388786  126.45899963    0.07000000    0.38000000
   17.03722191  126.08799744    0.07000000    0.38000000
   17.04055595  127.45500183    0.07000000    0.38000000
   17.04361153  131.92700195    0.07000000    0.38000000
   17.04694366  131.73300171    0.07000000    0.38000000
   17.04999924  128.51699829    0.07000000    0.38000000
   17.05333328  127.98699951    0.07000000    0.38000000
   17.05388832  129.27200317    0.07000000    0.38000000
   17.05972099  129.27200317    0.07000000    0.38000000
   17.06388855  124.24900055    0.07000000    0.38000000
   17.06722260  129.74299622    0.07000000    0.38000000
   17.07027817  137.89100647    0.07000000    0.38000000
   17.07361221  138.21099854    0.07000000    0.38000000
   17.07694626  132.02400208    0.07000000    0.38000000
   17.08000183  132.39599609    0.07000000    0.38000000
   17.08333397  139.85600281    0.07000000    0.38000000
   17.08638954  131.22700500    0.07000000    0.38000000
   17.08722305  136.19500732    0.07000000    0.38000000
   17.09000015  131.00999451    0.07000000    0.38000000
   17.09333420  137.09800720    0.07000000    0.38000000
   17.09638977  134.14900208    0.07000000    0.38000000
   17.10250092  134.14900208    0.07000000    0.38000000
   17.10666656  133.11599731    0.07000000    0.38000000
   17.11000061  135.52999878    0.07000000    0.38000000
   17.11333466  142.08200073    0.07000000    0.38000000
   17.11638832  136.73500061    0.07000000    0.38000000
   17.11972237  139.46899414    0.07000000    0.38000000
   17.12055588  146.86099243    0.07000000    0.38000000
   17.12333298  147.89900208    0.07000000    0.38000000
   17.12666702  147.07200623    0.07000000    0.38000000
   17.12972260  146.70199585    0.07000000    0.38000000
   17.13305473  138.64300537    0.07000000    0.38000000
   17.13638878  153.37899780    0.07000000    0.38000000
   17.13944435  143.38800049    0.07000000    0.38000000
   17.14555550  143.38800049    0.07000000    0.38000000
   17.14972115  143.54899597    0.07000000    0.38000000
   17.15277672  128.43299866    0.07000000    0.38000000
   17.15388870  142.84800720    0.07000000    0.38000000
   17.15638924  129.05999756    0.07000000    0.38000000
   17.15972137  141.36300659    0.07000000    0.38000000
   17.16277695  138.68299866    0.07000000    0.38000000
   17.16611099  141.75399780    0.07000000    0.38000000
   17.16944313  132.05700684    0.07000000    0.38000000
   17.17249870  128.28999329    0.07000000    0.38000000
   17.17583275  137.38999939    0.07000000    0.38000000
   17.17916679  141.31300354    0.07000000    0.38000000
   17.18222237  142.69299316    0.07000000    0.38000000
   17.18833160  142.69299316    0.07000000    0.38000000
   17.19249916  146.52799988    0.07000000    0.38000000
   17.19555473  154.91700745    0.07000000    0.38000000
   17.19888878  166.92900085    0.07000000    0.38000000
   17.20222282  161.87600708    0.07000000    0.38000000
   17.20527840  152.88999939    0.07000000    0.38000000
   17.20861244  158.42500305    0.07000000    0.38000000
   17.21194458  155.51199341    0.07000000    0.38000000
   17.21500015  163.02799988    0.07000000    0.38000000
   17.21833420  150.01199341    0.07000000    0.38000000
   17.22055626  143.16200256    0.07000000    0.38000000
   17.22194481  155.52699280    0.07000000    0.38000000
   17.22527885  143.76800537    0.07000000    0.38000000
   17.23111153  143.76800537    0.07000000    0.38000000
   17.23527718  138.01800537    0.07000000    0.38000000
   17.23861122  145.75300598    0.07000000    0.38000000
   17.24166679  141.78999329    0.07000000    0.38000000
   17.24500084  132.58500671    0.07000000    0.38000000
   17.24805641  131.09199524    0.07000000    0.38000000
   17.25138855  145.79400635    0.07000000    0.38000000
   17.25388908  140.92999268    0.07000000    0.38000000
   17.25499916  140.06900024    0.07000000    0.38000000
   17.25833321  132.33900452    0.07000000    0.38000000
   17.26138878  141.52999878    0.07000000    0.38000000
   17.26472282  142.99200439    0.07000000    0.38000000
   17.26805496  136.63600159    0.07000000    0.38000000
   17.27388954  136.63600159    0.07000000    0.38000000
   17.27805519  122.21700287    0.07000000    0.38000000
   17.28138924  151.46200562    0.07000000    0.38000000
   17.28444481  148.99800110    0.07000000    0.38000000
   17.28750038  148.38800049    0.07000000    0.38000000
   17.28805542  143.92300415    0.07000000    0.38000000
   17.29138756  143.50100708    0.07000000    0.38000000
   17.29444313  151.87699890    0.07000000    0.38000000
   17.29777718  144.95700073    0.07000000    0.38000000
   17.30111122  153.75100708    0.07000000    0.38000000
   17.30416679  147.31799316    0.07000000    0.38000000
   17.30749893  148.69400024    0.07000000    0.38000000
   17.31055450  140.57699585    0.07000000    0.38000000
   17.31694603  140.57699585    0.07000000    0.38000000
   17.32083511  148.78799438    0.07000000    0.38000000
   17.32416725  131.50999451    0.07000000    0.38000000
   17.32750130  140.95599365    0.07000000    0.38000000
   17.33055687  140.71499634    0.07000000    0.38000000
   17.33388901  133.80700684    0.07000000    0.38000000
   17.33722305  138.51600647    0.07000000    0.38000000
   17.34027863  136.82800293    0.07000000    0.38000000
   17.34361267  142.37399292    0.07000000    0.38000000
   17.34694481  134.33399963    0.07000000    0.38000000
   17.35000038  123.91200256    0.07000000    0.38000000
   17.35333443  134.91900635    0.07000000    0.38000000
   17.35416794  135.67199707    0.07000000    0.38000000
   17.35972214  135.67199707    0.07000000    0.38000000
   17.36388969  138.86300659    0.07000000    0.38000000
   17.36694527  139.17500305    0.07000000    0.38000000
   17.37027740  149.93600464    0.07000000    0.38000000
   17.37361145  125.41999817    0.07000000    0.38000000
   17.37666702  135.62500000    0.07000000    0.38000000
   17.38000107  133.63200378    0.07000000    0.38000000
   17.38305473  153.18800354    0.07000000    0.38000000
   17.38638878  153.37100220    0.07000000    0.38000000
   17.38750076  139.26800537    0.07000000    0.38000000
   17.38999939  149.05900574    0.07000000    0.38000000
   17.39333344  141.26899719    0.07000000    0.38000000
   17.39638901  151.00300598    0.07000000    0.38000000
   17.40250015  151.00300598    0.07000000    0.38000000
   17.40666580  144.80499268    0.07000000    0.38000000
   17.40999985  136.09500122    0.07000000    0.38000000
   17.41305542  131.31199646    0.07000000    0.38000000
   17.41638756  148.00500488    0.07000000    0.38000000
   17.41944313  137.22099304    0.07000000    0.38000000
   17.42083359  136.71600342    0.07000000    0.38000000
   17.42305565  134.91499329    0.07000000    0.38000000
   17.42638779  137.42999268    0.07000000    0.38000000
   17.42944336  132.97999573    0.07000000    0.38000000
   17.43277740  131.17500305    0.07000000    0.38000000
   17.43610954  137.84899902    0.07000000    0.38000000
   17.43916512  132.92700195    0.07000000    0.38000000
   17.44527626  132.92700195    0.07000000    0.38000000
   17.44944382  139.46000671    0.07000000    0.38000000
   17.45277786  136.47900391    0.07000000    0.38000000
   17.45416832  135.90199280    0.07000000    0.38000000
   17.45639038  141.56100464    0.07000000    0.38000000
   17.45972252  145.31199646    0.07000000    0.38000000
   17.46277809  142.59899902    0.07000000    0.38000000
   17.46611214  147.98500061    0.07000000    0.38000000
   17.46944427  138.47999573    0.07000000    0.38000000
   17.47249985  136.51100159    0.07000000    0.38000000
   17.47583389  142.43899536    0.07000000    0.38000000
   17.47916794  137.47000122    0.07000000    0.38000000
   17.48222351  145.33700562    0.07000000    0.38000000
   17.48833275  145.33700562    0.07000000    0.38000000
   17.49222183  136.42399597    0.07000000    0.38000000
   17.49555588  137.58799744    0.07000000    0.38000000
   17.49888992  132.86099243    0.07000000    0.38000000
   17.50194359  146.90899658    0.07000000    0.38000000
   17.50527763  143.50999451    0.07000000    0.38000000
   17.50861168  139.54100037    0.07000000    0.38000000
   17.51166725  137.28300476    0.07000000    0.38000000
   17.51499939  141.29400635    0.07000000    0.38000000
   17.51833344  138.38499451    0.07000000    0.38000000
   17.52083397  131.20599365    0.07000000    0.38000000
   17.52166557  143.82800293    0.07000000    0.38000000
   17.52499962  156.98800659    0.07000000    0.38000000
   17.53111076  156.98800659    0.07000000    0.38000000
   17.53527641  131.67900085    0.07000000    0.38000000
   17.53833199  128.59700012    0.07000000    0.38000000
   17.54166603  136.81799316    0.07000000    0.38000000
   17.54500008  150.73699951    0.07000000    0.38000000
   17.54805565  145.10699463    0.07000000    0.38000000
   17.55138779  140.73300171    0.07000000    0.38000000
   17.55416679  146.00799561    0.07000000    0.38000000
   17.55499840  140.61399841    0.07000000    0.38000000
   17.55833244  133.13900757    0.07000000    0.38000000
   17.56166649  151.47099304    0.07000000    0.38000000
   17.56472206  143.98500061    0.07000000    0.38000000
   17.56805611  135.04299927    0.07000000    0.38000000
   17.57389069  135.04299927    0.07000000    0.38000000
   17.57805634  138.15699768    0.07000000    0.38000000
   17.58139038  141.89300537    0.07000000    0.38000000
   17.58444595  152.38099670    0.07000000    0.38000000
   17.58750153  143.86999512    0.07000000    0.38000000
   17.58805656  146.53900146    0.07000000    0.38000000
   17.59138870  151.20599365    0.07000000    0.38000000
   17.59472275  137.07200623    0.07000000    0.38000000
   17.59777832  144.33099365    0.07000000    0.38000000
   17.60111237  139.22200012    0.07000000    0.38000000
   17.60416794  152.97599792    0.07000000    0.38000000
   17.60750008  151.82200623    0.07000000    0.38000000
   17.61083412  145.31900024    0.07000000    0.38000000
   17.61666679  145.31900024    0.07000000    0.38000000
   17.62083435  136.85899353    0.07000000    0.38000000
   17.62416649  133.17100525    0.07000000    0.38000000
   17.62722206  137.53199768    0.07000000    0.38000000
   17.63055611  144.59399414    0.07000000    0.38000000
   17.63388824  142.30099487    0.07000000    0.38000000
   17.63694382  128.02699280    0.07000000    0.38000000
   17.64027786  136.85000610    0.07000000    0.38000000
   17.64361191  138.34899902    0.07000000    0.38000000
   17.64666748  144.01899719    0.07000000    0.38000000
   17.64999962  141.97900391    0.07000000    0.38000000
   17.65305519  154.85899353    0.07000000    0.38000000
   17.65416718  145.44200134    0.07000000    0.38000000
   17.65972137  145.44200134    0.07000000    0.38000000
   17.66361046  149.64399719    0.07000000    0.38000000
   17.66694450  155.92599487    0.07000000    0.38000000
   17.67027664  151.91499329    0.07000000    0.38000000
   17.68777657  148.08900452    0.07000000    0.38000000
   17.69027710  148.56100464    0.07000000    0.38000000
   17.69333267  144.20599365    0.07000000    0.38000000
   17.69666672  148.14599609    0.07000000    0.38000000
   17.70277786  148.14599609    0.07000000    0.38000000
   17.70666695  150.33999634    0.07000000    0.38000000
   17.71000099  143.08700562    0.07000000    0.38000000
   17.71333504  152.83099365    0.07000000    0.38000000
   17.71638870  145.52400208    0.07000000    0.38000000
   17.71972275  136.46600342    0.07000000    0.38000000
   17.72111130  132.54800415    0.07000000    0.38000000
   17.72333336  140.61199951    0.07000000    0.38000000
   17.72666740  152.50700378    0.07000000    0.38000000
   17.73000145  119.83799744    0.07000000    0.38000000
   17.73305511  135.16099548    0.07000000    0.38000000
   17.73638916  128.74000549    0.07000000    0.38000000
   17.73972321  145.28799438    0.07000000    0.38000000
   17.74555588  145.28799438    0.07000000    0.38000000
   17.74972153  141.88699341    0.07000000    0.38000000
   17.75277710  144.64799500    0.07000000    0.38000000
   17.75444412  146.20300293    0.07000000    0.38000000
   17.75638962  141.43899536    0.07000000    0.38000000
   17.75972176  143.19999695    0.07000000    0.38000000
   17.76305580  145.86000061    0.07000000    0.38000000
   17.76611137  152.88900757    0.07000000    0.38000000
   17.76944351  147.83200073    0.07000000    0.38000000
   17.77277756  144.57800293    0.07000000    0.38000000
   17.77583313  144.49699402    0.07000000    0.38000000
   17.77916718  144.50100708    0.07000000    0.38000000
   17.78249931  142.65299988    0.07000000    0.38000000
   17.78833199  142.65299988    0.07000000    0.38000000
   17.79249954  139.85600281    0.07000000    0.38000000
   17.79555511  125.87599945    0.07000000    0.38000000
   17.79888916  144.53700256    0.07000000    0.38000000
   17.80222130  146.19599915    0.07000000    0.38000000
   17.80527687  141.01600647    0.07000000    0.38000000
   17.80861092  138.77600098    0.07000000    0.38000000
   17.81194305  140.61700439    0.07000000    0.38000000
   17.81499863  136.88699341    0.07000000    0.38000000
   17.81833458  142.63200378    0.07000000    0.38000000
   17.82111168  143.53500366    0.07000000    0.38000000
   17.82166672  141.78100586    0.07000000    0.38000000
   17.82500076  145.50900269    0.07000000    0.38000000
   17.83111191  145.50900269    0.07000000    0.38000000
   17.83527756  161.29299927    0.07000000    0.38000000
   17.83861160  142.32200623    0.07000000    0.38000000
   17.84166718  148.97599792    0.07000000    0.38000000
   17.84500122  135.64900208    0.07000000    0.38000000
   17.84833336  149.30000305    0.07000000    0.38000000
   17.85138893  153.10299683    0.07000000    0.38000000
   17.85444450  150.81100464    0.07000000    0.38000000
   17.85527802  156.07000732    0.07000000    0.38000000
   17.85833359  141.64599609    0.07000000    0.38000000
   17.86166763  130.24800110    0.07000000    0.38000000
   17.86499977  154.43499756    0.07000000    0.38000000
   17.86805534  150.44999695    0.07000000    0.38000000
   17.87388992  150.44999695    0.07000000    0.38000000
   17.87805557  151.68499756    0.07000000    0.38000000
   17.88138962  152.94200134    0.07000000    0.38000000
   17.88472176  144.69999695    0.07000000    0.38000000
   17.88777733  142.54499817    0.07000000    0.38000000
   17.88805580  138.29400635    0.07000000    0.38000000
   17.89138794  151.10699463    0.07000000    0.38000000
   17.89472198  140.95300293    0.07000000    0.38000000
   17.89777756  142.62399292    0.07000000    0.38000000
   17.90111160  142.88200378    0.07000000    0.38000000
   17.90444374  150.92199707    0.07000000    0.38000000
   17.90749931  144.52099609    0.07000000    0.38000000
   17.91083336  148.25500488    0.07000000    0.38000000
   17.91694450  148.25500488    0.07000000    0.38000000
   17.92111015  144.23699951    0.07000000    0.38000000
   17.92138863  143.12699890    0.07000000    0.38000000
   17.92472076  147.68600464    0.07000000    0.38000000
   17.92805481  135.18800354    0.07000000    0.38000000
   17.93111038  152.11000061    0.07000000    0.38000000
   17.93444443  143.82899475    0.07000000    0.38000000
   17.93777657  154.90800476    0.07000000    0.38000000
   17.94083214  137.71000671    0.07000000    0.38000000
   17.94416618  128.58399963    0.07000000    0.38000000
   17.94749832  128.61099243    0.07000000    0.38000000
   17.95055580  143.52299500    0.07000000    0.38000000
   17.95388985  136.72099304    0.07000000    0.38000000
   17.95444489  137.72900391    0.07000000    0.38000000
   17.95972252  137.72900391    0.07000000    0.38000000
   17.96389008  141.38499451    0.07000000    0.38000000
   17.96694565  139.83599854    0.07000000    0.38000000
   17.97027779  143.81199646    0.07000000    0.38000000
   17.97361183  145.72700500    0.07000000    0.38000000
   17.97666740  141.31500244    0.07000000    0.38000000
   17.98000145  132.69099426    0.07000000    0.38000000
   17.98333359  136.09100342    0.07000000    0.38000000
   17.98638916  146.69400024    0.07000000    0.38000000
   17.98777771  145.24000549    0.07000000    0.38000000
   17.99027824  150.95199585    0.07000000    0.38000000
   17.99333382  129.11199951    0.07000000    0.38000000
   17.99666786  146.65100098    0.07000000    0.38000000
   18.00250053  146.65100098    0.07000000    0.38000000
   18.00666618  147.74499512    0.07000000    0.38000000
   18.01000023  141.99899292    0.07000000    0.38000000
   18.01305580  142.96699524    0.07000000    0.38000000
   18.01638794  139.49800110    0.07000000    0.38000000
   18.01972198  132.06700134    0.07000000    0.38000000
   18.02111053  144.33999634    0.07000000    0.38000000
   18.02333260  143.74899292    0.07000000    0.38000000
   18.02638817  139.09700012    0.07000000    0.38000000
   18.02972221  138.65699768    0.07000000    0.38000000
   18.03277779  141.23300171    0.07000000    0.38000000
   18.03610992  149.30900574    0.07000000    0.38000000
   18.03944397  137.09399414    0.07000000    0.38000000
   18.04527664  137.09399414    0.07000000    0.38000000
   18.04944420  144.41000366    0.07000000    0.38000000
   18.05277634  138.22700500    0.07000000    0.38000000
   18.05444336  130.22900391    0.07000000    0.38000000
   18.05638885  143.85600281    0.07000000    0.38000000
   18.05944443  131.11000061    0.07000000    0.38000000
   18.06277657  131.46699524    0.07000000    0.38000000
   18.06583214  136.93299866    0.07000000    0.38000000
   18.06916809  135.82200623    0.07000000    0.38000000
   18.07250023  134.74800110    0.07000000    0.38000000
   18.07555580  134.61900330    0.07000000    0.38000000
   18.07888985  137.14199829    0.07000000    0.38000000
   18.08222389  137.45799255    0.07000000    0.38000000
   18.08833313  137.45799255    0.07000000    0.38000000
   18.09250069  135.02799988    0.07000000    0.38000000
   18.09555626  121.59600067    0.07000000    0.38000000
   18.09889030  137.63999939    0.07000000    0.38000000
   18.10222244  123.06600189    0.07000000    0.38000000
   18.10527802  132.16200256    0.07000000    0.38000000
   18.10861206  126.70700073    0.07000000    0.38000000
   18.11194420  131.26899719    0.07000000    0.38000000
   18.11499977  133.35800171    0.07000000    0.38000000
   18.11833382  134.95100403    0.07000000    0.38000000
   18.12111092  141.00100708    0.07000000    0.38000000
   18.12194443  144.48199463    0.07000000    0.38000000
   18.12500000  143.24299622    0.07000000    0.38000000
   18.13111115  143.24299622    0.07000000    0.38000000
   18.13527679  126.40599823    0.07000000    0.38000000
   18.13833237  130.45599365    0.07000000    0.38000000
   18.14166641  131.40800476    0.07000000    0.38000000
   18.14500046  137.15299988    0.07000000    0.38000000
   18.14805603  141.11000061    0.07000000    0.38000000
   18.15138817  121.81099701    0.07000000    0.38000000
   18.15444374  126.19799805    0.07000000    0.38000000
   18.15499878  131.03199768    0.07000000    0.38000000
   18.15805435  129.33299255    0.07000000    0.38000000
   18.16138840  118.16300201    0.07000000    0.38000000
   18.16444397  127.36699677    0.07000000    0.38000000
   18.16777802  130.36000061    0.07000000    0.38000000
   18.17388916  130.36000061    0.07000000    0.38000000
   18.17805481  130.43099976    0.07000000    0.38000000
   18.18138885  129.33099365    0.07000000    0.38000000
   18.18444443  132.29200745    0.07000000    0.38000000
   18.18777657  122.29599762    0.07000000    0.38000000
   18.18833160  128.49899292    0.07000000    0.38000000
   18.19138718  134.48399353    0.07000000    0.38000000
   18.19472122  134.31799316    0.07000000    0.38000000
   18.19777679  120.82199860    0.07000000    0.38000000
   18.20111275  128.89399719    0.07000000    0.38000000
   18.20444489  135.63900757    0.07000000    0.38000000
   18.20750046  137.28500366    0.07000000    0.38000000
   18.21083450  134.72099304    0.07000000    0.38000000
   18.21666718  134.72099304    0.07000000    0.38000000
   18.22083473  130.77900696    0.07000000    0.38000000
   18.22138977  133.65899658    0.07000000    0.38000000
   18.22472191  132.60200500    0.07000000    0.38000000
   18.22805595  134.98300171    0.07000000    0.38000000
   18.23111153  119.03299713    0.07000000    0.38000000
   18.23444557  137.69599915    0.07000000    0.38000000
   18.23750114  113.16000366    0.07000000    0.38000000
   18.24083328  129.75999451    0.07000000    0.38000000
   18.24416733  128.94099426    0.07000000    0.38000000
   18.24722290  139.70799255    0.07000000    0.38000000
   18.25055504  133.93600464    0.07000000    0.38000000
   18.25388908  136.01199341    0.07000000    0.38000000
   18.25472260  147.46000671    0.07000000    0.38000000
   18.25972176  147.46000671    0.07000000    0.38000000
   18.26388931  133.82400513    0.07000000    0.38000000
   18.26694489  134.28900146    0.07000000    0.38000000
   18.27027702  139.33799744    0.07000000    0.38000000
   18.27333260  142.53900146    0.07000000    0.38000000
   18.27666664  159.27200317    0.07000000    0.38000000
   18.28000069  141.75900269    0.07000000    0.38000000
   18.28333282  141.83900452    0.07000000    0.38000000
   18.28638840  147.96800232    0.07000000    0.38000000
   18.28805542  147.51600647    0.07000000    0.38000000
   18.28999901  141.63000488    0.07000000    0.38000000
   18.29333305  146.37199402    0.07000000    0.38000000
   18.29638863  138.46499634    0.07000000    0.38000000
   18.30249977  138.46499634    0.07000000    0.38000000
   18.30666542  139.87300110    0.07000000    0.38000000
   18.30972099  133.72200012    0.07000000    0.38000000
   18.31305504  130.71899414    0.07000000    0.38000000
   18.31638718  127.38400269    0.07000000    0.38000000
   18.31944466  134.46699524    0.07000000    0.38000000
   18.32139015  122.33399963    0.07000000    0.38000000
   18.32333374  143.21000671    0.07000000    0.38000000
   18.32666779  131.82099915    0.07000000    0.38000000
   18.32972336  123.75299835    0.07000000    0.38000000
   18.33305550  117.78199768    0.07000000    0.38000000
   18.33611107  143.07699585    0.07000000    0.38000000
   18.33944511  145.37699890    0.07000000    0.38000000
   18.34527779  145.37699890    0.07000000    0.38000000
   18.34944534  148.77299500    0.07000000    0.38000000
   18.35277748  127.96399689    0.07000000    0.38000000
   18.35472298  148.98100281    0.07000000    0.38000000
   18.35639000  139.54499817    0.07000000    0.38000000
   18.35972214  151.01300049    0.07000000    0.38000000
   18.36277771  152.38299561    0.07000000    0.38000000
   18.36611176  135.88999939    0.07000000    0.38000000
   18.36916733  140.07899475    0.07000000    0.38000000
   18.37249947  141.42399597    0.07000000    0.38000000
   18.37583351  131.12600708    0.07000000    0.38000000
   18.37888908  145.64599609    0.07000000    0.38000000
   18.38222313  131.76600647    0.07000000    0.38000000
   18.38805580  131.76600647    0.07000000    0.38000000
   18.39222145  127.64600372    0.07000000    0.38000000
   18.39555550  146.04200745    0.07000000    0.38000000
   18.39888954  137.22700500    0.07000000    0.38000000
   18.40194321  143.68600464    0.07000000    0.38000000
   18.40527725  137.08900452    0.07000000    0.38000000
   18.40833282  147.87199402    0.07000000    0.38000000
   18.41166687  143.35899353    0.07000000    0.38000000
   18.41499901  146.80499268    0.07000000    0.38000000
   18.41805458  129.78199768    0.07000000    0.38000000
   18.42138863  140.29899597    0.07000000    0.38000000
   18.42194366  146.59100342    0.07000000    0.38000000
   18.42527771  137.28100586    0.07000000    0.38000000
   18.43111038  137.28100586    0.07000000    0.38000000
   18.43527603  140.25700378    0.07000000    0.38000000
   18.43833160  148.28599548    0.07000000    0.38000000
   18.44166565  140.17300415    0.07000000    0.38000000
   18.44472122  132.80400085    0.07000000    0.38000000
   18.44805527  144.04100037    0.07000000    0.38000000
   18.45138931  141.60899353    0.07000000    0.38000000
   18.45444489  138.19799805    0.07000000    0.38000000
   18.45527840  144.82099915    0.07000000    0.38000000
   18.45833397  145.18200684    0.07000000    0.38000000
   18.46138954  138.26499939    0.07000000    0.38000000
   18.46472359  136.17700195    0.07000000    0.38000000
   18.46777916  145.73199463    0.07000000    0.38000000
   18.47389030  145.73199463    0.07000000    0.38000000
   18.47805595  145.65800476    0.07000000    0.38000000
   18.48111153  147.73500061    0.07000000    0.38000000
   18.48444557  135.30499268    0.07000000    0.38000000
   18.48777771  142.48199463    0.07000000    0.38000000
   18.48861122  143.56100464    0.07000000    0.38000000
   18.49138832  139.05499268    0.07000000    0.38000000
   18.49444389  138.46899414    0.07000000    0.38000000
   18.49777794  159.19500732    0.07000000    0.38000000
   18.50083351  152.84899902    0.07000000    0.38000000
   18.50416756  134.88299561    0.07000000    0.38000000
   18.50749969  146.75100708    0.07000000    0.38000000
   18.51055527  148.53199768    0.07000000    0.38000000
   18.51666641  148.53199768    0.07000000    0.38000000
   18.52083397  152.03199768    0.07000000    0.38000000
   18.52194405  147.48199463    0.07000000    0.38000000
   18.52472115  140.76300049    0.07000000    0.38000000
   18.52777672  141.82400513    0.07000000    0.38000000
   18.53111076  137.94200134    0.07000000    0.38000000
   18.53416634  146.67900085    0.07000000    0.38000000
   18.53750038  146.47599792    0.07000000    0.38000000
   18.54083252  136.06399536    0.07000000    0.38000000
   18.54388809  139.38400269    0.07000000    0.38000000
   18.54722214  141.65899658    0.07000000    0.38000000
   18.55055428  146.79800415    0.07000000    0.38000000
   18.55360985  149.11700439    0.07000000    0.38000000
   18.55527687  138.58000183    0.07000000    0.38000000
   18.55944443  138.58000183    0.07000000    0.38000000
   18.56361008  139.99899292    0.07000000    0.38000000
   18.56694603  144.69900513    0.07000000    0.38000000
   18.57027817  142.60800171    0.07000000    0.38000000
   18.57333374  146.91499329    0.07000000    0.38000000
   18.57666779  144.44000244    0.07000000    0.38000000
   18.57972336  150.41299438    0.07000000    0.38000000
   18.58305550  155.94799805    0.07000000    0.38000000
   18.58638954  148.62199402    0.07000000    0.38000000
   18.58861160  142.26499939    0.07000000    0.38000000
   18.59000015  138.95399475    0.07000000    0.38000000
   18.59305573  146.90100098    0.07000000    0.38000000
   18.59638977  145.85299683    0.07000000    0.38000000
   18.60250092  145.85299683    0.07000000    0.38000000
   18.60666656  139.10400391    0.07000000    0.38000000
   18.60972214  145.72900391    0.07000000    0.38000000
   18.61305618  142.02499390    0.07000000    0.38000000
   18.61638832  128.58000183    0.07000000    0.38000000
   18.61944389  136.90199280    0.07000000    0.38000000
   18.62194443  130.68299866    0.07000000    0.38000000
   18.62333298  143.66700745    0.07000000    0.38000000
   18.62638855  147.77799988    0.07000000    0.38000000
   18.62972260  140.37899780    0.07000000    0.38000000
   18.63277817  140.44900513    0.07000000    0.38000000
   18.63611031  143.89999390    0.07000000    0.38000000
   18.63944435  140.39999390    0.07000000    0.38000000
   18.64527702  140.39999390    0.07000000    0.38000000
   18.64944458  143.04499817    0.07000000    0.38000000
   18.65250015  143.17900085    0.07000000    0.38000000
   18.65527725  137.63800049    0.07000000    0.38000000
   18.65638924  140.38400269    0.07000000    0.38000000
   18.65944481  141.21800232    0.07000000    0.38000000
   18.66277695  142.38600159    0.07000000    0.38000000
   18.66583252  140.48399353    0.07000000    0.38000000
   18.66916656  140.78700256    0.07000000    0.38000000
   18.67249870  136.47799683    0.07000000    0.38000000
   18.67555428  133.77900696    0.07000000    0.38000000
   18.67888832  139.06300354    0.07000000    0.38000000
   18.68222237  127.47499847    0.07000000    0.38000000
   18.68805504  127.47499847    0.07000000    0.38000000
   18.70639038  144.50199890    0.07000000    0.38000000
   18.70972252  147.41499329    0.07000000    0.38000000
   18.71305656  149.50300598    0.07000000    0.38000000
   18.71611214  137.28399658    0.07000000    0.38000000
   18.71944427  142.68800354    0.07000000    0.38000000
   18.72277832  132.42199707    0.07000000    0.38000000
   18.72583389  132.93099976    0.07000000    0.38000000
   18.73111153  132.93099976    0.07000000    0.38000000
   18.73527718  134.14900208    0.07000000    0.38000000
   18.73861122  133.40199280    0.07000000    0.38000000
   18.73944473  134.18200684    0.07000000    0.38000000
   18.74222183  152.42799377    0.07000000    0.38000000
   18.74555588  140.51100159    0.07000000    0.38000000
   18.74861145  134.06100464    0.07000000    0.38000000
   18.75194359  133.33599854    0.07000000    0.38000000
   18.75527763  144.85499573    0.07000000    0.38000000
   18.75833321  138.01100159    0.07000000    0.38000000
   18.76166725  134.48599243    0.07000000    0.38000000
   18.76472282  141.57000732    0.07000000    0.38000000
   18.76805496  134.23100281    0.07000000    0.38000000
   18.77416611  134.23100281    0.07000000    0.38000000
   18.77805519  133.10699463    0.07000000    0.38000000
   18.78138924  130.88099670    0.07000000    0.38000000
   18.78472137  127.40299988    0.07000000    0.38000000
   18.78777695  127.98899841    0.07000000    0.38000000
   18.79111099  140.30400085    0.07000000    0.38000000
   18.79444313  134.56199646    0.07000000    0.38000000
   18.79749870  135.47700500    0.07000000    0.38000000
   18.80083275  128.67300415    0.07000000    0.38000000
   18.80388832  127.66500092    0.07000000    0.38000000
   18.80611038  129.55599976    0.07000000    0.38000000
   18.80749893  125.98799896    0.07000000    0.38000000
   18.81083298  137.51800537    0.07000000    0.38000000
   18.81694603  137.51800537    0.07000000    0.38000000
   18.82111168  136.53300476    0.07000000    0.38000000
   18.82416725  134.85699463    0.07000000    0.38000000
   18.82750130  129.61300659    0.07000000    0.38000000
   18.83083344  128.09100342    0.07000000    0.38000000
   18.83388901  139.36000061    0.07000000    0.38000000
   18.83722305  122.80400085    0.07000000    0.38000000
   18.83944511  127.18599701    0.07000000    0.38000000
   18.84083366  124.28099823    0.07000000    0.38000000
   18.84416771  129.19900513    0.07000000    0.38000000
   18.84722328  128.66900635    0.07000000    0.38000000
   18.85055542  135.22000122    0.07000000    0.38000000
   18.85388947  134.05599976    0.07000000    0.38000000
   18.85972214  134.05599976    0.07000000    0.38000000
   18.86388969  130.89799500    0.07000000    0.38000000
   18.86722183  134.96699524    0.07000000    0.38000000
   18.87027740  126.52400208    0.07000000    0.38000000
   18.87277794  133.06500244    0.07000000    0.38000000
   18.87388992  134.54400635    0.07000000    0.38000000
   18.87722206  130.06599426    0.07000000    0.38000000
   18.88027763  124.88600159    0.07000000    0.38000000
   18.88361168  138.28399658    0.07000000    0.38000000
   18.88694382  129.81700134    0.07000000    0.38000000
   18.88999939  126.47599792    0.07000000    0.38000000
   18.89333344  133.21099854    0.07000000    0.38000000
   18.89666748  131.96000671    0.07000000    0.38000000
   18.90250015  131.96000671    0.07000000    0.38000000
   18.90666580  126.15200043    0.07000000    0.38000000
   18.90999985  139.91600037    0.07000000    0.38000000
   18.91333389  124.92099762    0.07000000    0.38000000
   18.91638756  123.14299774    0.07000000    0.38000000
   18.91972160  133.43899536    0.07000000    0.38000000
   18.92277718  123.22100067    0.07000000    0.38000000
   18.92611122  129.85800171    0.07000000    0.38000000
   18.92944336  140.71899414    0.07000000    0.38000000
   18.93249893  117.09400177    0.07000000    0.38000000
   18.93583298  127.17900085    0.07000000    0.38000000
   18.93916512  123.50499725    0.07000000    0.38000000
   18.93944359  124.10500336    0.07000000    0.38000000
   18.94555473  124.10500336    0.07000000    0.38000000
   18.94972038  122.01000214    0.07000000    0.38000000
   18.95277786  126.61199951    0.07000000    0.38000000
   18.95611191  131.21200562    0.07000000    0.38000000
   18.95944595  114.00099945    0.07000000    0.38000000
   18.96250153  122.56500244    0.07000000    0.38000000
   18.96583366  128.00100708    0.07000000    0.38000000
   18.96888924  118.23999786    0.07000000    0.38000000
   18.97222328  123.18099976    0.07000000    0.38000000
   18.97277832  124.20500183    0.07000000    0.38000000
   18.97583389  124.90799713    0.07000000    0.38000000
   18.97916794  125.40000153    0.07000000    0.38000000
   18.98222351  126.10399628    0.07000000    0.38000000
   18.98833275  126.10399628    0.07000000    0.38000000
   18.99250031  124.51200104    0.07000000    0.38000000
   18.99555588  121.63800049    0.07000000    0.38000000
   18.99888992  113.42600250    0.07000000    0.38000000
   19.00222206  117.09799957    0.07000000    0.38000000
   19.00527763  117.71399689    0.07000000    0.38000000
   19.00611115  110.57199860    0.07000000    0.38000000
   19.00888824  116.98000336    0.07000000    0.38000000
   19.01222229  120.47599792    0.07000000    0.38000000
   19.01527786  116.10099792    0.07000000    0.38000000
   19.01861000  126.99099731    0.07000000    0.38000000
   19.02194405  129.11399841    0.07000000    0.38000000
   19.02499962  120.19200134    0.07000000    0.38000000
   19.03111076  120.19200134    0.07000000    0.38000000
   19.03527641  119.37300110    0.07000000    0.38000000
   19.03861046  124.75099945    0.07000000    0.38000000
   19.03972244  128.30900574    0.07000000    0.38000000
   19.04194450  123.28700256    0.07000000    0.38000000
   19.04527664  125.14299774    0.07000000    0.38000000
   19.04833221  116.23100281    0.07000000    0.38000000
   19.05166626  120.39499664    0.07000000    0.38000000
   19.05499840  120.41100311    0.07000000    0.38000000
   19.05805397  112.07800293    0.07000000    0.38000000
   19.06138802  117.69599915    0.07000000    0.38000000
   19.06472206  112.17500305    0.07000000    0.38000000
   19.06777954  117.55400085    0.07000000    0.38000000
   19.07389069  117.55400085    0.07000000    0.38000000
   19.07805634  116.45200348    0.07000000    0.38000000
   19.08139038  122.82399750    0.07000000    0.38000000
   19.08472252  119.03500366    0.07000000    0.38000000
   19.08777809  112.32499695    0.07000000    0.38000000
   19.09111214  119.25900269    0.07000000    0.38000000
   19.09416771  115.53199768    0.07000000    0.38000000
   19.09749985  121.19300079    0.07000000    0.38000000
   19.10083389  119.63899994    0.07000000    0.38000000
   19.10388947  124.88099670    0.07000000    0.38000000
   19.10639000  121.35600281    0.07000000    0.38000000
   19.10750008  126.63899994    0.07000000    0.38000000
   19.11083412  117.67299652    0.07000000    0.38000000
   19.11694527  117.67299652    0.07000000    0.38000000
   19.12111092  125.66400146    0.07000000    0.38000000
   19.12416649  119.37699890    0.07000000    0.38000000
   19.12750053  131.85600281    0.07000000    0.38000000
   19.13055611  117.88600159    0.07000000    0.38000000
   19.13388824  120.05699921    0.07000000    0.38000000
   19.13722229  128.91700745    0.07000000    0.38000000
   19.13972282  120.17099762    0.07000000    0.38000000
   19.14083290  123.35099792    0.07000000    0.38000000
   19.14416695  132.25999451    0.07000000    0.38000000
   19.14722252  122.95899963    0.07000000    0.38000000
   19.15055466  128.14700317    0.07000000    0.38000000
   19.15388870  127.67199707    0.07000000    0.38000000
   19.15972137  127.67199707    0.07000000    0.38000000
   19.16388893  134.48599243    0.07000000    0.38000000
   19.16694450  127.20099640    0.07000000    0.38000000
   19.17027664  117.65799713    0.07000000    0.38000000
   19.17305565  113.87599945    0.07000000    0.38000000
   19.17388916  116.42500305    0.07000000    0.38000000
   19.17722130  120.63600159    0.07000000    0.38000000
   19.18027687  122.79100037    0.07000000    0.38000000
   19.18361092  117.77100372    0.07000000    0.38000000
   19.18694305  124.47000122    0.07000000    0.38000000
   19.18999863  118.43599701    0.07000000    0.38000000
   19.19333267  120.10399628    0.07000000    0.38000000
   19.19666672  127.38200378    0.07000000    0.38000000
   19.20250130  127.38200378    0.07000000    0.38000000
   19.20666695  121.98699951    0.07000000    0.38000000
   19.21000099  127.32099915    0.07000000    0.38000000
   19.21305656  121.02400208    0.07000000    0.38000000
   19.21638870  119.52500153    0.07000000    0.38000000
   19.21972275  119.49400330    0.07000000    0.38000000
   19.22277832  123.00599670    0.07000000    0.38000000
   19.22611237  121.67400360    0.07000000    0.38000000
   19.22944450  126.07700348    0.07000000    0.38000000
   19.23250008  115.42800140    0.07000000    0.38000000
   19.23583412  119.33200073    0.07000000    0.38000000
   19.23888969  119.71099854    0.07000000    0.38000000
   19.23972321  130.40100098    0.07000000    0.38000000
   19.24527740  130.40100098    0.07000000    0.38000000
   19.24944496  121.94300079    0.07000000    0.38000000
   19.25277710  122.61299896    0.07000000    0.38000000
   19.25583267  125.59400177    0.07000000    0.38000000
   19.25916672  123.85900116    0.07000000    0.38000000
   19.26250076  136.16499329    0.07000000    0.38000000
   19.26555634  124.00099945    0.07000000    0.38000000
   19.26888847  115.09300232    0.07000000    0.38000000
   19.27222252  118.51799774    0.07000000    0.38000000
   19.27305603  115.78199768    0.07000000    0.38000000
   19.27555466  124.80799866    0.07000000    0.38000000
   19.27888870  120.82099915    0.07000000    0.38000000
   19.28222275  125.25399780    0.07000000    0.38000000
   19.28833199  125.25399780    0.07000000    0.38000000
   19.29222107  109.19400024    0.07000000    0.38000000
   19.29555511  124.24299622    0.07000000    0.38000000
   19.29888916  120.04699707    0.07000000    0.38000000
   19.30194283  119.80200195    0.07000000    0.38000000
   19.30527687  131.38900757    0.07000000    0.38000000
   19.30638885  118.34999847    0.07000000    0.38000000
   19.30888748  121.16999817    0.07000000    0.38000000
   19.31222153  135.18699646    0.07000000    0.38000000
   19.31555557  126.14800262    0.07000000    0.38000000
   19.31861115  120.75900269    0.07000000    0.38000000
   19.32194519  125.58300018    0.07000000    0.38000000
   19.32500076  126.81999969    0.07000000    0.38000000
   19.33111191  126.81999969    0.07000000    0.38000000
   19.33527756  127.43399811    0.07000000    0.38000000
   19.33833313  119.64099884    0.07000000    0.38000000
   19.33972359  121.99600220    0.07000000    0.38000000
   19.34194565  121.40100098    0.07000000    0.38000000
   19.34527779  120.78099823    0.07000000    0.38000000
   19.34833336  118.49500275    0.07000000    0.38000000
   19.35166740  119.30500031    0.07000000    0.38000000
   19.35499954  116.79599762    0.07000000    0.38000000
   19.35805511  116.29699707    0.07000000    0.38000000
   19.36138916  114.80300140    0.07000000    0.38000000
   19.36472321  117.76300049    0.07000000    0.38000000
   19.36777878  114.25700378    0.07000000    0.38000000
   19.37388992  114.25700378    0.07000000    0.38000000
   19.37805557  123.95999908    0.07000000    0.38000000
   19.38111115  125.22499847    0.07000000    0.38000000
   19.38444519  120.35800171    0.07000000    0.38000000
   19.38777733  125.47699738    0.07000000    0.38000000
   19.39083290  122.79699707    0.07000000    0.38000000
   19.39416695  127.57599640    0.07000000    0.38000000
   19.39749908  116.31199646    0.07000000    0.38000000
   19.40055466  116.37999725    0.07000000    0.38000000
   19.40388870  117.13500214    0.07000000    0.38000000
   19.40638924  127.98600006    0.07000000    0.38000000
   19.40749931  110.98300171    0.07000000    0.38000000
   19.41083336  115.65799713    0.07000000    0.38000000
   19.41666603  115.65799713    0.07000000    0.38000000
   19.42083359  126.13300323    0.07000000    0.38000000
   19.42416573  118.18099976    0.07000000    0.38000000
   19.42722130  117.14900208    0.07000000    0.38000000
   19.43055534  116.91699982    0.07000000    0.38000000
   19.43388748  127.85299683    0.07000000    0.38000000
   19.43694305  124.52400208    0.07000000    0.38000000
   19.43972206  127.50800323    0.07000000    0.38000000
   19.44055557  133.20599365    0.07000000    0.38000000
   19.44388771  130.62600708    0.07000000    0.38000000
   19.44694328  122.29699707    0.07000000    0.38000000
   19.45027924  130.81399536    0.07000000    0.38000000
   19.45361137  127.75099945    0.07000000    0.38000000
   19.45972252  127.75099945    0.07000000    0.38000000
   19.46361160  119.94799805    0.07000000    0.38000000
   19.46694565  123.30400085    0.07000000    0.38000000
   19.47027779  116.45899963    0.07000000    0.38000000
   19.47305679  119.43199921    0.07000000    0.38000000
   19.47361183  120.65100098    0.07000000    0.38000000
   19.47694588  128.15299988    0.07000000    0.38000000
   19.48000145  124.21600342    0.07000000    0.38000000
   19.48333359  127.17600250    0.07000000    0.38000000
   19.48666763  122.87999725    0.07000000    0.38000000
   19.48972321  122.55200195    0.07000000    0.38000000
   19.49305534  117.43299866    0.07000000    0.38000000
   19.49638939  121.74700165    0.07000000    0.38000000
   19.50250053  121.74700165    0.07000000    0.38000000
   19.50666618  120.07800293    0.07000000    0.38000000
   19.50972176  114.46800232    0.07000000    0.38000000
   19.51305580  100.59300232    0.07000000    0.38000000
   19.51638794  139.23899841    0.07000000    0.38000000
   19.51944351   -1.00000000    0.07000000    0.38000000
   19.52277756  173.62199402    0.07000000    0.38000000
   19.52611160  124.73999786    0.07000000    0.38000000
   19.52916718  139.32800293    0.07000000    0.38000000
   19.53249931  126.95899963    0.07000000    0.38000000
   19.53555489  144.61300659    0.07000000    0.38000000
   19.53888893   -1.00000000    0.07000000    0.38000000
   19.54944420   -1.00000000    0.07000000    0.38000000
   19.55249977   -1.00000000    0.07000000    0.38000000
   19.55583191   -1.00000000    0.07000000    0.38000000
   19.55888748   -1.00000000    0.07000000    0.38000000
   19.56222153  121.04900360    0.07000000    0.38000000
   19.56555557  125.49900055    0.07000000    0.38000000
   19.56861115   -1.00000000    0.07000000    0.38000000
   19.57194519   -1.00000000    0.07000000    0.38000000
   19.57555580   -1.00000000    0.07000000    0.38000000
   19.57888985   -1.00000000    0.07000000    0.38000000
   19.58194542   -1.00000000    0.07000000    0.38000000
   19.58805656   -1.00000000    0.07000000    0.38000000
   19.59222221  170.36799622    0.07000000    0.38000000
   19.59555626  133.56599426    0.07000000    0.38000000
   19.59861183  145.16400146    0.07000000    0.38000000
   19.60194397  133.79499817    0.07000000    0.38000000
   19.60527802   -1.00000000    0.07000000    0.38000000
   19.60861206   -1.00000000    0.07000000    0.38000000
   19.61194420   -1.00000000    0.07000000    0.38000000
   19.61499977   -1.00000000    0.07000000    0.38000000
   19.61833382   -1.00000000    0.07000000    0.38000000
   19.62166595   -1.00000000    0.07000000    0.38000000
   19.62472153   -1.00000000    0.07000000    0.38000000
   19.63500023   -1.00000000    0.07000000    0.38000000
   19.63833237   -1.00000000    0.07000000    0.38000000
   19.64166641   -1.00000000    0.07000000    0.38000000
   19.64500046   -1.00000000    0.07000000    0.38000000
   19.64805603   -1.00000000    0.07000000    0.38000000
   19.65138817   -1.00000000    0.07000000    0.38000000
   19.65472221   -1.00000000    0.07000000    0.38000000
   19.65777779   -1.00000000    0.07000000    0.38000000
   19.66110992   -1.00000000    0.07000000    0.38000000
   19.66416550   -1.00000000    0.07000000    0.38000000
   19.66749954   -1.00000000    0.07000000    0.38000000
   19.67777634   -1.00000000    0.07000000    0.38000000
   19.68111038   -1.00000000    0.07000000    0.38000000
   19.68444443   -1.00000000    0.07000000    0.38000000
   19.68750000   -1.00000000    0.07000000    0.38000000
   19.69083214   -1.00000000    0.07000000    0.38000000
   19.69388771   -1.00000000    0.07000000    0.38000000
   19.69722176   -1.00000000    0.07000000    0.38000000
   19.70055580   -1.00000000    0.07000000    0.38000000
   19.70361137   -1.00000000    0.07000000    0.38000000
   19.73111153   -1.00000000    0.07000000    0.38000000
   19.73416710   91.44709778    0.07000000    0.38000000
   19.73750114  151.47300720    0.07000000    0.38000000
   19.73972321  137.92700195    0.07000000    0.38000000
   19.74111176  157.50700378    0.07000000    0.38000000
   19.74444389  162.16799927    0.07000000    0.38000000
   19.74777794  163.08900452    0.07000000    0.38000000
   19.75083351  160.63900757    0.07000000    0.38000000
   19.75416756  128.28199768    0.07000000    0.38000000
   19.75749969  150.05900574    0.07000000    0.38000000
   19.76055527  138.38900757    0.07000000    0.38000000
   19.76388931  152.66700745    0.07000000    0.38000000
   19.77361107   -1.00000000    0.07000000    0.38000000
   19.77694511  211.90899658    0.07000000    0.38000000
   19.78027725  129.63499451    0.07000000    0.38000000
   19.78333282  153.28500366    0.07000000    0.38000000
   19.78666687  130.75399780    0.07000000    0.38000000
   19.78999901  142.92100525    0.07000000    0.38000000
   19.79305458  139.02000427    0.07000000    0.38000000
   19.79638863  122.66200256    0.07000000    0.38000000
   19.79944420  126.22100067    0.07000000    0.38000000
   19.80277634  123.95500183    0.07000000    0.38000000
   19.80611038  138.52600098    0.07000000    0.38000000
   19.80666542  115.74700165    0.07000000    0.38000000
   19.81250000  115.74700165    0.07000000    0.38000000
   19.81666756  124.01300049    0.07000000    0.38000000
   19.82000160  121.82599640    0.07000000    0.38000000
   19.82305717  138.19700623    0.07000000    0.38000000
   19.82638931  135.24000549    0.07000000    0.38000000
   19.82944489  124.05699921    0.07000000    0.38000000
   19.83277893  126.31700134    0.07000000    0.38000000
   19.83611107  132.71200562    0.07000000    0.38000000
   19.83916664  131.18400574    0.07000000    0.38000000
   19.84000015  133.04299927    0.07000000    0.38000000
   19.84277916  133.14799500    0.07000000    0.38000000
   19.84611130  132.90199280    0.07000000    0.38000000
   19.84944534  135.86399841    0.07000000    0.38000000
   19.85527802  135.86399841    0.07000000    0.38000000
   19.85944557  127.41999817    0.07000000    0.38000000
   19.86277771  121.06900024    0.07000000    0.38000000
   19.86583328  129.45100403    0.07000000    0.38000000
   19.86916733  130.74699402    0.07000000    0.38000000
   19.87249947  127.52200317    0.07000000    0.38000000
   19.87333298  121.02400208    0.07000000    0.38000000
   19.87583351  125.31199646    0.07000000    0.38000000
   19.87916756  124.62500000    0.07000000    0.38000000
   19.88249969   95.21330261    0.07000000    0.38000000
   19.88555527  104.76100159    0.07000000    0.38000000
   19.88888931   -1.00000000    0.07000000    0.38000000
   19.89194489   -1.00000000    0.07000000    0.38000000
   19.90222168   -1.00000000    0.07000000    0.38000000
   19.90555573   -1.00000000    0.07000000    0.38000000
   19.90916634   -1.00000000    0.07000000    0.38000000
   19.91250038   -1.00000000    0.07000000    0.38000000
   19.91555595   -1.00000000    0.07000000    0.38000000
   19.91888809   -1.00000000    0.07000000    0.38000000
   19.92194366   -1.00000000    0.07000000    0.38000000
   19.92527771   -1.00000000    0.07000000    0.38000000
   19.92860985   -1.00000000    0.07000000    0.38000000
   19.93166542   -1.00000000    0.07000000    0.38000000
   19.93499947   -1.00000000    0.07000000    0.38000000
   19.94499969  145.80499268    0.07000000    0.38000000
   19.94833183  101.20600128    0.07000000    0.38000000
   20.16472244  120.19000244    0.07000000    0.38000000
   20.16805458  119.07700348    0.07000000    0.38000000
   20.17111015  122.22100067    0.07000000    0.38000000
   20.17444420  126.69599915    0.07000000    0.38000000
   20.17777634  130.25700378    0.07000000    0.38000000
   20.18111038  124.90799713    0.07000000    0.38000000
   20.18527603  124.90799713    0.07000000    0.38000000
   20.18944359  117.73300171    0.07000000    0.38000000
   20.19249916  125.32700348    0.07000000    0.38000000
   20.19583321  122.73400116    0.07000000    0.38000000
   20.19805527  126.11199951    0.07000000    0.38000000
   20.19944382  131.92900085    0.07000000    0.38000000
   20.20250130  127.33200073    0.07000000    0.38000000
   20.20583344  132.10699463    0.07000000    0.38000000
   20.20916748  114.32900238    0.07000000    0.38000000
   20.21222305  124.34500122    0.07000000    0.38000000
   20.21555710  127.35800171    0.07000000    0.38000000
   20.21861076  108.39700317    0.07000000    0.38000000
   20.22194481  118.13899994    0.07000000    0.38000000
   20.22805595  118.13899994    0.07000000    0.38000000
   20.23222351  118.41699982    0.07000000    0.38000000
   20.23555565  122.01999664    0.07000000    0.38000000
   20.23861122  120.89099884    0.07000000    0.38000000
   20.24194527  122.06999969    0.07000000    0.38000000
   20.24500084  118.00499725    0.07000000    0.38000000
   20.24833298  124.25000000    0.07000000    0.38000000
   20.25166702  124.42400360    0.07000000    0.38000000
   20.25472260  123.26000214    0.07000000    0.38000000
   20.25805473  117.14399719    0.07000000    0.38000000
   20.26138878  128.41000366    0.07000000    0.38000000
   20.26444435  118.99099731    0.07000000    0.38000000
   20.26499939  120.76300049    0.07000000    0.38000000
   20.27083397  120.76300049    0.07000000    0.38000000
   20.27499962  123.75399780    0.07000000    0.38000000
   20.27833366  117.25099945    0.07000000    0.38000000
   20.28138924  128.73699951    0.07000000    0.38000000
   20.28472137  129.27200317    0.07000000    0.38000000
   20.28805542  113.61699677    0.07000000    0.38000000
   20.29111099  113.87100220    0.07000000    0.38000000
   20.29444313  110.79799652    0.07000000    0.38000000
   20.29777718  121.34300232    0.07000000    0.38000000
   20.29833221  123.74800110    0.07000000    0.38000000
   20.30138779  122.19400024    0.07000000    0.38000000
   20.30444336  124.78199768    0.07000000    0.38000000
   20.30777740  121.47599792    0.07000000    0.38000000
   20.31388855  121.47599792    0.07000000    0.38000000
   20.31777954  116.56300354    0.07000000    0.38000000
   20.32111168  123.73000336    0.07000000    0.38000000
   20.32444572  119.76499939    0.07000000    0.38000000
   20.32750130  123.89199829    0.07000000    0.38000000
   20.33083344  114.59600067    0.07000000    0.38000000
   20.33166695  116.16000366    0.07000000    0.38000000
   20.33444595  114.54000092    0.07000000    0.38000000
   20.33750153  117.73200226    0.07000000    0.38000000
   20.34083366  129.84599304    0.07000000    0.38000000
   20.34416771  123.69699860    0.07000000    0.38000000
   20.34722328  111.28299713    0.07000000    0.38000000
   20.35055542  120.44499969    0.07000000    0.38000000
   20.35666656  120.44499969    0.07000000    0.38000000
   20.36083412  119.01699829    0.07000000    0.38000000
   20.36388969  127.22000122    0.07000000    0.38000000
   20.36499977  121.56700134    0.07000000    0.38000000
   20.36777878  134.65899658    0.07000000    0.38000000
   20.37083435  132.78700256    0.07000000    0.38000000
   20.37416649  122.11799622    0.07000000    0.38000000
   20.37750053  116.93099976    0.07000000    0.38000000
   20.38055611  121.21199799    0.07000000    0.38000000
   20.38388824  118.20500183    0.07000000    0.38000000
   20.38694382  119.52999878    0.07000000    0.38000000
   20.39027786  126.15699768    0.07000000    0.38000000
   20.39361191  122.74700165    0.07000000    0.38000000
   20.39944458  122.74700165    0.07000000    0.38000000
   20.40361023  118.17900085    0.07000000    0.38000000
   20.40694427  127.23799896    0.07000000    0.38000000
   20.40999985  129.10200500    0.07000000    0.38000000
   20.41333389  121.62799835    0.07000000    0.38000000
   20.41638756  117.69899750    0.07000000    0.38000000
   20.41972160  126.11100006    0.07000000    0.38000000
   20.42305565  122.67299652    0.07000000    0.38000000
   20.42611122  126.66799927    0.07000000    0.38000000
   20.42944336  127.23200226    0.07000000    0.38000000
   20.43166542  118.13899994    0.07000000    0.38000000
   20.43305397  128.24899292    0.07000000    0.38000000
   20.43610954  117.01200104    0.07000000    0.38000000
   20.44222069  117.01200104    0.07000000    0.38000000
   20.44638824  120.52600098    0.07000000    0.38000000
   20.44972038  120.75700378    0.07000000    0.38000000
   20.45277786  121.12200165    0.07000000    0.38000000
   20.45611191  123.70600128    0.07000000    0.38000000
   20.45944595  121.11599731    0.07000000    0.38000000
   20.46277809  120.90299988    0.07000000    0.38000000
   20.46500015  121.48300171    0.07000000    0.38000000
   20.46638870  136.01300049    0.07000000    0.38000000
   20.46944427  131.35899353    0.07000000    0.38000000
   20.47277832  128.66999817    0.07000000    0.38000000
   20.47611237  135.31700134    0.07000000    0.38000000
   20.47916794  130.54100037    0.07000000    0.38000000
   20.48527718  130.54100037    0.07000000    0.38000000
   20.48916626  132.72099304    0.07000000    0.38000000
   20.49250031  127.95700073    0.07000000    0.38000000
   20.49583435  127.03500366    0.07000000    0.38000000
   20.49833298  121.62000275    0.07000000    0.38000000
   20.49944496  133.53999329    0.07000000    0.38000000
   20.50250053  128.11399841    0.07000000    0.38000000
   20.50583267  126.04599762    0.07000000    0.38000000
   20.50916672  129.14700317    0.07000000    0.38000000
   20.51222229  122.28399658    0.07000000    0.38000000
   20.51555634  139.60899353    0.07000000    0.38000000
   20.51888847  128.19099426    0.07000000    0.38000000
   20.52194405  121.67800140    0.07000000    0.38000000
   20.52805519  121.67800140    0.07000000    0.38000000
   20.53222275  126.26899719    0.07000000    0.38000000
   20.53527641  125.92400360    0.07000000    0.38000000
   20.53861046  130.19099426    0.07000000    0.38000000
   20.54194450  137.94000244    0.07000000    0.38000000
   20.54500008  124.03099823    0.07000000    0.38000000
   20.54833221  130.76499939    0.07000000    0.38000000
   20.55166626  133.83599854    0.07000000    0.38000000
   20.55472183  122.68800354    0.07000000    0.38000000
   20.55805397  123.60099792    0.07000000    0.38000000
   20.56138802  126.63899994    0.07000000    0.38000000
   20.56444359  120.34999847    0.07000000    0.38000000
   20.56499863  122.23000336    0.07000000    0.38000000
   20.57083511  122.23000336    0.07000000    0.38000000
   20.57500076  126.97699738    0.07000000    0.38000000
   20.57833481  127.73600006    0.07000000    0.38000000
   20.58139038  122.22899628    0.07000000    0.38000000
   20.58472252  119.93699646    0.07000000    0.38000000
   20.58777809  124.54000092    0.07000000    0.38000000
   20.59111214  126.79900360    0.07000000    0.38000000
   20.59444427  117.22799683    0.07000000    0.38000000
   20.59749985  119.13200378    0.07000000    0.38000000
   20.59833336  121.59600067    0.07000000    0.38000000
   20.60111237  118.27400208    0.07000000    0.38000000
   20.60444450  123.86000061    0.07000000    0.38000000
   20.60750008  126.06800079    0.07000000    0.38000000
   20.61361122  126.06800079    0.07000000    0.38000000
   20.61777878  127.30100250    0.07000000    0.38000000
   20.62111092  126.83699799    0.07000000    0.38000000
   20.62444496  132.06799316    0.07000000    0.38000000
   20.62750053  124.08599854    0.07000000    0.38000000
   20.63083267  131.16600037    0.07000000    0.38000000
   20.63166618  133.92100525    0.07000000    0.38000000
   20.63444519  125.77100372    0.07000000    0.38000000
   20.63777733  117.76599884    0.07000000    0.38000000
   20.64083290  125.47399902    0.07000000    0.38000000
   20.64416695  120.92199707    0.07000000    0.38000000
   20.64722252  131.61399841    0.07000000    0.38000000
   20.65055466  119.81300354    0.07000000    0.38000000
   20.65666580  119.81300354    0.07000000    0.38000000
   20.66055489  122.25900269    0.07000000    0.38000000
   20.66388893  126.95999908    0.07000000    0.38000000
   20.66499901  123.64299774    0.07000000    0.38000000
   20.66749954  114.68399811    0.07000000    0.38000000
   20.67083359  122.50599670    0.07000000    0.38000000
   20.67388916  118.69899750    0.07000000    0.38000000
   20.67722130  125.43499756    0.07000000    0.38000000
   20.68027687  115.96499634    0.07000000    0.38000000
   20.68361092  129.77900696    0.07000000    0.38000000
   20.68694305  117.33000183    0.07000000    0.38000000
   20.68999863  122.51000214    0.07000000    0.38000000
   20.69333267  115.93399811    0.07000000    0.38000000
   20.69944382  115.93399811    0.07000000    0.38000000
   20.70361137  122.27799988    0.07000000    0.38000000
   20.70694542  108.05899811    0.07000000    0.38000000
   20.71000099  120.74299622    0.07000000    0.38000000
   20.71333504  118.62999725    0.07000000    0.38000000
   20.71666718  115.80300140    0.07000000    0.38000000
   20.71972275  118.12400055    0.07000000    0.38000000
   20.72305679  122.07099915    0.07000000    0.38000000
   20.72638893  123.28600311    0.07000000    0.38000000
   20.72972298  121.52300262    0.07000000    0.38000000
   20.73166656  120.79599762    0.07000000    0.38000000
   20.73333359  127.33200073    0.07000000    0.38000000
   20.73638916  119.25199890    0.07000000    0.38000000
   20.74222183  119.25199890    0.07000000    0.38000000
   20.74638939  114.49500275    0.07000000    0.38000000
   20.74944496  124.73600006    0.07000000    0.38000000
   20.75277710  122.80100250    0.07000000    0.38000000
   20.75611115  108.26399994    0.07000000    0.38000000
   20.75916672  116.26499939    0.07000000    0.38000000
   20.76250076  121.99500275    0.07000000    0.38000000
   20.76499939  118.05200195    0.07000000    0.38000000
   20.76611137  129.34599304    0.07000000    0.38000000
   20.76916695  125.77600098    0.07000000    0.38000000
   20.77249908  126.21099854    0.07000000    0.38000000
   20.77583313  135.47399902    0.07000000    0.38000000
   20.77888870  130.21699524    0.07000000    0.38000000
   20.78499985  130.21699524    0.07000000    0.38000000
   20.78916550  119.34300232    0.07000000    0.38000000
   20.79249954  134.93600464    0.07000000    0.38000000
   20.79555511  121.53299713    0.07000000    0.38000000
   20.79833221  111.05599976    0.07000000    0.38000000
   20.79944420  115.98300171    0.07000000    0.38000000
   20.80249977  122.88500214    0.07000000    0.38000000
   20.80583191  127.09100342    0.07000000    0.38000000
   20.80916595  123.72899628    0.07000000    0.38000000
   20.81222153  135.79499817    0.07000000    0.38000000
   20.81555557  146.28900146    0.07000000    0.38000000
   20.81861115  128.63000488    0.07000000    0.38000000
   20.82194519  133.34700012    0.07000000    0.38000000
   20.82805634  133.34700012    0.07000000    0.38000000
   20.83222389  129.78799438    0.07000000    0.38000000
   20.83527756  136.28100586    0.07000000    0.38000000
   20.83861160  143.23300171    0.07000000    0.38000000
   20.84166718  135.80099487    0.07000000    0.38000000
   20.84500122  139.98300171    0.07000000    0.38000000
   20.84805679  128.59800720    0.07000000    0.38000000
   20.85138893  133.13400269    0.07000000    0.38000000
   20.85472298  127.60199738    0.07000000    0.38000000
   20.85777855  135.54299927    0.07000000    0.38000000
   20.86111069  138.03399658    0.07000000    0.38000000
   20.86416626  149.42500305    0.07000000    0.38000000
   20.86499977  150.07600403    0.07000000    0.38000000
   20.87083435  150.07600403    0.07000000    0.38000000
   20.87500000  140.52799988    0.07000000    0.38000000
   20.87805557  136.13200378    0.07000000    0.38000000
   20.88138962  134.56799316    0.07000000    0.38000000
   20.88472176  130.36799622    0.07000000    0.38000000
   20.88777733  133.78199768    0.07000000    0.38000000
   20.89111137  128.83399963    0.07000000    0.38000000
   20.89416695  125.35399628    0.07000000    0.38000000
   20.89749908  113.97100067    0.07000000    0.38000000
   20.89833260  123.01999664    0.07000000    0.38000000
   20.90111160  129.17900085    0.07000000    0.38000000
   20.90416718  123.43299866    0.07000000    0.38000000
   20.90749931  131.74200439    0.07000000    0.38000000
   20.91361046  131.74200439    0.07000000    0.38000000
   20.91777802  127.49400330    0.07000000    0.38000000
   20.92111015  128.21200562    0.07000000    0.38000000
   20.92416573  128.83200073    0.07000000    0.38000000
   20.92749977  144.32200623    0.07000000    0.38000000
   20.93055534  137.12899780    0.07000000    0.38000000
   20.93166542  130.36000061    0.07000000    0.38000000
   20.93416595  117.66200256    0.07000000    0.38000000
   20.93750000  116.80999756    0.07000000    0.38000000
   20.94055557  127.14900208    0.07000000    0.38000000
   20.94388771  129.21699524    0.07000000    0.38000000
   20.94694328  139.41799927    0.07000000    0.38000000
   20.95027924  131.09500122    0.07000000    0.38000000
   20.95639038  131.09500122    0.07000000    0.38000000
   20.96055603  126.00700378    0.07000000    0.38000000
   20.96389008  122.60600281    0.07000000    0.38000000
   20.96500015  140.50599670    0.07000000    0.38000000
   20.96750069  138.18800354    0.07000000    0.38000000
   20.97083473  130.43400574    0.07000000    0.38000000
   20.97389030  139.16600037    0.07000000    0.38000000
   20.97722244  140.17900085    0.07000000    0.38000000
   20.98027802  129.85099792    0.07000000    0.38000000
   20.98361206  134.86700439    0.07000000    0.38000000
   20.98666763  125.63899994    0.07000000    0.38000000
   20.98999977  129.04100037    0.07000000    0.38000000
   20.99333382  139.62100220    0.07000000    0.38000000
   20.99944496  139.62100220    0.07000000    0.38000000
   21.00361061  127.05400085    0.07000000    0.38000000
   21.00666618  140.15499878    0.07000000    0.38000000
   21.01000023  147.47799683    0.07000000    0.38000000
   21.01305580  136.42500305    0.07000000    0.38000000
   21.01638794  140.11000061    0.07000000    0.38000000
   21.01944351  136.03799438    0.07000000    0.38000000
   21.02277756  125.50299835    0.07000000    0.38000000
   21.02611160  143.34399414    0.07000000    0.38000000
   21.02916718  139.48399353    0.07000000    0.38000000
   21.03166580  145.01800537    0.07000000    0.38000000
   21.03277779  135.32699585    0.07000000    0.38000000
   21.03610992  140.56199646    0.07000000    0.38000000
   21.04222107  140.56199646    0.07000000    0.38000000
   21.04638863  134.21299744    0.07000000    0.38000000
   21.04944420  119.27899933    0.07000000    0.38000000
   21.05277634  134.00500488    0.07000000    0.38000000
   21.05611038  133.12500000    0.07000000    0.38000000
   21.05916595  128.93800354    0.07000000    0.38000000
   21.06250000  131.57000732    0.07000000    0.38000000
   21.06499863  133.60699463    0.07000000    0.38000000
   21.06611061  131.64399719    0.07000000    0.38000000
   21.06944466  129.62699890    0.07000000    0.38000000
   21.07250023  126.55699921    0.07000000    0.38000000
   21.07583427  132.32800293    0.07000000    0.38000000
   21.07888985  133.53100586    0.07000000    0.38000000
   21.08500099  133.53100586    0.07000000    0.38000000
   21.08916664  126.38800049    0.07000000    0.38000000
   21.09250069  127.54799652    0.07000000    0.38000000
   21.09555626  131.14599609    0.07000000    0.38000000
   21.09833336  128.42399597    0.07000000    0.38000000
   21.09916687  118.11299896    0.07000000    0.38000000
   21.10250092  126.66100311    0.07000000    0.38000000
   21.10555649  122.87100220    0.07000000    0.38000000
   21.10888863  127.50399780    0.07000000    0.38000000
   21.11194420  135.12199402    0.07000000    0.38000000
   21.11527824  130.73599243    0.07000000    0.38000000
   21.11833382  138.36700439    0.07000000    0.38000000
   21.12166595  133.48599243    0.07000000    0.38000000
   21.12777710  133.48599243    0.07000000    0.38000000
   21.13194466  140.79499817    0.07000000    0.38000000
   21.13527679  127.86399841    0.07000000    0.38000000
   21.13833237  128.24099731    0.07000000    0.38000000
   21.14166641  131.79299927    0.07000000    0.38000000
   21.14500046  137.00000000    0.07000000    0.38000000
   21.14805603  126.10500336    0.07000000    0.38000000
   21.15138817  137.20100403    0.07000000    0.38000000
   21.15444374  138.42100525    0.07000000    0.38000000
   21.15777779  140.85400391    0.07000000    0.38000000
   21.16110992  147.71400452    0.07000000    0.38000000
   21.16416550  144.42100525    0.07000000    0.38000000
   21.16499901  151.07699585    0.07000000    0.38000000
   21.18583298  151.07699585    0.07000000    0.38000000
   21.18999863  151.07800293    0.07000000    0.38000000
   21.19305420  182.48899841    0.07000000    0.38000000
   21.19638824  144.64300537    0.07000000    0.38000000
   21.19833183  153.49000549    0.07000000    0.38000000
   21.20166779  144.47999573    0.07000000    0.38000000
   21.20499992  158.41999817    0.07000000    0.38000000
   21.20833397  157.80499268    0.07000000    0.38000000
   21.21138954  158.20599365    0.07000000    0.38000000
   21.21472359  155.78599548    0.07000000    0.38000000
   21.21805573  162.60200500    0.07000000    0.38000000
   21.22111130  142.46200562    0.07000000    0.38000000
   21.22444534  147.18400574    0.07000000    0.38000000
   21.22861099  147.18400574    0.07000000    0.38000000
   21.23277855  279.73599243    0.07000000    0.38000000
   21.23583412  303.91799927    0.07000000    0.38000000
   21.23805618  291.88400269    0.07000000    0.38000000
   21.23916626  320.87899780    0.07000000    0.38000000
   21.24055672  331.63598633    0.07000000    0.38000000
   21.24194527  386.30700684    0.07000000    0.38000000
   21.24333382  378.60501099    0.07000000    0.38000000
   21.24472237  449.46899414    0.07000000    0.38000000
   21.24611092  394.55801392    0.07000000    0.38000000
   21.24777794  429.50900269    0.07000000    0.38000000
   21.24888992  451.20800781    0.07000000    0.38000000
   21.25027847  397.39199829    0.07000000    0.38000000
   21.25166702  414.63101196    0.07000000    0.38000000
   21.25305557  450.58999634    0.07000000    0.38000000
   21.25444412  418.27700806    0.07000000    0.38000000
   21.25583267  473.25799561    0.07000000    0.38000000
   21.25722313  491.28500366    0.07000000    0.38000000
   21.25861168  475.98901367    0.07000000    0.38000000
   21.26000023  428.25100708    0.07000000    0.38000000
   21.26138878  654.82800293    0.07000000    0.38000000
   21.26277733  487.34698486    0.07000000    0.38000000
   21.26416588  508.18099976    0.07000000    0.38000000
   21.26555634  423.98098755    0.07000000    0.38000000
   21.26722145  445.16101074    0.07000000    0.38000000
   21.26833344  383.73699951    0.07000000    0.38000000
   21.26972198  441.85699463    0.07000000    0.38000000
   21.27111053  484.19900513    0.07000000    0.38000000
   21.27249908  643.53002930    0.07000000    0.38000000
   21.27388954  477.55899048    0.07000000    0.38000000
   21.27527809  513.34997559    0.07000000    0.38000000
   21.27666664  741.09698486    0.07000000    0.38000000
   21.27805519  742.15002441    0.07000000    0.38000000
   21.27944374 1159.93994141    0.07000000    0.38000000
   21.28083229  277.46200562    0.07000000    0.38000000
   21.28222275  274.55300903    0.07000000    0.38000000
   21.28361130  435.13000488    0.07000000    0.38000000
   21.28499985  575.38397217    0.07000000    0.38000000
   21.28638840  421.82501221    0.07000000    0.38000000
   21.28777695  377.43701172    0.07000000    0.38000000
   21.28916550  461.13598633    0.07000000    0.38000000
   21.29055595  436.90600586    0.07000000    0.38000000
   21.29194450  495.78500366    0.07000000    0.38000000
   21.29333305  787.18701172    0.07000000    0.38000000
   21.29472160  453.89001465    0.07000000    0.38000000
   21.29611015  396.15798950    0.07000000    0.38000000
   21.29749870  420.79699707    0.07000000    0.38000000
   21.29888916  512.25299072    0.07000000    0.38000000
   21.30055428  720.29602051    0.07000000    0.38000000
   21.30166626  464.51501465    0.07000000    0.38000000
   21.30305481  402.60699463    0.07000000    0.38000000
   21.30444336  435.60400391    0.07000000    0.38000000
   21.30583191  472.76400757    0.07000000    0.38000000
   21.30722237  438.61499023    0.07000000    0.38000000
   21.30861092  496.61300659    0.07000000    0.38000000
   21.30999947  358.88198853    0.07000000    0.38000000
   21.31138802  286.11401367    0.07000000    0.38000000
   21.31277657  422.38598633    0.07000000    0.38000000
   21.31416512  433.31698608    0.07000000    0.38000000
   21.31555557  490.81298828    0.07000000    0.38000000
   21.31694603  642.06097412    0.07000000    0.38000000
   21.31833458  639.77502441    0.07000000    0.38000000
   21.31972313  481.15301514    0.07000000    0.38000000
   21.32111168  346.13000488    0.07000000    0.38000000
   21.32250023  381.78698730    0.07000000    0.38000000
   21.32389069  378.04598999    0.07000000    0.38000000
   21.32527924  349.52801514    0.07000000    0.38000000
   21.32666779  345.95901489    0.07000000    0.38000000
   21.32805634  389.58200073    0.07000000    0.38000000
   21.32944489  354.72799683    0.07000000    0.38000000
   21.33083344  287.45999146    0.07000000    0.38000000
   21.33222389  296.86300659    0.07000000    0.38000000
   21.33361244  383.48098755    0.07000000    0.38000000
   21.33500099  302.22601318    0.07000000    0.38000000
   21.33638954  361.33898926    0.07000000    0.38000000
   21.33777809  349.22500610    0.07000000    0.38000000
   21.33916664  303.63400269    0.07000000    0.38000000
   21.34055710  463.66799927    0.07000000    0.38000000
   21.34194565  423.00000000    0.07000000    0.38000000
   21.34333420  533.41497803    0.07000000    0.38000000
   21.34472275  850.83300781    0.07000000    0.38000000
   21.34611130  561.24102783    0.07000000    0.38000000
   21.34749985  728.62097168    0.07000000    0.38000000
   21.34889030  340.75799561    0.07000000    0.38000000
   21.35027885  343.76400757    0.07000000    0.38000000
   21.35166740  420.27899170    0.07000000    0.38000000
   21.35305595  537.27001953    0.07000000    0.38000000
   21.35444450  329.39599609    0.07000000    0.38000000
   21.35583305  251.58299255    0.07000000    0.38000000
   21.35722351  283.65301514    0.07000000    0.38000000
   21.35861206  269.93399048    0.07000000    0.38000000
   21.36000061  259.61099243    0.07000000    0.38000000
   21.36138916  289.17098999    0.07000000    0.38000000
   21.36277771  243.94500732    0.07000000    0.38000000
   21.36305618  303.91799927    0.07000000    0.38000000
   21.36305618  158.41999817    0.07000000    0.38000000
   21.36305618  157.80499268    0.07000000    0.38000000
   21.36333466  158.20599365    0.07000000    0.38000000
   21.36333466  155.78599548    0.07000000    0.38000000
   21.36333466  162.60200500    0.07000000    0.38000000
   21.36361122  142.46200562    0.07000000    0.38000000
   21.36361122  147.18400574    0.07000000    0.38000000
   21.36361122  279.73599243    0.07000000    0.38000000
   21.36416626  274.23001099    0.07000000    0.38000000
   21.36750031  256.29998779    0.07000000    0.38000000
   21.37083435  294.75299072    0.07000000    0.38000000
   21.37388992  240.07299805    0.07000000    0.38000000
   21.37722206  268.05200195    0.07000000    0.38000000
   21.38361168  268.05200195    0.07000000    0.38000000
   21.38777733  187.99499512    0.07000000    0.38000000
   21.39111137  170.52000427    0.07000000    0.38000000
   21.39416695  227.26199341    0.07000000    0.38000000
   21.39666748  217.05700684    0.07000000    0.38000000
   21.39805603  237.38499451    0.07000000    0.38000000
   21.40111160  220.68099976    0.07000000    0.38000000
   21.40444374  217.09199524    0.07000000    0.38000000
   21.40777779  229.56700134    0.07000000    0.38000000
   21.41083336  215.16400146    0.07000000    0.38000000
   21.41416550  221.57499695    0.07000000    0.38000000
   21.41749954  218.52400208    0.07000000    0.38000000
   21.42055511  191.16499329    0.07000000    0.38000000
   21.42638779  191.16499329    0.07000000    0.38000000
   21.43055534  210.11700439    0.07000000    0.38000000
   21.43388748  195.63900757    0.07000000    0.38000000
   21.43722153  196.78300476    0.07000000    0.38000000
   21.44027710  262.22198486    0.07000000    0.38000000
   21.44361115  233.33399963    0.07000000    0.38000000
   21.44666672  214.82600403    0.07000000    0.38000000
   21.45000076  225.87800598    0.07000000    0.38000000
   21.45333481  207.31900024    0.07000000    0.38000000
   21.45639038  224.01199341    0.07000000    0.38000000
   21.45972252  209.52999878    0.07000000    0.38000000
   21.46305656  216.62399292    0.07000000    0.38000000
   21.46333504  164.21600342    0.07000000    0.38000000
   21.46944427  164.21600342    0.07000000    0.38000000
   21.47361183  186.34100342    0.07000000    0.38000000
   21.47666740  165.12600708    0.07000000    0.38000000
   21.48000145  188.41900635    0.07000000    0.38000000
   21.48305511  187.49899292    0.07000000    0.38000000
   21.48638916  163.47300720    0.07000000    0.38000000
   21.48972321  194.03100586    0.07000000    0.38000000
   21.49277878  194.71200562    0.07000000    0.38000000
   21.49611092  195.74899292    0.07000000    0.38000000
   21.49666786  159.81399536    0.07000000    0.38000000
   21.49972153  151.11199951    0.07000000    0.38000000
   21.50305557  169.05900574    0.07000000    0.38000000
   21.50611115  166.90400696    0.07000000    0.38000000
   21.51222229  166.90400696    0.07000000    0.38000000
   21.51638794  180.41700745    0.07000000    0.38000000
   21.51944351  164.96600342    0.07000000    0.38000000
   21.52277756  171.49699402    0.07000000    0.38000000
   21.52611160  197.73500061    0.07000000    0.38000000
   21.52916718  200.24299622    0.07000000    0.38000000
   21.53000069  198.43600464    0.07000000    0.38000000
   21.53277779  179.30099487    0.07000000    0.38000000
   21.53610992  193.74800110    0.07000000    0.38000000
   21.53916550  173.56799316    0.07000000    0.38000000
   21.54249954  149.79400635    0.07000000    0.38000000
   21.54583359  146.79200745    0.07000000    0.38000000
   21.54888916  164.58399963    0.07000000    0.38000000
   21.55499840  164.58399963    0.07000000    0.38000000
   21.55916595  193.01100159    0.07000000    0.38000000
   21.56250000  200.97599792    0.07000000    0.38000000
   21.56361008  232.45599365    0.07000000    0.38000000
   21.56583214  269.32901001    0.07000000    0.38000000
   21.56916809  229.84100342    0.07000000    0.38000000
   21.57222366  224.21200562    0.07000000    0.38000000
   21.57555580  246.65699768    0.07000000    0.38000000
   21.57888985  175.87699890    0.07000000    0.38000000
   21.58194542  196.71099854    0.07000000    0.38000000
   21.58527756   -1.00000000    0.07000000    0.38000000
   21.58861160   -1.00000000    0.07000000    0.38000000
   21.59166718   -1.00000000    0.07000000    0.38000000
   21.59777832   -1.00000000    0.07000000    0.38000000
   21.60194397  184.57000732    0.07000000    0.38000000
   21.60527802  279.41299438    0.07000000    0.38000000
   21.60833359   -1.00000000    0.07000000    0.38000000
   21.61166763   -1.00000000    0.07000000    0.38000000
   21.61499977   -1.00000000    0.07000000    0.38000000
   21.61805534   -1.00000000    0.07000000    0.38000000
   21.62138939   -1.00000000    0.07000000    0.38000000
   21.62472153   -1.00000000    0.07000000    0.38000000
   21.62777710   -1.00000000    0.07000000    0.38000000
   21.63138962   -1.00000000    0.07000000    0.38000000
   21.63472176   -1.00000000    0.07000000    0.38000000
   21.64472198   -1.00000000    0.07000000    0.38000000
   21.64805603   -1.00000000    0.07000000    0.38000000
   21.65111160   -1.00000000    0.07000000    0.38000000
   21.65444374   -1.00000000    0.07000000    0.38000000
   21.65777779   -1.00000000    0.07000000    0.38000000
   21.66083336   -1.00000000    0.07000000    0.38000000
   21.66444397   -1.00000000    0.07000000    0.38000000
   21.66777802   -1.00000000    0.07000000    0.38000000
   21.67083359   -1.00000000    0.07000000    0.38000000
   21.67416573  361.95999146    0.07000000    0.38000000
   21.67611122  315.09500122    0.07000000    0.38000000
   21.67749977  202.24899292    0.07000000    0.38000000
   21.67749977   -1.00000000    0.07000000    0.38000000
   21.67749977   -1.00000000    0.07000000    0.38000000
   21.67777634   -1.00000000    0.07000000    0.38000000
   21.67777634   -1.00000000    0.07000000    0.38000000
   21.67805481   -1.00000000    0.07000000    0.38000000
   21.67805481   -1.00000000    0.07000000    0.38000000
   21.67805481   -1.00000000    0.07000000    0.38000000
   21.67833328   -1.00000000    0.07000000    0.38000000
   21.67833328  361.95999146    0.07000000    0.38000000
   21.67944336  210.81900024    0.07000000    0.38000000
   21.68277740  205.27900696    0.07000000    0.38000000
   21.68583298  260.71499634    0.07000000    0.38000000
   21.68916512  246.13499451    0.07000000    0.38000000
   21.69249916  219.10099792    0.07000000    0.38000000
   21.69833183  219.10099792    0.07000000    0.38000000
   21.70250130  191.10899353    0.07000000    0.38000000
   21.70555687  185.77499390    0.07000000    0.38000000
   21.70888901  186.11799622    0.07000000    0.38000000
   21.71138954  162.98899841    0.07000000    0.38000000
   21.71250153  167.59700012    0.07000000    0.38000000
   21.71583366  155.34800720    0.07000000    0.38000000
   21.71916771  165.80700684    0.07000000    0.38000000
   21.72222328  189.35699463    0.07000000    0.38000000
   21.72555542  161.10600281    0.07000000    0.38000000
   21.72888947  170.90600586    0.07000000    0.38000000
   21.73194504  177.78199768    0.07000000    0.38000000
   21.73527718  165.89900208    0.07000000    0.38000000
   21.74111176  165.89900208    0.07000000    0.38000000
   21.74527740  170.97200012    0.07000000    0.38000000
   21.74833298  157.34399414    0.07000000    0.38000000
   21.75166702  177.37300110    0.07000000    0.38000000
   21.75499916  148.10000610    0.07000000    0.38000000
   21.75805473  168.00999451    0.07000000    0.38000000
   21.76138878  164.51100159    0.07000000    0.38000000
   21.76472282  154.16700745    0.07000000    0.38000000
   21.76777840  130.67399597    0.07000000    0.38000000
   21.77111053  147.17100525    0.07000000    0.38000000
   21.77416611  156.32200623    0.07000000    0.38000000
   21.77750015  144.75900269    0.07000000    0.38000000
   21.77805519  151.15499878    0.07000000    0.38000000
   21.78388786  151.15499878    0.07000000    0.38000000
   21.78805542  163.98399353    0.07000000    0.38000000
   21.79138756  147.65400696    0.07000000    0.38000000
   21.79444313  160.76199341    0.07000000    0.38000000
   21.79777718  161.36999512    0.07000000    0.38000000
   21.80111122  158.73100281    0.07000000    0.38000000
   21.80416679  175.60800171    0.07000000    0.38000000
   21.80749893  188.79600525    0.07000000    0.38000000
   21.81055450  164.58000183    0.07000000    0.38000000
   21.81138802  172.64500427    0.07000000    0.38000000
   21.81444359  159.30999756    0.07000000    0.38000000
   21.81750107  156.59399414    0.07000000    0.38000000
   21.82083511  162.30499268    0.07000000    0.38000000
   21.82666779  162.30499268    0.07000000    0.38000000
   21.83083344  145.98300171    0.07000000    0.38000000
   21.83416748  167.84800720    0.07000000    0.38000000
   21.83750153  165.68400574    0.07000000    0.38000000
   21.84055710  168.91900635    0.07000000    0.38000000
   21.84388924  163.68200684    0.07000000    0.38000000
   21.84472275  142.50900269    0.07000000    0.38000000
   21.84749985  169.80900574    0.07000000    0.38000000
   21.85055542  153.00000000    0.07000000    0.38000000
   21.85388947  160.61799622    0.07000000    0.38000000
   21.85722351  164.67999268    0.07000000    0.38000000
   21.86027908  152.24299622    0.07000000    0.38000000
   21.86361122  184.37399292    0.07000000    0.38000000
   21.86972237  184.37399292    0.07000000    0.38000000
   21.87388992  147.52900696    0.07000000    0.38000000
   21.87694550  171.48800659    0.07000000    0.38000000
   21.87805557  175.56300354    0.07000000    0.38000000
   21.88083267  146.49000549    0.07000000    0.38000000
   21.88388824  154.17300415    0.07000000    0.38000000
   21.88722229  169.41299438    0.07000000    0.38000000
   21.89055634  125.74099731    0.07000000    0.38000000
   21.89361191  159.49499512    0.07000000    0.38000000
   21.89694405  173.95599365    0.07000000    0.38000000
   21.89999962  154.19900513    0.07000000    0.38000000
   21.90333366  166.72000122    0.07000000    0.38000000
   21.90666580  172.23199463    0.07000000    0.38000000
   21.91250038  172.23199463    0.07000000    0.38000000
   21.91666603  144.44000244    0.07000000    0.38000000
   21.91972160  155.39599609    0.07000000    0.38000000
   21.92305565  165.45500183    0.07000000    0.38000000
   21.92638779  168.02299500    0.07000000    0.38000000
   21.92944336  156.97700500    0.07000000    0.38000000
   21.93277740  155.75000000    0.07000000    0.38000000
   21.93610954  182.72300720    0.07000000    0.38000000
   21.93916512  167.07600403    0.07000000    0.38000000
   21.94249916  167.53799438    0.07000000    0.38000000
   21.94472122  169.08599854    0.07000000    0.38000000
   21.94610977  165.94500732    0.07000000    0.38000000
   21.94916534  150.55000305    0.07000000    0.38000000
   21.95527840  150.55000305    0.07000000    0.38000000
   21.95944595  157.00900269    0.07000000    0.38000000
   21.96277809  170.53700256    0.07000000    0.38000000
   21.96583366  150.72799683    0.07000000    0.38000000
   21.96916771  167.35400391    0.07000000    0.38000000
   21.97249985  155.96800232    0.07000000    0.38000000
   21.97555542  175.83099365    0.07000000    0.38000000
   21.97805595  175.63299561    0.07000000    0.38000000
   21.97944450  179.99299622    0.07000000    0.38000000
   21.98250008  161.06100464    0.07000000    0.38000000
   21.98583412  174.29400635    0.07000000    0.38000000
   21.98916626  171.46800232    0.07000000    0.38000000
   21.99222183  178.95300293    0.07000000    0.38000000
   21.99805641  178.95300293    0.07000000    0.38000000
   22.00305557  167.08799744    0.07000000    0.38000000
   22.00638962  161.76300049    0.07000000    0.38000000
   22.00944519  186.52499390    0.07000000    0.38000000
   22.01138878  176.71800232    0.07000000    0.38000000
   22.01333427  181.60699463    0.07000000    0.38000000
   22.01638794  165.11999512    0.07000000    0.38000000
   22.02000046  184.99499512    0.07000000    0.38000000
   22.02416611  180.94299316    0.07000000    0.38000000
   22.02750015  173.56399536    0.07000000    0.38000000
   22.03083229  174.18600464    0.07000000    0.38000000
   22.03583336  180.31100464    0.07000000    0.38000000
   22.04249954  180.31100464    0.07000000    0.38000000
   22.04777718  163.62100220    0.07000000    0.38000000
   22.05111122  170.57499695    0.07000000    0.38000000
   22.05499840  180.36500549    0.07000000    0.38000000
   22.05861092  181.00300598    0.07000000    0.38000000
   22.06222153  181.80499268    0.07000000    0.38000000
   22.06583214  172.28399658    0.07000000    0.38000000
   22.06972313  181.46299744    0.07000000    0.38000000
   22.07305717  175.36399841    0.07000000    0.38000000
   22.07611275  171.19599915    0.07000000    0.38000000
   22.07805634  168.35800171    0.07000000    0.38000000
   22.08000183  176.45700073    0.07000000    0.38000000
   22.08416748  176.45700073    0.07000000    0.38000000
   22.08833313  177.44999695    0.07000000    0.38000000
   22.09138870  173.16900635    0.07000000    0.38000000
   22.09472275  172.74000549    0.07000000    0.38000000
   22.09805679  179.64500427    0.07000000    0.38000000
   22.10138893  166.43699646    0.07000000    0.38000000
   22.10472298  165.42199707    0.07000000    0.38000000
   22.10805511  209.95500183    0.07000000    0.38000000
   22.11111069  178.61999512    0.07000000    0.38000000
   22.11166763  164.70799255    0.07000000    0.38000000
   22.11527824  176.10800171    0.07000000    0.38000000
   22.11888885  177.25700378    0.07000000    0.38000000
   22.12249947  188.88299561    0.07000000    0.38000000
   22.12722206  188.88299561    0.07000000    0.38000000
   22.13138962  201.03700256    0.07000000    0.38000000
   22.13472176  169.61000061    0.07000000    0.38000000
   22.13777733  169.01699829    0.07000000    0.38000000
   22.14111137  172.00199890    0.07000000    0.38000000
   22.14444351  177.91900635    0.07000000    0.38000000
   22.14500046  175.01300049    0.07000000    0.38000000
   22.14805603  176.44000244    0.07000000    0.38000000
   22.15138817  171.45899963    0.07000000    0.38000000
   22.15527725  191.05900574    0.07000000    0.38000000
   22.15888786  151.12800598    0.07000000    0.38000000
   22.16277695  191.60099792    0.07000000    0.38000000
   22.17000008  191.60099792    0.07000000    0.38000000
   22.17416573  166.42799377    0.07000000    0.38000000
   22.17749977  179.52099609    0.07000000    0.38000000
   22.17888832  168.21299744    0.07000000    0.38000000
   22.18111038  176.41000366    0.07000000    0.38000000
   22.20166779  222.55000305    0.07000000    0.38000000
   22.20499992  192.70599365    0.07000000    0.38000000
   22.20833397  221.22900391    0.07000000    0.38000000
   22.21305656  221.22900391    0.07000000    0.38000000
   22.21722221  183.92100525    0.07000000    0.38000000
   22.22055626  184.08999634    0.07000000    0.38000000
   22.22389030  184.34399414    0.07000000    0.38000000
   22.22722244  161.35400391    0.07000000    0.38000000
   22.23055649  175.12800598    0.07000000    0.38000000
   22.23388863  170.80999756    0.07000000    0.38000000
   22.23722267  176.46400452    0.07000000    0.38000000
   22.24055672  219.75999451    0.07000000    0.38000000
   22.24388885  334.35101318    0.07000000    0.38000000
   22.24611092  395.82501221    0.07000000    0.38000000
   22.24722290  488.64801025    0.07000000    0.38000000
   22.24861145  464.22299194    0.07000000    0.38000000
   22.25000000  473.61700439    0.07000000    0.38000000
   22.25055504  176.46400452    0.07000000    0.38000000
   22.25083351  219.75999451    0.07000000    0.38000000
   22.25083351  334.35101318    0.07000000    0.38000000
   22.25111198  183.92100525    0.07000000    0.38000000
   22.25138855  184.08999634    0.07000000    0.38000000
   22.25138855  184.34399414    0.07000000    0.38000000
   22.25166702  161.35400391    0.07000000    0.38000000
   22.25166702  175.12800598    0.07000000    0.38000000
