    HOUR (UT)   FLARE FACTOR    SKY TESTER    SUN TESTER
   11.43972206   -1.00000000   -1.00000000   -1.00000000
   11.48194408   78.21350098    1.38000000    2.64000010
   11.48527813   81.58219910    1.38000000    2.64000010
   11.48833370   76.19059753    1.36000001    2.64000010
   11.49166679   74.68740082    1.34000003    2.64000010
   11.49499989   79.04360199    1.34000003    2.64000010
   11.49805546   88.95210266    1.34000003    2.64000010
   11.50222206   88.95210266    1.33000004    2.64000010
   11.50638866   84.77369690    1.33000004    2.66000009
   11.50972176   78.77770233    1.30999994    2.66000009
   11.51277733   83.24669647    1.30999994    2.66000009
   11.51527786   76.92949677    1.30999994    2.66000009
   11.51666641   83.64839935    1.30999994    2.66000009
   11.51972198   81.95549774    1.30999994    2.66000009
   11.52305508   82.83730316    1.33000004    2.66000009
   11.52611065   84.85700226    1.30999994    2.66000009
   11.52944374   84.63099670    1.30999994    2.66000009
   11.53277779   86.06970215    1.28999996    2.66000009
   11.53583336   86.67350006    1.28999996    2.66000009
   11.53916740   90.01309967    1.28999996    2.66000009
   11.54500008   90.01309967    1.28999996    2.66000009
   11.54916668   78.76319885    1.26999998    2.66000009
   11.55249977   80.78230286    1.25000000    2.66000009
   11.55555534   86.11630249    1.25000000    2.66000009
   11.55888939   83.30069733    1.23000002    2.66000009
   11.56222248   94.36360168    1.25000000    2.67000008
   11.56583309   85.74479675    1.23000002    2.66000009
   11.56888866   85.39009857    1.23000002    2.67000008
   11.57222176   80.88159943    1.23000002    2.67000008
   11.57527733   87.61419678    1.23000002    2.67000008
   11.57861137   87.11769867    1.23000002    2.67000008
   11.58194447   90.79959869    1.23000002    2.67000008
   11.58249950   83.42449951    1.23000002    2.66000009
   11.58805561   83.42449951    1.25000000    2.67000008
   11.59194374   80.70059967    1.25000000    2.67000008
   11.59527779   77.42649841    1.25000000    2.66000009
   11.59861088   78.00340271    1.25000000    2.66000009
   11.60166740   81.12650299    1.26999998    2.66000009
   11.60500050   86.31600189    1.26999998    2.67000008
   11.60833359   83.17659760    1.26999998    2.67000008
   11.61138916   91.46089935    1.26999998    2.67000008
   11.61472225   82.45220184    1.26999998    2.67000008
   11.61583328   84.15540314    1.26999998    2.69000006
   11.61833382   83.20570374    1.26999998    2.67000008
   11.62166691   83.99199677    1.26999998    2.67000008
   11.62472248   86.92610168    1.26999998    2.67000008
   11.63083363   86.92610168    1.26999998    2.67000008
   11.63500023   83.87879944    1.26999998    2.67000008
   11.63805580   81.14080048    1.26999998    2.67000008
   11.64138889   84.22879791    1.25000000    2.69000006
   11.64472198   84.20200348    1.25000000    2.67000008
   11.64777756   84.31759644    1.25000000    2.69000006
   11.64916611   81.78230286    1.25000000    2.69000006
   11.65138817   89.02860260    1.25000000    2.67000008
   11.65472221   88.84439850    1.25000000    2.67000008
   11.65777779   81.56079865    1.25000000    2.67000008
   11.66111088   86.29139709    1.23000002    2.69000006
   11.66444397   82.76560211    1.23000002    2.67000008
   11.66750050   83.65529633    1.23000002    2.67000008
   11.67361164   83.65529633    1.21000004    2.69000006
   11.67777824   81.03669739    1.21000004    2.69000006
   11.68111134   85.20259857    1.19000006    2.69000006
   11.68249989   86.81369781    1.19000006    2.69000006
   11.68444443   83.84320068    1.21000004    2.69000006
   11.68777752   87.46589661    1.19000006    2.71000004
   11.69083309   84.85260010    1.21000004    2.69000006
   11.69416714   83.93199921    1.21000004    2.69000006
   11.69750023   80.19819641    1.21000004    2.69000006
   11.70055580   86.59210205    1.21000004    2.69000006
   11.70388889   85.55639648    1.21000004    2.69000006
   11.70722198   88.19059753    1.21000004    2.69000006
   11.71027756   82.29720306    1.21000004    2.69000006
   11.71638870   82.29720306    1.23000002    2.69000006
   11.72055531   88.40660095    1.23000002    2.71000004
   11.72388840   82.68589783    1.23000002    2.69000006
   11.72722149   87.95649719    1.25000000    2.69000006
   11.73027706   82.32420349    1.25000000    2.69000006
   11.73361111   80.95249939    1.25000000    2.69000006
   11.73666668   78.27860260    1.26999998    2.69000006
   11.74000072   83.98500061    1.26999998    2.71000004
   11.74333382   79.84850311    1.26999998    2.69000006
   11.74638939   80.44730377    1.26999998    2.69000006
   11.74916649   81.59609985    1.28999996    2.71000004
   11.75000000   87.95980072    1.28999996    2.69000006
   11.75333309   82.95300293    1.28999996    2.69000006
   11.75944424   82.95300293    1.28999996    2.71000004
   11.76361084   83.22260284    1.28999996    2.69000006
   11.76666641   81.10579681    1.28999996    2.71000004
   11.76999950   83.17269897    1.26999998    2.71000004
   11.77305508   82.41110229    1.26999998    2.71000004
   11.77638817   80.42559814    1.28999996    2.71000004
   11.77972221   82.43129730    1.26999998    2.71000004
   11.78249931   85.30470276    1.26999998    2.71000004
   11.78333378   88.31970215    1.26999998    2.71000004
   11.78666687   80.84079742    1.26999998    2.71000004
   11.79000092   83.73519897    1.26999998    2.71000004
   11.79333401   85.40550232    1.26999998    2.71000004
   11.79638958   83.44029999    1.26999998    2.71000004
   11.80222225   83.44029999    1.26999998    2.71000004
   11.80638885   81.97399902    1.26999998    2.71000004
   11.80944443   81.62500000    1.25000000    2.71000004
   11.81277752   82.68630219    1.25000000    2.71000004
   11.81583309   76.56580353    1.25000000    2.71000004
   11.81638908   78.39959717    1.25000000    2.71000004
   11.81972218   81.58560181    1.25000000    2.71000004
   11.82305527   83.42610168    1.23000002    2.71000004
   11.82611084   76.88490295    1.23000002    2.71000004
   11.82944393   82.07579803    1.23000002    2.71000004
   11.83249950   81.30699921    1.21000004    2.73000002
   11.83583260   86.13970184    1.21000004    2.73000002
   11.83916664   81.09439850    1.21000004    2.73000002
   11.84499931   81.09439850    1.19000006    2.73000002
   11.84916592   83.88300323    1.19000006    2.73000002
   11.85249996   82.22019958    1.19000006    2.73000002
   11.85555553   83.74310303    1.19000006    2.73000002
   11.85888958   83.15979767    1.19000006    2.71000004
   11.86194515   81.69640350    1.19000006    2.73000002
   11.86527824   81.16329956    1.19000006    2.71000004
   11.86861134   81.73030090    1.19000006    2.73000002
   11.87166691   82.03029633    1.19000006    2.73000002
   11.87500000   83.16699982    1.19000006    2.73000002
   11.87833309   81.73459625    1.19000006    2.73000002
   11.88138866   81.47949982    1.21000004    2.73000002
   11.88249969   86.79930115    1.19000006    2.73000002
   11.88777733   86.79930115    1.19000006    2.73000002
   11.89194393   84.84999847    1.21000004    2.73000002
   11.89527798   83.91339874    1.21000004    2.73000002
   11.89833355   80.06790161    1.21000004    2.73000002
   11.90166664   87.00499725    1.21000004    2.73000002
   11.90499973   83.30400085    1.21000004    2.73000002
   11.90805531   84.61569977    1.21000004    2.73000002
   11.91138840   83.98609924    1.21000004    2.73000002
   11.91472149   83.42030334    1.19000006    2.73000002
   11.91583252   84.26399994    1.21000004    2.73000002
   11.91805553   82.12079620    1.21000004    2.73000002
   11.92138958   83.18779755    1.21000004    2.73000002
   11.92472267   83.09770203    1.23000002    2.75000000
   11.93083382   83.09770203    1.23000002    2.75000000
   11.93472195   83.19470215    1.19000006    2.75000000
   11.93805599   81.46859741    1.19000006    2.75000000
   11.94138908   77.47280121    1.16999996    2.75000000
   11.94444466   80.66950226    1.16999996    2.75000000
   11.94777775   79.06829834    1.14999998    2.73000002
   11.94916630   78.82920074    1.14999998    2.73000002
   11.95138836   80.80829620    1.14999998    2.73000002
   11.95472240   78.37960052    1.14999998    2.75000000
   11.95805550   79.05919647    1.14999998    2.75000000
   11.96111107   78.46720123    1.13000000    2.75000000
   11.96444416   83.05400085    1.13000000    2.73000002
   11.96749973   80.12409973    1.14999998    2.75000000
   11.97361088   80.12409973    1.16999996    2.75000000
   11.97777748   82.99579620    1.16999996    2.75000000
   11.98111057   89.51029968    1.16999996    2.75000000
   11.98249912   88.12169647    1.16999996    2.75000000
   11.98444462   83.91359711    1.14999998    2.75000000
   11.98777771   88.15869904    1.14999998    2.75000000
   11.99111176   82.12139893    1.13000000    2.75000000
   11.99416733   80.67250061    1.14999998    2.75000000
   11.99750042   84.68489838    1.13000000    2.75000000
   12.00055599   78.96209717    1.14999998    2.75000000
   12.00388908   85.59950256    1.14999998    2.75000000
   12.00722218   85.65779877    1.14999998    2.75000000
   12.01027775   83.91639709    1.14999998    2.75000000
   12.01638889   83.91639709    1.16999996    2.75000000
   12.02055550   81.66680145    1.19000006    2.75000000
   12.02388859   87.74089813    1.19000006    2.75000000
   12.02694416   88.07129669    1.19000006    2.75000000
   12.03027725   83.08229828    1.19000006    2.75000000
   12.03333378   81.86170197    1.19000006    2.75000000
   12.03666687   85.35220337    1.19000006    2.75000000
   12.04000092   86.38249969    1.16999996    2.75000000
   12.04305553   83.81590271    1.16999996    2.75000000
   12.04638958   81.77860260    1.16999996    2.75000000
   12.04916668   88.94580078    1.16999996    2.75000000
   12.05000019   83.79250336    1.16999996    2.75000000
   12.05333328   79.35739899    1.16999996    2.75000000
   12.05916691   79.35739899    1.14999998    2.76999998
   12.06333351   81.02629852    1.13000000    2.76999998
   12.06666660   86.92250061    1.11000001    2.75000000
   12.06972218   84.80180359    1.11000001    2.76999998
   12.07305527   85.93630219    1.07000005    2.76999998
   12.07638836   80.47489929    1.07000005    2.76999998
   12.07944393   82.95020294    1.05999994    2.76999998
   12.08249950   84.76080322    1.05999994    2.76999998
   12.08305550   78.44039917    1.05999994    2.76999998
   12.08638859   80.16660309    1.05999994    2.75000000
   12.08972168   90.45269775    1.03999996    2.76999998
   12.09277725   84.27449799    1.03999996    2.76999998
   12.09611034   80.76920319    1.03999996    2.76999998
   12.10222244   80.76920319    1.03999996    2.76999998
   12.10611153   88.99210358    1.03999996    2.76999998
   12.10944462   81.09719849    1.03999996    2.76999998
   12.11277771   82.08660126    1.07000005    2.78999996
   12.11583328   81.42910004    1.07000005    2.76999998
   12.11611176   82.32469940    1.07000005    2.76999998
   12.11944485   77.92209625    1.07000005    2.78999996
   12.12277794   81.52279663    1.07000005    2.76999998
   12.12583351   78.46730042    1.07000005    2.76999998
   12.12916660   80.64710236    1.07000005    2.76999998
   12.13249969   85.32659912    1.07000005    2.76999998
   12.13555527   83.29609680    1.07000005    2.76999998
   12.13888836   80.35790253    1.07000005    2.78999996
   12.14499950   80.35790253    1.09000003    2.78999996
   12.14916611   81.92510223    1.09000003    2.78999996
   12.14944458   80.19049835    1.09000003    2.78999996
   12.15277767   81.88629913    1.09000003    2.76999998
   12.15611076   79.90799713    1.11000001    2.76999998
   12.15916634   80.74800110    1.11000001    2.76999998
   12.16249943   80.99259949    1.13000000    2.78999996
   12.16583252   80.52050018    1.13000000    2.76999998
   12.16888905   79.08059692    1.13000000    2.76999998
   12.17222214   81.57710266    1.13000000    2.76999998
   12.17527771   87.18409729    1.13000000    2.78999996
   12.17861176   83.53130341    1.14999998    2.78999996
   12.18194485   79.03320313    1.14999998    2.78999996
   12.18249989   81.83840179    1.14999998    2.78999996
   12.18777752   81.83840179    1.14999998    2.78999996
   12.19194412   81.80539703    1.14999998    2.78999996
   12.19527817   81.25250244    1.14999998    2.78999996
   12.19833374   82.60040283    1.16999996    2.76999998
   12.20166683   82.58560181    1.16999996    2.78999996
   12.20472240   81.29019928    1.16999996    2.78999996
   12.20805550   84.33889771    1.16999996    2.76999998
   12.21138859   82.81719971    1.16999996    2.76999998
   12.21444416   83.32209778    1.16999996    2.78999996
   12.21583271   82.37139893    1.16999996    2.76999998
   12.21833324   80.73999786    1.19000006    2.78999996
   12.22138882   83.45279694    1.16999996    2.78999996
   12.22472191   81.35659790    1.19000006    2.80999994
   12.23055553   81.35659790    1.19000006    2.78999996
   12.23472214   80.33119965    1.19000006    2.80999994
   12.23805618   80.07559967    1.21000004    2.78999996
   12.24111176   84.72380066    1.21000004    2.78999996
   12.24444485   83.94950104    1.21000004    2.78999996
   12.24777794   84.69200134    1.21000004    2.78999996
   12.24916649   84.98529816    1.21000004    2.76999998
   12.25138855   81.10469818    1.19000006    2.78999996
   12.25444412   86.75319672    1.19000006    2.78999996
   12.25777817   79.39440155    1.19000006    2.78999996
   12.26083374   84.33699799    1.19000006    2.78999996
   12.26416683   82.13130188    1.23000002    2.78999996
   12.26749992   80.32980347    1.21000004    2.78999996
   12.27361107   80.32980347    1.23000002    2.80999994
   12.27750015   81.77970123    1.25000000    2.80999994
   12.28083324   78.98639679    1.25000000    2.78999996
   12.28249931   81.64309692    1.26999998    2.78999996
   12.28472233   84.00599670    1.26999998    2.78999996
   12.28777790   82.55860138    1.26999998    2.78999996
   12.29111195   77.52210236    1.25000000    2.78999996
   12.29416752   86.50189972    1.25000000    2.78999996
   12.29750061   80.00119781    1.25000000    2.78999996
   12.30083370   80.93969727    1.25000000    2.80999994
   12.30388927   80.64499664    1.25000000    2.78999996
   12.30722237   83.70590210    1.25000000    2.80999994
   12.31055546   82.92130280    1.25000000    2.78999996
   12.31638908   82.92130280    1.25000000    2.78999996
   12.32055569   85.36750031    1.25000000    2.78999996
   12.32361126   85.47850037    1.25000000    2.80999994
   12.32694435   84.69129944    1.25000000    2.78999996
   12.33027744   81.90380096    1.25000000    2.78999996
   12.33333302   81.10399628    1.25000000    2.80999994
   12.33666611   79.98799896    1.25000000    2.78999996
   12.33972168   80.05280304    1.26999998    2.80999994
   12.34305477   77.00949860    1.25000000    2.78999996
   12.34638882   77.85050201    1.25000000    2.78999996
   12.34916592   80.23770142    1.25000000    2.80999994
   12.35000038   75.76660156    1.25000000    2.80999994
   12.35305595   77.49890137    1.25000000    2.80999994
   12.35916710   77.49890137    1.25000000    2.78999996
   12.36333370   80.09059906    1.25000000    2.80999994
   12.36666679   81.94129944    1.26999998    2.80999994
   12.36972237   85.86109924    1.26999998    2.78999996
   12.37305546   85.53119659    1.28999996    2.78999996
   12.37611103   87.45099640    1.28999996    2.78999996
   12.37944412   84.74990082    1.28999996    2.78999996
   12.38249969   82.03589630    1.28999996    2.78999996
   12.38333321   86.82360077    1.30999994    2.78999996
   12.38638878   81.57890320    1.30999994    2.78999996
   12.38972187   82.29830170    1.30999994    2.78999996
   12.39305496   92.12509918    1.33000004    2.78999996
   12.39611053   84.44920349    1.33000004    2.78999996
   12.40194416   84.44920349    1.34000003    2.78999996
   12.40611076   88.18399811    1.34000003    2.78999996
   12.40944386   91.06829834    1.36000001    2.78999996
   12.41249943   96.81169891    1.34000003    2.78999996
   12.41583252   82.19049835    1.34000003    2.80999994
   12.41638851   90.63490295    1.34000003    2.80999994
   12.41944504   91.21099854    1.34000003    2.80999994
   12.42277813   95.92849731    1.33000004    2.78999996
   12.42583370   86.17839813    1.30999994    2.80999994
   12.42916679   85.44319916    1.30999994    2.80999994
   12.43249989   93.72959900    1.30999994    2.80999994
   12.43555546   87.81469727    1.33000004    2.80999994
   12.43888855   81.48000336    1.33000004    2.82999992
   12.44499969   81.48000336    1.33000004    2.80999994
   12.44888878   82.21450043    1.30999994    2.80999994
   12.44944477   77.67269897    1.30999994    2.80999994
   12.45277786   86.33999634    1.30999994    2.80999994
   12.45611095   79.98229980    1.30999994    2.80999994
   12.45916653   80.91799927    1.33000004    2.80999994
   12.46249962   86.80110168    1.33000004    2.80999994
   12.46583271   85.13400269    1.30999994    2.80999994
   12.46888828   82.47409821    1.33000004    2.78999996
   12.47222137   82.86930084    1.34000003    2.80999994
   12.47555542   81.77690125    1.34000003    2.82999992
   12.47861099   89.33830261    1.34000003    2.80999994
   12.48194408   82.44180298    1.33000004    2.80999994
   12.49916649   81.37999725    1.28999996    2.82999992
   12.50333309   81.37999725    1.28999996    2.82999992
   12.50749969   88.12069702    1.28999996    2.82999992
   12.51083374   76.77519989    1.28999996    2.82999992
   12.51388931   90.32810211    1.30999994    2.82999992
   12.51722240   79.18340302    1.28999996    2.82999992
   12.52027798   79.11849976    1.28999996    2.80999994
   12.52361107   84.78040314    1.26999998    2.80999994
   12.52694416   82.66680145    1.26999998    2.82999992
   12.52999973   83.47139740    1.25000000    2.82999992
   12.53249931   86.73040009    1.25000000    2.82999992
   12.53361130   87.62640381    1.25000000    2.82999992
   12.53694534   83.31719971    1.23000002    2.82999992
   12.54027843   83.09179688    1.23000002    2.82999992
   12.54611111   83.09179688    1.25000000    2.82999992
   12.55027771   81.83219910    1.26999998    2.82999992
   12.55361176   90.59169769    1.26999998    2.82999992
   12.55666733   83.00189972    1.28999996    2.82999992
   12.56000042   81.35900116    1.28999996    2.82999992
   12.56333351   83.25939941    1.28999996    2.82999992
   12.56583309   80.51930237    1.28999996    2.82999992
   12.56666660   75.27880096    1.28999996    2.82999992
   12.56999969   81.80780029    1.28999996    2.82999992
   12.57333374   83.69909668    1.30999994    2.82999992
   12.57638836   78.08869934    1.28999996    2.82999992
   12.57972240   82.71610260    1.28999996    2.82999992
   12.58277798   83.03959656    1.28999996    2.82999992
   12.58888817   83.03959656    1.28999996    2.82999992
   12.59305477   90.32599640    1.28999996    2.82999992
   12.59638882   86.77400208    1.26999998    2.82999992
   12.59916592   78.79650116    1.26999998    2.80999994
   12.60000038   79.56289673    1.26999998    2.82999992
   12.60333347   77.17350006    1.26999998    2.82999992
   12.60666752   78.23789978    1.28999996    2.82999992
   12.60972214   83.17259979    1.28999996    2.80999994
   12.61305618   86.67259979    1.33000004    2.82999992
   12.61611176   87.97570038    1.36000001    2.82999992
   12.61944485   82.20610046    1.36000001    2.82999992
   12.62277794   86.53839874    1.38000000    2.82999992
   12.62583351   79.85610199    1.38000000    2.82999992
   12.63194466   79.85610199    1.34000003    2.82999992
   12.63611126   76.43769836    1.34000003    2.82999992
   12.63916683   80.74140167    1.33000004    2.82999992
   12.64249992   80.52860260    1.28999996    2.82999992
   12.64555550   78.19450378    1.28999996    2.82999992
   12.64888859   82.10189819    1.25000000    2.84999990
   12.65222168   81.38739777    1.25000000    2.84999990
   12.65527725   82.36209869    1.26999998    2.84999990
   12.65861034   80.71520233    1.25000000    2.84999990
   12.66194439   84.76560211    1.25000000    2.84999990
   12.66499996   85.36840057    1.26999998    2.84999990
   12.66694450   84.63179779    1.26999998    2.82999992
   12.66888905   86.97440338    1.28999996    2.82999992
   12.67472267   86.97440338    1.28999996    2.84999990
   12.67888927   88.12439728    1.33000004    2.84999990
   12.68194485   85.13549805    1.33000004    2.82999992
   12.68527794   87.90540314    1.30999994    2.82999992
   12.68861103   82.36199951    1.33000004    2.84999990
   12.69166660   85.79019928    1.34000003    2.84999990
   12.69499969   87.73950195    1.36000001    2.84999990
   12.69833374   80.44149780    1.36000001    2.82999992
   12.70027733   88.05989838    1.38000000    2.84999990
   12.70194435   80.40190125    1.38000000    2.82999992
   12.70499992   77.02529907    1.38000000    2.84999990
   12.70833302   89.92900085    1.38000000    2.84999990
   12.71138859   88.45539856    1.36000001    2.84999990
   12.71749973   88.45539856    1.39999998    2.84999990
   12.72166634   81.51799774    1.39999998    2.84999990
   12.72499943   86.03330231    1.48000002    2.84999990
   12.72805500   78.63780212    1.48000002    2.84999990
   12.73138809   87.00540161    1.48000002    2.84999990
   12.73388958   88.48539734    1.48000002    2.84999990
   12.73500061   83.40260315    1.48000002    2.86999989
   12.73833370   87.25650024    1.50000000    2.82999992
   12.74166679   81.22129822    1.50000000    2.84999990
   12.74472237   82.09439850    1.50000000    2.82999992
   12.74805546   81.63690186    1.44000006    2.84999990
   12.75138855   79.37390137    1.44000006    2.84999990
   12.75444412   78.09770203    1.44000006    2.84999990
   12.76027775   78.09770203    1.55999994    2.84999990
   12.76444435   84.96430206    1.55999994    2.82999992
   12.76722240   85.21399689    1.55999994    2.84999990
   12.76805496   83.97350311    1.55999994    2.84999990
   12.77138901   84.27570343    1.55999994    2.84999990
   12.77472210   85.48709869    1.55999994    2.84999990
   12.77777767   85.14469910    1.55999994    2.82999992
   12.78111076   83.12460327    1.58000004    2.84999990
   12.78416729   88.21440125    1.61000001    2.84999990
   12.78750038   83.40370178    1.63000000    2.84999990
   12.79083347   90.84799957    1.64999998    2.84999990
   12.79388905   90.68119812    1.64999998    2.84999990
   12.79722309   82.40319824    1.63000000    2.84999990
   12.80333328   82.40319824    1.66999996    2.84999990
   12.80749989   85.72730255    1.66999996    2.84999990
   12.81055546   86.85710144    1.71000004    2.84999990
   12.81388950   84.13490295    1.71000004    2.84999990
   12.81694412   85.94619751    1.64999998    2.84999990
   12.82027817   84.24459839    1.66999996    2.84999990
   12.82361126   86.00399780    1.64999998    2.84999990
   12.82694435   84.81420135    1.64999998    2.84999990
   12.82999992   87.79650116    1.66999996    2.84999990
   12.83333302   80.63549805    1.69000006    2.84999990
   12.83416653   87.98860168    1.69000006    2.84999990
   12.83694458   82.37779999    1.73000002    2.84999990
   12.84000015   87.76699829    1.75000000    2.84999990
   12.84611034   87.76699829    1.78999996    2.84999990
   12.85027790   79.39769745    1.78999996    2.82999992
   12.85333347   90.15149689    1.78999996    2.84999990
   12.85666752   91.96420288    1.76999998    2.84999990
   12.86000061   91.51509857    1.69000006    2.84999990
   12.86305618   89.04219818    1.58000004    2.86999989
   12.86638927   80.20629883    1.58000004    2.86999989
   12.86750031   85.60849762    1.51999998    2.84999990
   12.86999989   87.85790253    1.51999998    2.84999990
   12.87305546   91.63030243    1.48000002    2.84999990
   12.87638855   82.96549988    1.48000002    2.86999989
   12.87944412   86.74120331    1.41999996    2.84999990
   12.88277817   89.79119873    1.30999994    2.84999990
   12.88888836   89.79119873    1.30999994    2.86999989
   12.89305496   82.23490143    1.34000003    2.86999989
   12.89638901   85.00920105    1.33000004    2.84999990
   12.89944458   87.77500153    1.34000003    2.86999989
   12.90111065   86.97779846    1.34000003    2.86999989
   12.90333271   84.42209625    1.34000003    2.86999989
   12.90638828   89.19499969    1.38000000    2.84999990
   12.90972137   88.83260345    1.38000000    2.86999989
   12.91277695   80.44670105    1.38000000    2.84999990
   12.91611099   79.81649780    1.41999996    2.86999989
   12.91944504   85.35009766    1.41999996    2.84999990
   12.92250061   78.83529663    1.48000002    2.86999989
   12.92583370   83.52290344    1.53999996    2.84999990
   12.93194485   83.52290344    1.53999996    2.86999989
   12.93583298   93.05229950    1.55999994    2.86999989
   12.93916702   89.86710358    1.50000000    2.86999989
   12.94250011   87.61650085    1.50000000    2.86999989
   12.94555569   88.17089844    1.50000000    2.84999990
   12.94888878   85.14450073    1.58000004    2.86999989
   12.95222187   84.91269684    1.64999998    2.86999989
   12.95527744   85.36380005    1.63000000    2.86999989
   12.95861053   81.13259888    1.89999998    2.84999990
   12.96166611   84.35959625    1.91999996    2.86999989
   12.96500015   81.90280151    1.91999996    2.86999989
   12.96777725   94.85320282    1.89999998    2.84999990
   12.96861076   84.21720123    1.89999998    2.84999990
   12.97472191   84.21720123    1.78999996    2.86999989
   12.97888851   81.61229706    1.69000006    2.84999990
   12.98194408   81.88150024    1.69000006    2.86999989
   12.98527813   83.04000092    1.69000006    2.86999989
   12.98833370   80.76210022    1.66999996    2.86999989
   12.99166679   80.87120056    1.69000006    2.84999990
   12.99499989   82.03970337    1.78999996    2.86999989
   12.99805546   82.50289917    1.73000002    2.86999989
   13.00111103   80.24310303    1.71000004    2.84999990
   13.00166702   80.30480194    1.71000004    2.84999990
   13.00527763   81.17089844    1.69000006    2.84999990
   13.00833321   77.76950073    1.69000006    2.84999990
   13.01166630   82.84220123    1.69000006    2.86999989
   13.01749992   82.84220123    1.66999996    2.84999990
   13.02166653   85.16729736    1.60000002    2.86999989
   13.02472210   80.42209625    1.60000002    2.86999989
   13.02805519   82.49160004    1.60000002    2.86999989
   13.03138828   79.56549835    1.60000002    2.86999989
   13.03444481   84.96579742    1.63000000    2.86999989
   13.03472233   80.83200073    1.63000000    2.86999989
   13.03805637   82.96779633    1.63000000    2.86999989
   13.04138947   82.54219818    1.63000000    2.86999989
   13.04444504   81.84709930    1.64999998    2.86999989
   13.04777813   87.44200134    1.69000006    2.84999990
   13.05111122   87.59459686    1.69000006    2.86999989
   13.05416679   89.75559998    1.69000006    2.86999989
   13.06027794   89.75559998    1.69000006    2.86999989
   13.06444454   84.25029755    1.73000002    2.86999989
   13.06777763   86.19000244    1.73000002    2.86999989
   13.06805515   88.20120239    1.73000002    2.86999989
   13.07138920   81.84500122    1.69000006    2.86999989
   13.07472229   87.13569641    1.61000001    2.86999989
   13.07777786   79.88200378    1.58000004    2.86999989
   13.08111095   79.14890289    1.55999994    2.86999989
   13.08444405   77.22660065    1.55999994    2.86999989
   13.08749962   79.42330170    1.53999996    2.86999989
   13.09083271   80.58789825    1.53999996    2.84999990
   13.09388828   77.98619843    1.53999996    2.86999989
   13.09722233   82.30889893    1.53999996    2.86999989
   13.10305595   82.30889893    1.58000004    2.86999989
   13.10722256   81.54759979    1.61000001    2.86999989
   13.11055565   79.45639801    1.60000002    2.86999989
   13.11388969   83.64550018    1.60000002    2.86999989
   13.11694431   85.04399872    1.60000002    2.84999990
   13.12027836   83.87110138    1.61000001    2.86999989
   13.12333393   83.81430054    1.63000000    2.86999989
   13.12666702   89.00219727    1.63000000    2.84999990
   13.13000011   91.48590088    1.63000000    2.86999989
   13.13305569   81.89299774    1.63000000    2.86999989
   13.13444424   82.08180237    1.55999994    2.86999989
   13.13694477   81.17620087    1.55999994    2.86999989
   13.14000034   83.28559875    1.46000004    2.86999989
   13.14611053   83.28559875    1.39999998    2.86999989
   13.15027714   80.76560211    1.41999996    2.86999989
   13.15333271   80.85050201    1.51999998    2.86999989
   13.15666676   79.59729767    1.51999998    2.86999989
   13.15999985   83.20490265    1.53999996    2.86999989
   13.16305542   83.29299927    1.58000004    2.84999990
   13.16638851   84.39700317    1.58000004    2.86999989
   13.16777802   87.56719971    1.58000004    2.86999989
   13.17000008   83.91919708    1.55999994    2.84999990
   13.17305565   79.04570007    1.55999994    2.86999989
   13.17638874   80.84359741    1.50000000    2.86999989
   13.17944431   80.38130188    1.48000002    2.89000010
   13.18277836   82.96949768    1.44000006    2.86999989
   13.18888855   82.96949768    1.41999996    2.86999989
   13.19305515   85.86599731    1.38000000    2.86999989
   13.19611073   83.74459839    1.38000000    2.89000010
   13.19944477   91.81549835    1.39999998    2.86999989
   13.20138836   89.94770050    1.39999998    2.86999989
   13.20305538   89.54720306    1.48000002    2.86999989
   13.20638847   87.53900146    1.48000002    2.86999989
   13.20972157   84.97200012    1.41999996    2.86999989
   13.21277714   86.57779694    1.38000000    2.86999989
   13.21611118   88.00810242    1.36000001    2.86999989
   13.21916580   85.20189667    1.36000001    2.89000010
   13.22249985   87.79290009    1.73000002    2.89000010
   13.22583294   85.02179718    1.75000000    2.86999989
   13.23166656   85.02179718    1.75000000    2.86999989
   13.23583317   89.75990295    1.85000002    2.89000010
   13.23916721   81.64949799    1.75000000    2.86999989
   13.24222279   82.93750000    1.73000002    2.86999989
   13.24555588   85.46620178    1.73000002    2.86999989
   13.24888897   81.68730164    1.71000004    2.86999989
   13.25194454   82.48750305    1.71000004    2.86999989
   13.25527763   85.04010010    1.69000006    2.86999989
   13.25833321   85.48190308    1.69000006    2.86999989
   13.26166630   86.37989807    1.60000002    2.86999989
   13.26500034   88.09269714    1.55999994    2.89000010
   13.26805496   88.74520111    1.50000000    2.89000010
   13.26833344   85.47480011    1.50000000    2.89000010
   13.27444458   85.47480011    1.51999998    2.89000010
   13.27861118   84.87339783    1.51999998    2.89000010
   13.28194427   87.87570190    1.60000002    2.89000010
   13.28527832   83.66539764    1.58000004    2.91000009
   13.28833389   93.98809814    1.58000004    2.91000009
   13.29166698   83.20420074    1.58000004    2.89000010
   13.29472256   82.26940155    1.63000000    2.89000010
   13.29805565   91.83570099    1.61000001    2.89000010
   13.30138874   86.18740082    1.63000000    2.89000010
   13.30166721   90.11090088    1.61000001    2.89000010
   13.30500031   86.39099884    1.61000001    2.89000010
   13.30833340   88.00650024    1.61000001    2.89000010
   13.31138897   85.91629791    1.61000001    2.89000010
   13.31750011   85.91629791    1.58000004    2.89000010
   13.32166672   89.12509918    1.50000000    2.89000010
   13.32472229   87.00330353    1.46000004    2.89000010
   13.32805538   88.61959839    1.44000006    2.89000010
   13.33111095   83.90859985    1.41999996    2.89000010
   13.33444405   90.46549988    1.41999996    2.89000010
   13.33500004   85.97760010    1.41999996    2.89000010
   13.33833313   86.70870209    1.41999996    2.89000010
   13.34138870   88.84230042    1.44000006    2.89000010
   13.34472179   98.89540100    1.41999996    2.89000010
   13.34805489   91.74749756    1.41999996    2.89000010
   13.35111141   93.11779785    1.41999996    2.89000010
   13.35444450   90.67759705    1.44000006    2.89000010
   13.36027813   90.67759705    1.48000002    2.86999989
   13.36444473   85.68099976    1.48000002    2.89000010
   13.36750031   91.43840027    1.46000004    2.89000010
   13.36833382   90.28150177    1.46000004    2.89000010
   13.37138939   94.73320007    1.48000002    2.89000010
   13.37444496   89.75769806    1.48000002    2.89000010
   13.37777805   87.83519745    1.48000002    2.89000010
   13.38111115   86.40249634    1.48000002    2.91000009
   13.38416672   81.97979736    1.46000004    2.89000010
   13.38749981   85.41889954    1.48000002    2.91000009
   13.39055538   79.96710205    1.48000002    2.91000009
   13.39388847   86.00849915    1.44000006    2.91000009
   13.39722252   87.61530304    1.44000006    2.91000009
   13.40305519   87.61530304    1.63000000    2.89000010
   13.40722179   88.34359741    1.66999996    2.91000009
   13.41055489   88.90249634    1.66999996    2.91000009
   13.41361046   95.33589935    1.69000006    2.91000009
   13.41694450   86.96240234    1.88000000    2.89000010
   13.42027855   90.47290039    1.96000004    2.89000010
   13.42333412   95.15820313    1.98000002    2.89000010
   13.42666721   97.14340210    2.13000011    2.89000010
   13.42972279   90.91750336    2.15000010    2.89000010
   13.43305588   94.82050323    2.15000010    2.89000010
   13.43500042   89.55999756    2.15000010    2.86999989
   13.43694496   87.06739807    2.15000010    2.89000010
   13.44000053   88.46099854    2.15000010    2.86999989
   13.44583321   88.46099854    2.09999990    2.89000010
   13.44999981   91.76049805    2.03999996    2.89000010
   13.45333290   92.97239685    2.03999996    2.91000009
   13.45666695   87.52500153    2.03999996    2.89000010
   13.45972157   92.53289795    2.00000000    2.91000009
   13.46305561   88.36229706    1.96000004    2.89000010
   13.46611118   86.74659729    1.89999998    2.89000010
   13.46833324   92.78440094    1.88000000    2.91000009
   13.46999931   87.96410370    1.88000000    2.91000009
   13.47305489   89.03730011    1.86000001    2.91000009
   13.47638798   88.00229645    1.86000001    2.89000010
   13.47972202   91.21849823    1.86000001    2.89000010
   13.48277760   98.05400085    1.85000002    2.91000009
   13.48888874   98.05400085    1.85000002    2.91000009
   13.49305534   95.57550049    1.85000002    2.89000010
   13.49611092   88.99890137    1.88000000    2.93000007
   13.49944496   90.69869995    1.89999998    2.89000010
   13.51638889   88.23059845    1.96000004    2.89000010
   13.51944447   92.20339966    1.89999998    2.91000009
   13.52277756   82.70809937    1.76999998    2.89000010
   13.52583313   91.51860046    1.75000000    2.91000009
   13.53194427   91.51860046    1.75000000    2.89000010
   13.53611183   89.60720062    1.75000000    2.91000009
   13.53916740   90.90440369    1.73000002    2.89000010
   13.54250050   95.62660217    1.73000002    2.91000009
   13.54583359   91.52919769    1.73000002    2.91000009
   13.54888916   91.24849701    1.75000000    2.91000009
   13.54972267   86.50550079    1.75000000    2.91000009
   13.55277824   94.08329773    1.78999996    2.91000009
   13.55611134   80.87930298    1.85000002    2.91000009
   13.55916691   88.67140198    1.88000000    2.91000009
   13.56250000   90.38939667    1.88000000    2.91000009
   13.56583309   89.75170135    1.85000002    2.91000009
   13.56888866   83.17960358    1.78999996    2.93000007
   13.57472229   83.17960358    1.85000002    2.91000009
   13.57888889   86.78600311    1.88000000    2.89000010
   13.58222198   90.66249847    1.86000001    2.91000009
   13.58305550   90.38999939    1.86000001    2.91000009
   13.58583260   83.58270264    1.88000000    2.91000009
   13.58888817   82.57469940    1.88000000    2.91000009
   13.59222221   86.91609955    1.86000001    2.91000009
   13.59555531   87.83730316    2.01999998    2.91000009
   13.59861088   94.12539673    2.03999996    2.91000009
   13.60194492   87.12069702    2.11999989    2.91000009
   13.60527802   88.59169769    2.11999989    2.91000009
   13.60833359   84.49870300    2.05999994    2.89000010
   13.61166668   90.43229675    2.03999996    2.89000010
   13.61750031   90.43229675    2.01999998    2.91000009
   13.62166691   86.14910126    2.01999998    2.91000009
   13.62500000   89.40280151    1.94000006    2.91000009
   13.62805557   97.39479828    1.88000000    2.89000010
   13.63138866   85.33350372    1.86000001    2.91000009
   13.63472176   92.20899963    1.69000006    2.91000009
   13.63777733   93.05950165    1.66999996    2.91000009
   13.64111137   89.05259705    1.66999996    2.91000009
   13.64416695   88.06469727    1.66999996    2.91000009
   13.64750004   84.87169647    1.63000000    2.91000009
   13.64972210   80.73670197    1.63000000    2.91000009
   13.65111065   82.45670319    1.63000000    2.91000009
   13.65416622   91.68740082    1.64999998    2.91000009
   13.66055489   91.68740082    1.64999998    2.93000007
   13.66444397   87.51270294    1.69000006    2.91000009
   13.66777802   87.47309875    1.91999996    2.91000009
   13.67111111   89.61660004    1.94000006    2.91000009
   13.67416668   87.05650330    2.00000000    2.89000010
   13.67750072   91.41840363    1.96000004    2.91000009
   13.68083382   87.68370056    2.05999994    2.89000010
   13.68305588   88.03140259    2.55999994    2.89000010
   13.68444443   88.59049988    2.78999996    2.89000010
   13.68750000   95.30840302    3.07999992    2.89000010
   13.69083309   90.02239990    3.25000000    2.89000010
   13.69416714   90.49109650    3.43000007    2.89000010
   13.69722271   89.93240356    3.50000000    2.89000010
   13.70333290   89.93240356    3.41000009    2.91000009
   13.70749950   84.05729675    3.36999989    2.89000010
   13.71055508   89.69779968    3.39000010    2.89000010
   13.71388912   83.20559692    3.21000004    2.89000010
   13.71638870   85.81490326    3.23000002    2.89000010
   13.71749973   81.52950287    3.23000002    2.89000010
   13.72055531   89.80960083    3.26999998    2.91000009
   13.72388840   91.11119843    3.09999990    2.91000009
   13.72722149   97.64589691    2.94000006    2.91000009
   13.73027706   93.68190002    2.76999998    2.93000007
   13.73361111   89.48919678    2.69000006    2.91000009
   13.73666668   92.41590118    2.76999998    2.91000009
   13.74000072   90.57430267    2.89000010    2.89000010
   13.74611092   90.57430267    2.93000007    2.91000009
   13.75027752   86.66139984    3.00000000    2.91000009
   13.75333309   91.57289886    3.07999992    2.91000009
   13.75666714   91.37100220    3.18000007    2.93000007
   13.76000023   92.18039703    3.07999992    2.91000009
   13.76305580   88.25720215    2.93000007    2.91000009
   13.76638889   90.01270294    2.82999992    2.93000007
   13.76972198   85.79360199    2.82999992    2.91000009
   13.77277756   85.99340057    2.67000008    2.91000009
   13.77611065   91.62000275    2.51999998    2.91000009
   13.77916622   93.81300354    2.50000000    2.93000007
   13.78249931   89.00589752    2.30999994    2.93000007
   13.78305531   89.52580261    2.30999994    2.93000007
   13.78888893   89.52580261    2.15000010    2.93000007
   13.79305553   85.10379791    2.11999989    2.91000009
   13.79638958   89.29489899    2.03999996    2.93000007
   13.79944515   91.15149689    1.88000000    2.93000007
   13.80277824   91.80719757    1.80999994    2.93000007
   13.80611134   94.80020142    1.69000006    2.93000007
   13.80916691   90.04029846    1.60000002    2.91000009
   13.81250000   90.02580261    1.41999996    2.93000007
   13.81555557   87.70210266    1.33000004    2.93000007
   13.81638908   90.95580292    1.33000004    2.93000007
   13.81944466   89.42130280    1.30999994    2.93000007
   13.82250023   90.38919830    1.25000000    2.93000007
   13.82583332   87.91970062    1.25000000    2.94000006
   13.83166695   87.91970062    1.25000000    2.93000007
   13.83583260   85.83550262    1.25000000    2.94000006
   13.83916664   86.42680359    1.28999996    2.94000006
   13.84249973   88.56929779    1.55999994    2.93000007
   13.84555531   92.07499695    1.60000002    2.91000009
   13.84888840   92.21459961    1.60000002    2.93000007
   13.84972191   89.55059814    1.60000002    2.93000007
   13.85249996   90.63970184    1.78999996    2.93000007
   13.85555553   90.35189819    1.89999998    2.93000007
   13.85888958   90.04959869    1.88000000    2.93000007
   13.86222267   85.90959930    1.86000001    2.93000007
   13.86527824   86.20939636    1.86000001    2.93000007
   13.86861134   90.21410370    1.86000001    2.93000007
   13.87472248   90.21410370    1.88000000    2.93000007
   13.87888908   92.63169861    1.83000004    2.93000007
   13.88194466   88.94740295    1.73000002    2.93000007
   13.88305569   91.33779907    1.73000002    2.93000007
   13.88555527   93.57540131    1.64999998    2.91000009
   13.88861084   86.53690338    1.55999994    2.93000007
   13.89194393   90.11730194    1.55999994    2.93000007
   13.89527798   85.84390259    1.44000006    2.93000007
   13.89833355   83.30909729    1.38000000    2.93000007
   13.90166664   88.23570251    1.30999994    2.94000006
   13.90499973   88.83899689    1.28999996    2.94000006
   13.90805531   87.72660065    1.28999996    2.93000007
   13.91138840   87.87830353    1.28999996    2.93000007
   13.91750050   87.87830353    1.14999998    2.93000007
   13.92166710   85.90889740    1.14999998    2.93000007
   13.92500019   95.02420044    1.13000000    2.93000007
   13.92805576   85.40579987    1.14999998    2.93000007
   13.93138885   91.30680084    1.11000001    2.94000006
   13.93444443   87.60980225    1.11000001    2.93000007
   13.93777752   88.33640289    1.05999994    2.94000006
   13.94111156   85.49240112    1.07000005    2.94000006
   13.94416714   87.99130249    1.07000005    2.93000007
   13.94750023   89.22450256    1.07000005    2.94000006
   13.94972229   90.81939697    1.07000005    2.94000006
   13.95111084   89.62789917    1.07000005    2.94000006
   13.95444393   86.90049744    1.09000003    2.93000007
   13.96027756   86.90049744    1.11000001    2.94000006
   13.96444416   87.07599640    1.11000001    2.93000007
   13.96777725   93.56369781    1.11000001    2.93000007
   13.97083282   96.59030151    1.09000003    2.93000007
   13.97416592   94.33719635    1.09000003    2.94000006
   13.97749996   95.71219635    1.13000000    2.94000006
   13.98055553   88.67500305    1.11000001    2.94000006
   13.98305511   87.96869659    1.16999996    2.94000006
   13.98416710   88.94460297    1.16999996    2.94000006
   13.98722267   90.47550201    1.16999996    2.94000006
   13.99055576   83.74949646    1.16999996    2.94000006
   13.99388885   87.02890015    1.25000000    2.94000006
   13.99694443   91.14589691    1.23000002    2.94000006
   14.00305557   91.14589691    1.19000006    2.94000006
   14.00722218   82.58869934    1.19000006    2.94000006
   14.01055527   83.25890350    1.19000006    2.94000006
   14.01361084   89.38359833    1.19000006    2.94000006
   14.01638889   87.33159637    1.16999996    2.93000007
   14.01749992   80.91549683    1.16999996    2.93000007
   14.02055550   92.27660370    1.16999996    2.93000007
   14.02388859   88.20659637    1.16999996    2.94000006
   14.02722168   85.31929779    1.16999996    2.93000007
   14.03027725   83.85279846    1.16999996    2.93000007
   14.03361130   94.89399719    1.11000001    2.94000006
   14.03694534   91.73280334    1.13000000    2.94000006
   14.04000092   89.47270203    1.13000000    2.94000006
   14.04611111   89.47270203    1.19000006    2.94000006
   14.05000019   88.73580170    1.25000000    2.94000006
   14.05333328   84.46630096    1.36000001    2.93000007
   14.05666733   84.37319946    1.39999998    2.93000007
   14.05972195   92.06120300    1.39999998    2.93000007
   14.06305599   87.01540375    1.39999998    2.93000007
   14.06638908   91.93489838    1.44000006    2.93000007
   14.06944466   87.30310059    1.50000000    2.94000006
   14.07277775   84.35559845    1.50000000    2.94000006
   14.07611084   83.59780121    1.51999998    2.94000006
   14.07916641   91.33740234    1.48000002    2.94000006
   14.08249950   89.99510193    1.39999998    2.94000006
   14.08305550   88.30979919    1.39999998    2.94000006
   14.08888817   88.30979919    1.41999996    2.93000007
   14.09305477   88.07949829    1.41999996    2.93000007
   14.09611034   96.75650024    1.39999998    2.94000006
   14.09944439   97.86530304    1.39999998    2.94000006
   14.10277843   89.69819641    1.39999998    2.94000006
   14.10611153   84.61150360    1.36000001    2.94000006
   14.10916710   86.65390015    1.30999994    2.94000006
   14.11250019   99.43340302    1.34000003    2.94000006
   14.11555576   89.51020050    1.38000000    2.94000006
   14.11638927   90.23619843    1.38000000    2.94000006
   14.11944485   88.89119720    1.41999996    2.93000007
   14.12277794   87.82250214    1.46000004    2.93000007
   14.12583351   87.72270203    1.50000000    2.94000006
   14.13166714   87.72270203    1.51999998    2.94000006
   14.13583279   84.80519867    1.46000004    2.93000007
   14.13916683   78.64830017    1.46000004    2.93000007
   14.14222240   83.98349762    1.46000004    2.94000006
   14.14555550   87.69110107    1.41999996    2.94000006
   14.14888859   85.89389801    1.36000001    2.94000006
   14.14972210   83.06839752    1.34000003    2.94000006
   14.15249920   84.79029846    1.26999998    2.94000006
   14.15583324   88.27549744    1.25000000    2.94000006
   14.15888882   88.59960175    1.25000000    2.94000006
   14.16222191   88.87940216    1.14999998    2.96000004
   14.16527748   89.41369629    1.14999998    2.94000006
   14.16861153   96.92900085    1.14999998    2.96000004
   14.17444515   96.92900085    1.14999998    2.94000006
   14.17861176   89.16539764    1.13000000    2.96000004
   14.18194485   94.13770294    1.13000000    2.96000004
   14.18305588   93.89669800    1.13000000    2.96000004
   14.18555546   89.03959656    1.13000000    2.94000006
   14.18888855   91.19390106    1.14999998    2.94000006
   14.19194412   98.35790253    1.13000000    2.96000004
   14.19527817   81.30169678    1.16999996    2.94000006
   14.19861126   88.49009705    1.14999998    2.94000006
   14.20166683   95.39600372    1.25000000    2.96000004
   14.20499992   91.83489990    1.25000000    2.96000004
   14.20833302   93.91149902    1.30999994    2.94000006
   14.21138859   87.87370300    1.33000004    2.96000004
   14.21749973   87.87370300    1.30999994    2.94000006
   14.22166634   88.46739960    1.33000004    2.96000004
   14.22472191   86.69599915    1.30999994    2.94000006
   14.22805500   95.98840332    1.30999994    2.94000006
   14.23111057   91.29769897    1.30999994    2.96000004
   14.23444462   90.05829620    1.30999994    2.96000004
   14.23777771   87.04360199    1.30999994    2.94000006
   14.24083328   92.79360199    1.33000004    2.94000006
   14.24416733   90.95290375    1.36000001    2.96000004
   14.24722290   91.44069672    1.38000000    2.94000006
   14.24972248   88.69920349    1.38000000    2.96000004
   14.25111103   89.97480011    1.39999998    2.96000004
   14.25444412   87.73069763    1.39999998    2.94000006
   14.26027775   87.73069763    1.38000000    2.94000006
   14.26444435   91.70059967    1.38000000    2.94000006
   14.26749992   90.06390381    1.38000000    2.94000006
   14.27083302   93.32160187    1.38000000    2.94000006
   14.27416611   90.81169891    1.36000001    2.96000004
   14.27722168   88.60839844    1.33000004    2.96000004
   14.28055573   89.24069977    1.26999998    2.94000006
   14.28305531   86.64659882    1.26999998    2.94000006
   14.28416729   90.18260193    1.26999998    2.94000006
   14.28750038   85.15730286    1.25000000    2.96000004
   14.29055595   87.38899994    1.25000000    2.96000004
   14.29388905   80.19270325    1.25000000    2.96000004
   14.29722309   85.95800018    1.25000000    2.96000004
   14.30305576   85.95800018    1.26999998    2.96000004
   14.30722237   80.30860138    1.28999996    2.96000004
   14.31055546   87.85569763    1.50000000    2.96000004
   14.31361103   83.57170105    1.51999998    2.94000006
   14.31638908   85.99839783    1.53999996    2.96000004
   14.31722260   88.14459991    1.53999996    2.96000004
   14.32055569   82.79740143    1.63000000    2.94000006
   14.32361126   86.96640015    1.83000004    2.94000006
   14.32694435   91.76439667    1.78999996    2.94000006
   14.32999992   90.97370148    1.58000004    2.94000006
   14.33333302   93.22039795    1.44000006    2.94000006
   14.33666611   92.15760040    1.36000001    2.94000006
   14.33972168   89.80699921    1.36000001    2.96000004
   14.34583282   89.80699921    1.38000000    2.94000006
   14.35000038   83.78749847    1.30999994    2.96000004
   14.35333347   91.99970245    1.26999998    2.94000006
   14.35638905   93.31349945    1.25000000    2.94000006
   14.35972214   89.88849640    1.21000004    2.96000004
   14.36305618   92.23500061    1.23000002    2.96000004
   14.36611176   85.69159698    1.21000004    2.96000004
   14.36944485   86.66249847    1.19000006    2.94000006
   14.37277794   94.04170227    1.07000005    2.96000004
   14.37583351   93.02839661    1.07000005    2.96000004
   14.37916660   87.96959686    1.07000005    2.96000004
   14.38222218   86.34049988    1.07000005    2.96000004
   14.38305569   88.38880157    1.07000005    2.96000004
   14.38888836   88.38880157    1.09000003    2.98000002
   14.39305496   80.70510101    1.21000004    2.96000004
   14.39611053   81.50789642    1.21000004    2.96000004
   14.39944458   84.78700256    1.21000004    2.96000004
   14.40249920   88.79850006    1.26999998    2.96000004
   14.40583324   91.66999817    1.26999998    2.96000004
   14.40916634   77.49880219    1.26999998    2.94000006
   14.41222191   81.87079620    1.13000000    2.96000004
   14.41555500   86.93789673    1.11000001    2.96000004
   14.41638851   84.91210175    1.11000001    2.96000004
   14.41916656   83.01879883    1.11000001    2.96000004
   14.42250061   89.99130249    1.11000001    2.96000004
   14.42555618   92.32800293    0.89999998    2.96000004
   14.43166733   92.32800293    0.70999998    2.96000004
   14.43583298   85.67079926    0.75000000    2.98000002
   14.43888855   84.79900360    0.70999998    2.98000002
   14.44222260   86.61940002    0.75000000    2.98000002
   14.44555569   81.88880157    0.75000000    2.98000002
   14.44861126   88.46450043    0.69000000    2.98000002
   14.44972229   88.07839966    0.69000000    2.98000002
   14.45222187   82.35289764    0.67000002    2.98000002
   14.45555496   85.41100311    0.69000000    2.96000004
   14.45861053   84.49330139    0.69000000    2.96000004
   14.46194458   89.31670380    0.70999998    2.96000004
   14.46500015   91.94570160    0.73000002    2.98000002
   14.46833324   94.31749725    0.75000000    2.98000002
   14.47444439   94.31749725    0.73000002    2.98000002
   14.47861099   84.21029663    0.70999998    2.98000002
   14.48194408   91.53099823    0.73000002    2.98000002
   14.48305511   87.73909760    0.73000002    2.98000002
   14.48555565   87.15720367    0.79000002    2.98000002
   14.48888874   85.92169952    0.79000002    2.98000002
   14.49194431   86.09770203    0.94000000    2.98000002
   14.49527836   85.42079926    1.00000000    2.98000002
   14.49861145   83.88430023    0.86000001    3.00000000
   14.50166702   84.01450348    0.86000001    2.96000004
   14.50500011   85.40859985    0.88000000    2.98000002
   14.50805569   85.16719818    0.88000000    2.98000002
   14.51138878   87.04879761    0.94000000    2.98000002
   14.53361130   82.01039886    1.05999994    2.98000002
   14.53416729   85.53639984    1.05999994    2.98000002
   14.53722286   82.93450165    1.13000000    2.96000004
   14.54055595   88.33360291    1.13000000    2.96000004
   14.54388905   83.59839630    1.14999998    2.96000004
   14.54694462   86.77929688    1.16999996    2.96000004
   14.54972267   84.40290070    1.14999998    2.96000004
   14.55055618   90.96790314    1.14999998    2.96000004
   14.55388927   89.81089783    1.13000000    2.96000004
   14.56027794   89.81089783    1.01999998    2.96000004
   14.56444454   86.45050049    0.95999998    2.96000004
   14.67055607   -1.00000000   -1.00000000   -1.00000000
   14.85833359   -1.00000000   -1.00000000   -1.00000000
   14.97527695   -1.00000000   -1.00000000   -1.00000000
   15.00388908   82.34190369    2.71000004    2.96000004
   15.00722218   89.09519958    2.82999992    2.96000004
   15.01027775   88.07659912    2.55999994    2.96000004
   15.01361084   88.48960114    2.44000006    2.96000004
   15.01666641   81.51419830    2.34999990    2.96000004
   15.01999950   80.18219757    2.23000002    2.96000004
   15.02416611   80.18219757    2.13000011    2.96000004
   15.02833271   79.29869843    1.89999998    2.94000006
   15.03138828   75.95929718    1.85000002    2.94000006
   15.03472233   90.22979736    1.76999998    2.94000006
   15.03722286   84.62429810    1.75000000    2.94000006
   15.03833389   81.31539917    1.76999998    2.94000006
   15.04166698   80.88899994    1.76999998    2.96000004
   15.04472256   85.35340118    1.76999998    2.96000004
   15.04805565   82.71230316    1.76999998    2.96000004
   15.05138874   81.37830353    1.69000006    2.96000004
   15.05444431   92.50430298    1.73000002    2.98000002
   15.05805588   92.41940308    1.58000004    2.98000002
   15.06111145   92.75389862    1.48000002    2.96000004
   15.06694412   92.75389862    1.64999998    2.96000004
   15.07111073   83.32769775    1.64999998    2.96000004
   15.07444477   97.43979645    1.63000000    2.96000004
   15.07750034   81.57859802    1.61000001    2.96000004
   15.08083344   94.06099701    1.60000002    2.96000004
   15.08416653   93.51699829    1.58000004    2.98000002
   15.08722210   93.60489655    1.64999998    2.96000004
   15.09055519   91.27929688    1.64999998    2.96000004
   15.09388828   91.41889954    1.60000002    2.96000004
   15.09694386   90.63649750    1.51999998    2.98000002
   15.10027790   93.81860352    1.51999998    2.98000002
   15.10361195   85.79979706    1.51999998    2.98000002
   15.10416698   90.91750336    1.51999998    2.98000002
   15.11000061   90.91750336    1.51999998    2.96000004
   15.11388969   84.95220184    1.75000000    2.96000004
   15.11722279   86.80609894    1.75000000    2.98000002
   15.12055588   87.48809814    1.75000000    2.96000004
   15.12361145   92.18240356    1.78999996    2.96000004
   15.12694454   94.26889801    1.98000002    2.98000002
   15.13027763   92.94730377    2.09999990    2.96000004
   15.13333321   89.59570313    2.13000011    2.96000004
   15.13666630   93.49150085    2.46000004    2.96000004
   15.13749981   86.70970154    2.42000008    2.96000004
   15.14027786   87.83730316    2.39000010    2.96000004
   15.14361095   83.62020111    2.19000006    2.96000004
   15.14666653   77.34670258    2.11999989    2.96000004
   15.15277767   77.34670258    1.86000001    2.98000002
   15.15694427   79.21330261    1.78999996    2.96000004
   15.15999985   79.25630188    1.78999996    2.96000004
   15.16333294   79.42079926    1.78999996    2.96000004
   15.16638851   87.15039825    1.80999994    2.96000004
   15.16972256   83.69470215    1.88000000    2.96000004
   15.17083359   87.04309845    1.88000000    2.96000004
   15.17333412   87.24909973    1.75000000    2.96000004
   15.17666721   82.47740173    1.71000004    2.96000004
   15.17972279   80.27739716    1.50000000    2.96000004
   15.18305588   87.29509735    1.26999998    2.98000002
   15.18638897   87.18170166    1.26999998    2.98000002
   15.18944454   98.95020294    1.25000000    2.98000002
   15.19555569   98.95020294    1.60000002    2.98000002
   15.19972229   91.36260223    1.61000001    2.98000002
   15.20277786   86.75749969    1.63000000    2.96000004
   15.20416641   78.38760376    1.63000000    2.96000004
   15.20638847   84.72810364    1.94000006    2.98000002
   15.20972157   85.37180328    2.44000006    2.96000004
   15.21277714   76.49530029    3.48000002    2.96000004
   15.21611118   82.21330261    2.05999994    2.96000004
   15.21944427   76.82420349    1.86000001    2.98000002
   15.22249985   85.95839691    1.63000000    2.96000004
   15.22583294   78.96980286    1.60000002    2.96000004
   15.22916603   80.72280121    1.51999998    2.98000002
   15.23222160   79.56670380    1.46000004    2.98000002
   15.23833370   79.56670380    1.50000000    2.98000002
   15.24250031   94.07900238    1.71000004    2.96000004
   15.24583340   81.04190063    1.78999996    2.96000004
   15.24888897   87.41259766    1.88000000    2.96000004
   15.25222206   85.78209686    1.86000001    2.96000004
   15.25555515   80.26020050    1.83000004    2.96000004
   15.25861073   78.60019684    1.80999994    2.96000004
   15.26194477   74.51409912    1.80999994    2.96000004
   15.26500034   80.41290283    1.78999996    2.96000004
   15.26833344   76.23629761    1.78999996    2.96000004
   15.27083302   79.29940033    1.66999996    2.96000004
   15.27194405   81.20320129    1.66999996    2.96000004
   15.27527714   82.69129944    1.64999998    2.98000002
   15.28138828   82.69129944    1.51999998    2.98000002
   15.28527832   86.85800171    1.53999996    2.96000004
   15.28861141   82.10649872    1.64999998    2.96000004
   15.29194450   83.33000183    1.64999998    2.96000004
   15.29500008   85.55699921    1.66999996    2.96000004
   15.29833412   81.71459961    1.51999998    2.96000004
   15.30138874   87.67459869    1.51999998    2.98000002
   15.30416679   84.71890259    1.50000000    2.96000004
   15.30500031   89.05729675    1.50000000    2.96000004
   15.30833340   86.03209686    1.39999998    2.98000002
   15.31166649   87.14520264    1.51999998    2.96000004
   15.31472206   85.55650330    1.60000002    2.96000004
   15.31805515   87.97589874    1.55999994    2.96000004
   15.32416630   87.97589874    1.51999998    2.96000004
   15.32833290   88.94360352    1.48000002    2.96000004
   15.33138847   86.67639923    1.48000002    2.96000004
   15.33472157   87.90219879    1.48000002    2.96000004
   15.33749962   83.63880157    1.48000002    2.96000004
   15.33833313   79.92379761    1.48000002    2.96000004
   15.34166622   82.13469696    1.44000006    2.98000002
   15.34472179   81.93430328    1.44000006    2.96000004
   15.34805489   85.15910339    1.44000006    2.96000004
   15.35138893   83.18329620    1.46000004    2.96000004
   15.35444450   77.90460205    1.48000002    2.96000004
   15.35777855   78.53230286    1.53999996    2.98000002
   15.36111164   80.89810181    1.63000000    2.96000004
   15.36694431   80.89810181    1.60000002    2.96000004
   15.37111092   83.94950104    2.15000010    2.96000004
   15.37416649   77.39119720    2.61999989    2.94000006
   15.37750053   81.87519836    2.89000010    2.94000006
   15.38083363   75.46869659    2.80999994    2.96000004
   15.38388920   81.68659973    2.61999989    2.98000002
   15.38722229   82.84770203    2.75000000    2.96000004
   15.39055538   84.88870239    2.71000004    2.94000006
   15.39361095   82.24530029    2.76999998    2.96000004
   15.39694405   81.84380341    2.51999998    2.96000004
   15.39999962   83.77110291    2.17000008    2.96000004
   15.40333271   82.22149658    2.05999994    2.98000002
   15.40416622   78.54679871    2.05999994    2.98000002
   15.40972137   78.54679871    2.00000000    2.96000004
   15.41388893   82.21410370    1.98000002    2.96000004
   15.41722298   83.00140381    1.96000004    2.96000004
   15.42027855   82.19629669    1.85000002    2.96000004
   15.42361164   86.72699738    1.80999994    2.96000004
   15.42694473   74.26309967    1.80999994    2.96000004
   15.43000031   78.98310089    1.80999994    2.98000002
   15.43333340   82.55570221    1.83000004    2.96000004
   15.43666649   85.49240112    1.83000004    2.96000004
   15.43750000   84.93979645    1.89999998    3.00000000
   15.44000053   78.06050110    1.88000000    2.96000004
   15.44333363   86.54979706    1.91999996    2.96000004
   15.44666672   83.18280029    1.89999998    2.98000002
   15.45249939   83.18280029    1.86000001    2.98000002
   15.45666695   85.00389862    1.80999994    2.98000002
   15.46000004   79.11360168    1.83000004    2.98000002
   15.46333313   84.50450134    1.86000001    2.98000002
   15.46638870   78.29989624    1.91999996    2.98000002
   15.46972179   78.10050201    1.98000002    2.96000004
   15.47083282   85.03929901    1.98000002    2.96000004
   15.47333336   82.19339752    1.83000004    2.98000002
   15.47666645   89.56900024    1.69000006    2.98000002
   15.47999954   94.63629913    2.09999990    2.96000004
   15.48305511   87.00370026    2.26999998    2.98000002
   15.48638916   80.95570374    2.32999992    2.98000002
   15.48944473   85.27980042    2.39000010    2.98000002
   15.49555588   85.27980042    2.39000010    2.96000004
   15.49972248   87.93720245    2.28999996    2.96000004
   15.50277805   91.76020050    2.26999998    2.96000004
   15.50416660   85.08910370    2.25000000    2.98000002
   15.50638866   87.07389832    2.25000000    2.96000004
   15.50972176   83.37740326    2.09999990    2.98000002
   15.51305580   85.62220001    2.05999994    2.98000002
   15.51611137   80.53089905    2.03999996    2.98000002
   15.51944447   82.26409912    2.05999994    2.98000002
   15.52250004   79.84950256    2.15000010    2.98000002
   15.52583313   77.46600342    2.11999989    2.98000002
   15.52916622   86.11209869    2.05999994    2.98000002
   15.53222179   80.15959930    1.96000004    2.98000002
   15.53833389   80.15959930    1.80999994    2.98000002
   15.54250050   79.86070251    1.76999998    2.96000004
   15.54555607   79.24659729    1.76999998    2.98000002
   15.54888916   82.55729675    1.75000000    2.96000004
   15.55222225   88.57460022    1.80999994    2.98000002
   15.55527782   81.61699677    1.66999996    2.98000002
   15.55861092   81.42259979    1.51999998    2.98000002
   15.56194496   80.77880096    1.48000002    2.98000002
   15.56500053   81.92369843    1.48000002    2.98000002
   15.56833363   81.41760254    1.46000004    2.98000002
   15.57083321   81.78040314    1.44000006    2.98000002
   15.57194424   86.43019867    1.36000001    2.98000002
   15.57527733   81.85849762    1.36000001    2.98000002
   15.58111095   81.85849762    1.36000001    2.98000002
   15.58527756   80.01170349    1.28999996    2.98000002
   15.58861065   82.51830292    1.34000003    2.98000002
   15.59166622   85.38150024    1.36000001    2.98000002
   15.59499931   82.94770050    1.36000001    2.98000002
   15.59805489   80.73690033    1.36000001    2.98000002
   15.60138893   77.50170135    1.41999996    2.98000002
   15.60416698   82.46990204    1.41999996    2.98000002
   15.60500050   82.86710358    1.34000003    2.98000002
   15.60833359   83.72440338    1.33000004    2.98000002
   15.61166668   84.52829742    1.33000004    2.98000002
   15.61472225   89.33640289    1.28999996    2.98000002
   15.61805534   81.39739990    1.26999998    2.96000004
   15.62388897   81.39739990    1.33000004    2.96000004
   15.62805557   79.64179993    1.30999994    2.98000002
   15.63138866   78.84980011    1.30999994    2.96000004
   15.63444424   77.99520111    1.41999996    2.98000002
   15.63749981   75.65450287    1.39999998    2.98000002
   15.63805580   77.42610168    1.39999998    2.98000002
   15.64138889   80.85140228    1.38000000    2.96000004
   15.64472198   81.75509644    1.38000000    2.96000004
   15.64777756   81.15789795    1.19000006    2.98000002
   15.65111065   84.46849823    1.16999996    2.98000002
   15.65444374   81.83270264    1.14999998    2.96000004
   15.65749931   82.54530334    1.14999998    2.98000002
   15.66083336   86.39730072    1.14999998    2.98000002
   15.66694450   86.39730072    1.14999998    2.98000002
   15.67083359   83.44660187    1.14999998    2.96000004
   15.67416668   86.34940338    1.16999996    2.98000002
   15.67750072   83.82379913    1.14999998    2.98000002
   15.68055630   89.75800323    1.11000001    2.98000002
   15.68388939   88.85959625    1.14999998    3.00000000
   15.68722248   86.61930084    1.14999998    3.00000000
   15.69027805   76.69740295    1.13000000    2.98000002
   15.69361115   79.63040161    1.16999996    2.98000002
   15.69666672   80.97000122    1.51999998    2.98000002
   15.69999981   81.48269653    1.51999998    3.00000000
   15.70333290   77.58229828    1.50000000    2.98000002
   15.70416641   78.56549835    1.50000000    2.98000002
   15.70972157   78.56549835    1.53999996    2.98000002
   15.71388912   83.42420197    1.75000000    2.98000002
   15.71694374   79.86190033    1.76999998    2.98000002
   15.72027779   80.38610077    1.76999998    2.98000002
   15.72361088   84.95510101    1.83000004    2.98000002
   15.72666645   83.27259827    1.85000002    2.98000002
   15.72999954   82.37460327    1.85000002    2.98000002
   15.73305511   87.21279907    1.85000002    2.96000004
   15.73638916   77.75279999    1.83000004    2.96000004
   15.73750019   79.26170349    1.83000004    2.96000004
   15.74000072   84.25679779    1.73000002    2.98000002
   15.74333382   80.35949707    1.66999996    2.96000004
   15.74666691   77.04119873    1.55999994    2.98000002
   15.75249958   77.04119873    1.41999996    2.98000002
   15.75666714   82.89880371    1.26999998    2.98000002
   15.76000023   82.20639801    1.25000000    2.98000002
   15.76305580   81.15419769    1.23000002    2.98000002
   15.76638889   89.74510193    1.13000000    3.00000000
   15.76972198   86.97190094    1.00000000    3.00000000
   15.77083302   90.29509735    1.01999998    2.98000002
   15.77305508   85.03739929    1.00000000    3.00000000
   15.77638817   83.82119751    1.00000000    3.00000000
   15.77972221   90.21980286    0.98000002    3.00000000
   15.78277779   90.78330231    0.98000002    2.98000002
   15.78611183   77.34709930    0.98000002    3.00000000
   15.78944492   86.13249969    1.00000000    3.00000000
   15.79527855   86.13249969    1.07000005    3.00000000
   15.79944515   79.15160370    1.09000003    2.98000002
   15.80277824   82.48049927    1.07000005    2.98000002
   15.80416679   82.44670105    1.07000005    2.98000002
   15.80611134   73.06790161    1.07000005    3.00000000
   15.80944443   74.56529999    1.05999994    3.00000000
   15.81277752   81.46759796    1.05999994    3.00000000
   15.81583309   85.63980103    1.05999994    3.00000000
   15.81916618   77.53009796    1.01999998    3.00000000
   15.82250023   76.68949890    0.89999998    3.00000000
   15.82555580   79.18489838    0.89999998    3.00000000
   15.82888889   84.59660339    0.88000000    2.98000002
   15.83194447   78.50489807    0.88000000    2.98000002
   15.83833313   78.50489807    0.89999998    3.00000000
   15.84249973   82.78330231    0.89999998    3.00000000
   15.84555531   88.42079926    0.92000002    3.00000000
   15.84888840   85.98739624    0.92000002    3.01999998
   15.85222244   83.94190216    0.92000002    3.01999998
   15.85527802   94.38950348    0.92000002    3.00000000
   15.85861111   85.68750000    0.92000002    3.00000000
   15.86194515   82.17030334    0.92000002    3.00000000
   15.86500072   81.90709686    0.94000000    3.00000000
   15.86833382   80.22830200    0.95999998    3.00000000
   15.87083340   85.53739929    0.95999998    2.98000002
   15.87222195   81.78140259    0.95999998    2.98000002
   15.87527752   81.81759644    0.98000002    2.98000002
   15.88111115   81.81759644    1.01999998    3.00000000
   15.88527775   78.94699860    1.05999994    3.00000000
   15.88833332   81.41089630    1.05999994    3.00000000
   15.89166641   82.58339691    1.07000005    2.98000002
   15.89499950   79.47560120    1.09000003    3.00000000
   15.89805508   75.99669647    1.13000000    3.00000000
   15.90138817   79.59770203    1.16999996    2.98000002
   15.90416622   84.73639679    1.21000004    2.98000002
   15.90527725   80.65840149    1.21000004    2.98000002
   15.90833282   80.71710205    1.23000002    2.98000002
   15.91166592   79.59300232    1.23000002    2.98000002
   15.91499996   81.24160004    1.25000000    2.98000002
   15.91833401   81.45510101    1.25000000    2.98000002
   15.92388916   81.45510101    1.25000000    2.98000002
   15.92805576   79.80110168    1.28999996    2.98000002
   15.93138885   78.24099731    1.26999998    2.98000002
   15.93444443   78.67489624    1.26999998    2.98000002
   15.93750000   82.18450165    1.23000002    2.98000002
   15.93805599   81.00569916    1.23000002    2.98000002
   15.94138908   87.39510345    1.23000002    2.98000002
   15.94472218   79.95919800    1.23000002    2.98000002
   15.94777775   82.56469727    1.19000006    3.00000000
   15.95111084   81.62590027    1.19000006    2.98000002
   15.95444393   78.38639832    1.23000002    2.98000002
   15.95749950   77.70970154    1.23000002    2.98000002
   15.96083355   79.01239777    1.23000002    2.98000002
   15.96666622   79.01239777    1.23000002    2.98000002
   15.97083282   78.94159698    1.21000004    3.00000000
   15.97416592   75.56529999    1.19000006    3.00000000
   15.97749996   84.42199707    1.19000006    3.00000000
   15.98055553   73.61750031    1.19000006    2.98000002
   15.98388958   74.32199860    1.14999998    2.98000002
   15.98694515   78.86579895    1.09000003    3.00000000
   15.99027824   76.99440002    1.11000001    3.00000000
   15.99361134   74.30020142    1.07000005    3.00000000
   15.99666691   77.06970215    1.07000005    3.00000000
   16.00000000   75.81960297    1.05999994    3.00000000
   16.00333405   83.04180145    0.88000000    3.00000000
   16.00416756   78.56999969    0.86000001    3.00000000
   16.02472115   78.56999969    0.83999997    3.00000000
   16.02888870   85.10739899    0.86000001    3.00000000
   16.03222275   83.63120270    0.86000001    3.00000000
   16.03555489   81.09629822    0.88000000    3.00000000
   16.03750038   85.79589844    0.89999998    3.00000000
   16.03916550   82.93740082    0.92000002    3.00000000
   16.04222107   81.04029846    0.94000000    3.00000000
   16.04555511   81.71050262    0.98000002    2.98000002
   16.04861069   80.09210205    1.00000000    3.00000000
   16.05194283   75.23329926    1.03999996    2.98000002
   16.05527687   81.96620178    1.07000005    2.98000002
   16.05833244   78.19239807    1.09000003    2.98000002
   16.06166649   75.04550171    1.09000003    2.98000002
   16.06750107   75.04550171    1.09000003    3.00000000
   16.07166672   76.08290100    1.07000005    2.98000002
   16.07500076   79.54689789    1.11000001    2.98000002
   16.07805634   80.81390381    1.09000003    2.98000002
   16.08139038   81.57499695    1.09000003    2.98000002
   16.08472252   81.52989960    1.09000003    2.98000002
   16.08777809   85.76309967    1.09000003    2.98000002
   16.09111214   76.49949646    1.11000001    3.00000000
   16.09444427   79.82640076    1.14999998    3.00000000
   16.09749985   76.76969910    1.16999996    2.98000002
   16.10083389   82.51380157    1.16999996    2.98000002
   16.10388947   77.14890289    1.16999996    2.98000002
   16.10444450   81.72609711    1.16999996    2.98000002
   16.11055565   81.72609711    1.14999998    2.98000002
   16.11444473   82.07740021    1.14999998    3.00000000
   16.11777878   74.27179718    1.16999996    3.00000000
   16.12111092   81.76409912    1.21000004    2.98000002
   16.12416649   73.13929749    1.21000004    3.00000000
   16.12750053   79.35359955    1.23000002    2.98000002
   16.13083267   78.59809875    1.25000000    2.98000002
   16.13388824   85.38619995    1.26999998    2.98000002
   16.13722229   75.93730164    1.26999998    2.98000002
   16.13777733   82.66470337    1.26999998    2.98000002
   16.14083290   76.46119690    1.26999998    2.98000002
   16.14416695   78.75499725    1.28999996    2.98000002
   16.14722252   78.41919708    1.28999996    2.98000002
   16.15333366   78.41919708    1.28999996    2.98000002
   16.15749931   74.21520233    1.28999996    2.98000002
   16.16055489   88.04799652    1.28999996    2.98000002
   16.16388893   77.33209991    1.28999996    2.98000002
   16.16722107   84.63390350    1.26999998    3.00000000
   16.17027664   81.41519928    1.25000000    2.98000002
   16.17111015   79.43779755    1.23000002    2.98000002
   16.17388916   82.29160309    1.23000002    3.00000000
   16.17722130   81.94619751    1.23000002    3.00000000
   16.18027687   78.76799774    1.23000002    2.98000002
   16.18361092   82.64600372    1.21000004    2.98000002
   16.18694305   83.33930206    1.19000006    2.98000002
   16.18999863   80.35980225    1.16999996    2.98000002
   16.19610977   80.35980225    1.16999996    2.98000002
   16.20027924   81.92849731    1.14999998    2.98000002
   16.20361137  168.84300232    1.14999998    2.98000002
   16.20444489   71.72869873    1.16999996    2.98000002
   16.20722389   77.42289734    1.16999996    2.98000002
   16.21055603   80.02670288    1.16999996    2.98000002
   16.21361160   80.13240051    1.19000006    2.98000002
   16.21694565   77.41210175    1.19000006    2.98000002
   16.22027779   78.73889923    1.19000006    2.98000002
   16.22333336   74.82740021    1.21000004    2.98000002
   16.22666740   80.68579865    1.23000002    2.98000002
   16.22972298   77.49559784    1.23000002    2.98000002
   16.23305511   78.86569977    1.23000002    2.98000002
   16.23888969   78.86569977    1.23000002    3.00000000
   16.24305534   86.24150085    1.25000000    2.98000002
   16.24638939   84.23739624    1.26999998    2.98000002
   16.24944496   81.90010071    1.28999996    2.98000002
   16.25277710   79.33270264    4.90999985    3.09999990
   16.25611115   82.48359680    0.25000000    0.67000002
   16.25916672   83.31490326    0.09000000    0.20999999
   16.26250076   80.56700134    0.09000000    0.20999999
   16.26583290   79.66970062    0.09000000    0.20999999
   16.26888847   78.13289642    0.09000000    0.20999999
   16.27111053   81.52149963    0.09000000    0.20999999
   16.27249908   78.54620361    0.09000000    0.20999999
   16.27583313   75.43939972    0.09000000    0.20999999
   16.28194427   75.43939972    0.09000000    0.20999999
   16.28583336   81.85859680    0.09000000    0.20999999
   16.28916550   78.76730347    0.09000000    0.20999999
   16.29249954   81.32050323    0.09000000    0.20999999
   16.29555511   89.34470367    0.09000000    0.20999999
   16.29888916   80.47229767    0.09000000    0.20999999
   16.30222130   87.56259918    0.09000000    0.20999999
   16.30444336   78.85939789    0.09000000    0.20999999
   16.30583191   82.26979828    0.09000000    0.20999999
   16.30916595   81.49060059    0.09000000    0.20999999
   16.31222153   80.38619995    0.09000000    0.20999999
   16.31555557   87.14890289    0.09000000    0.20999999
   16.31888962   84.03130341    0.09000000    0.20999999
   16.32472229   84.03130341    0.09000000    0.20999999
   16.32888985   82.21250153    0.09000000    0.20999999
   16.33194542   78.60530090    0.09000000    0.20999999
   16.33527756   79.08930206    0.09000000    0.20999999
   16.33777809   79.47820282    0.09000000    0.20999999
   16.33889008   79.61859894    0.09000000    0.20999999
   16.34222221   80.45249939    0.09000000    0.20999999
   16.34527779   82.82900238    0.09000000    0.20999999
   16.34861183   79.26719666    0.09000000    0.20999999
   16.35194397   73.39939880    0.09000000    0.20999999
   16.35499954   86.64730072    0.09000000    0.20999999
   16.35833359   80.88130188    0.09000000    0.20999999
   16.36166763   83.83920288    0.09000000    0.20999999
   16.36750031   83.83920288    0.09000000    0.20999999
   16.37166595   82.00060272    0.09000000    0.20999999
   16.37500000   83.40480042    0.09000000    0.20999999
   16.37805557   86.52380371    0.09000000    0.20999999
   16.38138962   83.60269928    0.09000000    0.20999999
   16.38444519   80.26789856    0.09000000    0.20999999
   16.38777733   78.27050018    0.09000000    0.20999999
   16.39111137   79.35610199    0.09000000    0.20999999
   16.39416695   76.82900238    0.09000000    0.20999999
   16.39749908   82.19390106    0.09000000    0.20999999
   16.40083313   80.86840057    0.09000000    0.20999999
   16.40388870   76.46029663    0.09000000    0.20999999
   16.40472221   80.72540283    0.09000000    0.20999999
   16.41027832   80.72540283    0.09000000    0.20999999
   16.41444397   81.30940247    0.09000000    0.20999999
   16.41777802   83.49739838    0.09000000    0.20999999
   16.42083359   82.30410004    0.09000000    0.20999999
   16.42416573   83.91249847    0.09000000    0.20999999
   16.42749977   88.32730103    0.09000000    0.20999999
   16.43055534   83.40350342    0.09000000    0.20999999
   16.43388748   89.93199921    0.09000000    0.20999999
   16.43722153   81.35150146    0.09000000    0.20999999
   16.43805504   82.92559814    0.09000000    0.20999999
   16.44055557   83.44020081    0.09000000    0.20999999
   16.44388771   83.26249695    0.09000000    0.20999999
   16.44722176   88.04969788    0.09000000    0.20999999
   16.45333481   88.04969788    0.09000000    0.20999999
   16.45722389   93.29689789    0.09000000    0.20999999
   16.46055603   84.15720367    0.09000000    0.20999999
   16.46389008   74.74279785    0.09000000    0.20999999
   16.46694565   76.41629791    0.09000000    0.20999999
   16.47027779   77.24829865    0.09000000    0.20999999
   16.47138977   79.15100098    0.09000000    0.20999999
   16.47389030   83.74320221    0.09000000    0.20999999
   16.47722244   84.71620178    0.09000000    0.20999999
   16.48027802   78.34580231    0.09000000    0.20999999
   16.48361206   87.92649841    0.09000000    0.20999999
   16.48694420   80.73899841    0.09000000    0.20999999
   16.48999977   84.98200226    0.09000000    0.20999999
   16.49611092   84.98200226    0.09000000    0.20999999
   16.50027847   79.24909973    0.09000000    0.20999999
   16.50333405   82.53679657    0.09000000    0.20999999
   16.50472260   82.26000214    0.09000000    0.20999999
   16.50694466   82.38439941    0.09000000    0.20999999
   16.51027870   81.97669983    0.09000000    0.20999999
   16.51333427   87.63249969    0.09000000    0.20999999
   16.51666641   80.70259857    0.09000000    0.20999999
   16.52000046   78.74909973    0.09000000    0.20999999
   16.52333260   82.47769928    0.09000000    0.20999999
   16.52638817   83.99389648    0.09000000    0.20999999
   16.52972221   84.84790039    0.09000000    0.20999999
   16.53277779   84.77610016    0.09000000    0.20999999
   16.53888893   84.77610016    0.09000000    0.20999999
   16.54305458   84.63169861    0.09000000    0.20999999
   16.54638863   77.55960083    0.09000000    0.20999999
   16.54944420   81.39859772    0.09000000    0.20999999
   16.55277634   84.19349670    0.09000000    0.20999999
   16.55583191   79.07589722    0.09000000    0.20999999
   16.55916595   83.44619751    0.09000000    0.20999999
   16.56250000   77.57219696    0.09000000    0.20999999
   16.56555557   81.86340332    0.09000000    0.20999999
   16.56888962   84.65750122    0.09000000    0.20999999
   16.57139015   80.27880096    0.09000000    0.20999999
   16.57250023   81.89209747    0.09000000    0.20999999
   16.57583427   83.38829803    0.09000000    0.20999999
   16.58166695   83.38829803    0.09000000    0.20999999
   16.58583450   84.14849854    0.09000000    0.20999999
   16.58916664   76.80819702    0.09000000    0.20999999
   16.59222221  138.14100647    0.09000000    0.20999999
   16.59555626   75.62789917    0.09000000    0.20999999
   16.59889030   73.14340210    0.09000000    0.20999999
   16.60194397   75.85260010    0.09000000    0.20999999
   16.60472298   74.63480377    0.09000000    0.20999999
   16.60555649   76.52030182    0.09000000    0.20999999
   16.60888863   72.67700195    0.09000000    0.20999999
   16.61194420   81.74210358    0.09000000    0.20999999
   16.61527824   77.15470123    0.09000000    0.20999999
   16.61861038   76.85679626    0.09000000    0.20999999
   16.62472153   76.85679626    0.09000000    0.20999999
   16.62861061   78.75039673    0.09000000    0.20999999
   16.63194466   79.90859985    0.09000000    0.20999999
   16.63527679   75.66519928    0.09000000    0.20999999
   16.63805580   84.19229889    0.09000000    0.20999999
   16.63888931   79.34870148    0.09000000    0.20999999
   16.64222145   86.99459839    0.09000000    0.20999999
   16.64527702   80.36650085    0.09000000    0.20999999
   16.64861107   87.25759888    0.09000000    0.20999999
   16.65194321   79.93800354    0.09000000    0.20999999
   16.65499878   80.24600220    0.09000000    0.20999999
   16.65833282   87.97769928    0.09000000    0.20999999
   16.66166687   85.33850098    0.09000000    0.20999999
   16.66749954   85.33850098    0.09000000    0.20999999
   16.67166519   80.75129700    0.09000000    0.20999999
   16.67472076   83.64820099    0.09000000    0.20999999
   16.67805481   78.23570251    0.09000000    0.20999999
   16.68138885   78.93160248    0.09000000    0.20999999
   16.68444443   83.53869629    0.09000000    0.20999999
   16.68777657   83.05529785    0.09000000    0.20999999
   16.69083214   80.38130188    0.09000000    0.20999999
   16.69416618   78.79039764    0.09000000    0.20999999
   16.69749832   78.62680054    0.09000000    0.20999999
   16.70055580   79.13999939    0.09000000    0.20999999
   16.70388985   78.80760193    0.09000000    0.20999999
   16.70472336   78.31269836    0.09000000    0.20999999
   16.71027946   78.31269836    0.09000000    0.20999999
   16.71444511   80.98539734    0.09000000    0.20999999
   16.71750069   78.08190155    0.09000000    0.20999999
   16.72083473   80.17400360    0.09000000    0.20999999
   16.72416687   80.56670380    0.09000000    0.20999999
   16.72722244   82.45359802    0.09000000    0.20999999
   16.73055649   81.76570129    0.09000000    0.20999999
   16.73388863   81.18560028    0.09000000    0.20999999
   16.73694420   79.89830017    0.09000000    0.20999999
   16.73805618   79.96080017    0.09000000    0.20999999
   16.74055672   79.18560028    0.09000000    0.20999999
   16.74388885   76.97319794    0.09000000    0.20999999
   16.74722290   76.85369873    0.09000000    0.20999999
   16.75305557   76.85369873    0.09000000    0.20999999
   16.75722313   78.15670013    0.09000000    0.20999999
   16.76055527   76.87850189    0.09000000    0.20999999
   16.76361084   87.63890076    0.09000000    0.20999999
   16.76694489   80.58219910    0.09000000    0.20999999
   16.77027702   79.48770142    0.09000000    0.20999999
   16.77138901   86.78780365    0.09000000    0.20999999
   16.77361107   81.99909973    0.09000000    0.20999999
   16.77694511   75.95719910    0.09000000    0.20999999
   16.78027725   83.22190094    0.09000000    0.20999999
   16.78333282   81.46009827    0.09000000    0.20999999
   16.78666687   78.62699890    0.09000000    0.20999999
   16.78972244   81.30989838    0.09000000    0.20999999
   16.79583359   81.30989838    0.09000000    0.20999999
   16.79999924   74.79019928    0.09000000    0.20999999
   16.80333328   73.96980286    0.09000000    0.20999999
   16.80472183   75.63230133    0.09000000    0.20999999
   16.80694389   79.34190369    0.09000000    0.20999999
   16.81027794   76.07299805    0.09000000    0.20999999
   16.81361008   74.85359955    0.09000000    0.20999999
   16.81666756   76.96199799    0.09000000    0.20999999
   16.82000160   75.59780121    0.09000000    0.20999999
   16.82305717   73.16529846    0.09000000    0.20999999
   16.82638931   76.75789642    0.09000000    0.20999999
   16.82972336   73.14399719    0.09000000    0.20999999
   16.83277893   73.64969635    0.09000000    0.20999999
   16.83889008   73.64969635    0.09000000    0.20999999
   16.84305573   76.15599823    0.09000000    0.20999999
   16.84611130   77.64700317    0.09000000    0.20999999
   16.84944534   74.17890167    0.09000000    0.20999999
   16.85250092   74.78130341    0.09000000    0.20999999
   16.85583305   75.20520020    0.09000000    0.20999999
   16.85916710   72.77700043    0.09000000    0.20999999
   16.86222267   79.25849915    0.09000000    0.20999999
   16.86555672   75.37599945    0.09000000    0.20999999
   16.86888885   77.32460022    0.09000000    0.20999999
   16.87138939   76.62010193    0.09000000    0.20999999
   16.87222290   83.58329773    0.09000000    0.20999999
   16.87555504   75.08200073    0.09000000    0.20999999
   16.88166618   75.08200073    0.09000000    0.20999999
   16.88583374   74.49500275    0.09000000    0.20999999
   16.88888931   74.52429962    0.09000000    0.20999999
   16.89222145   74.98750305    0.09000000    0.20999999
   16.89555550   73.72319794    0.09000000    0.20999999
   16.89861107   76.18769836    0.09000000    0.20999999
   16.90194321   79.33930206    0.09000000    0.20999999
   16.90472221   75.01629639    0.09000000    0.20999999
   16.90555573   74.32869720    0.09000000    0.20999999
   16.90888786   73.11620331    0.09000000    0.20999999
   16.91222191   71.63310242    0.09000000    0.20999999
   16.91527748   78.69499969    0.09000000    0.20999999
   16.91860962   75.77189636    0.09000000    0.20999999
   16.92444420   75.77189636    0.09000000    0.20999999
   16.92860985   75.77050018    0.09000000    0.20999999
   16.93194389   74.23940277    0.09000000    0.20999999
   16.93499947   76.55429840    0.09000000    0.20999999
   16.93805504   79.58840179    0.09000000    0.20999999
   16.93861008   73.62719727    0.09000000    0.20999999
   16.94194412   74.38300323    0.09000000    0.20999999
   16.94527626   74.16529846    0.09000000    0.20999999
   16.94833183   73.48930359    0.09000000    0.20999999
   16.95166779   78.47339630    0.09000000    0.20999999
   16.95499992   74.78019714    0.09000000    0.20999999
   16.95805550   74.83370209    0.09000000    0.20999999
   16.96138954   74.16480255    0.09000000    0.20999999
   16.96722221   74.16480255    0.09000000    0.20999999
   16.97138977   72.41429901    0.09000000    0.20999999
   16.97472191   77.46920013    0.09000000    0.20999999
   16.97805595   83.38040161    0.09000000    0.20999999
   16.98111153   74.13400269    0.09000000    0.20999999
   16.98444557   75.97319794    0.09000000    0.20999999
   16.98750114   75.56529999    0.09000000    0.20999999
   16.99083328   76.34300232    0.09000000    0.20999999
   16.99416733   73.68299866    0.09000000    0.20999999
   16.99722290   81.30190277    0.09000000    0.20999999
   17.00055504   80.19840240    0.09000000    0.20999999
   17.00388908   78.72119904    0.09000000    0.20999999
   17.00472260   81.09420013    0.09000000    0.20999999
   17.01027870   81.09420013    0.09000000    0.20999999
   17.01444435   73.92199707    0.09000000    0.20999999
   17.01749992   81.08139801    0.09000000    0.20999999
   17.02083397   82.97879791    0.09000000    0.20999999
   17.03833199   81.58409882    0.09000000    0.20999999
   17.04083252   77.75119781    0.09000000    0.20999999
   17.04416656   84.81690216    0.09000000    0.20999999
   17.04722214   82.89550018    0.09000000    0.20999999
   17.05333328   82.89550018    0.09000000    0.20999999
   17.05722237   79.49790192    0.09000000    0.20999999
   17.06055450   77.04509735    0.09000000    0.20999999
   17.06388855   76.69499969    0.09000000    0.20999999
   17.06694603   78.45200348    0.09000000    0.20999999
   17.07027817   78.36509705    0.09000000    0.20999999
   17.07166672   78.54429626    0.09000000    0.20999999
   17.07389069   78.61190033    0.09000000    0.20999999
   17.07694626   74.42669678    0.09000000    0.20999999
   17.08027840   74.00779724    0.09000000    0.20999999
   17.08333397   78.20040131    0.09000000    0.20999999
   17.08666801   78.88200378    0.09000000    0.20999999
   17.09000015   77.77549744    0.09000000    0.20999999
   17.09611130   77.77549744    0.09000000    0.20999999
   17.10027885   79.71569824    0.09000000    0.20999999
   17.10333443   78.49440002    0.09000000    0.20999999
   17.10499954   73.46389771    0.09000000    0.20999999
   17.10722351   80.36399841    0.09000000    0.20999999
   17.11027908   81.43150330    0.09000000    0.20999999
   17.11361122   79.04100037    0.09000000    0.20999999
   17.11666679   82.32009888    0.09000000    0.20999999
   17.12000084   83.12049866    0.09000000    0.20999999
   17.12333298   81.41249847    0.09000000    0.20999999
   17.12638855   80.62560272    0.09000000    0.20999999
   17.12972260   79.77700043    0.09000000    0.20999999
   17.13305473   79.83129883    0.09000000    0.20999999
   17.13888931   79.83129883    0.09000000    0.20999999
   17.14305496   79.76979828    0.09000000    0.20999999
   17.14638901   75.25330353    0.09000000    0.20999999
   17.14944458   80.96469879    0.09000000    0.20999999
   17.15277672   71.29170227    0.09000000    0.20999999
   17.15583229   77.98899841    0.09000000    0.20999999
   17.15916634   74.86319733    0.09000000    0.20999999
   17.16250038   74.09169769    0.09000000    0.20999999
   17.16555595   75.09770203    0.09000000    0.20999999
   17.16888809   80.47229767    0.09000000    0.20999999
   17.17166519   78.66629791    0.09000000    0.20999999
   17.17249870   86.60510254    0.09000000    0.20999999
   17.17555428   76.61660004    0.09000000    0.20999999
   17.18166542   76.61660004    0.09000000    0.20999999
   17.18583298   81.13690186    0.09000000    0.20999999
   17.18916512   79.60150146    0.09000000    0.20999999
   17.19249916   82.26100159    0.09000000    0.20999999
   17.19555473   78.87460327    0.09000000    0.20999999
   17.19888878   81.98799896    0.09000000    0.20999999
   17.20194435   79.21440125    0.09000000    0.20999999
   17.20499992   75.91719818    0.09000000    0.20999999
   17.20583344   79.69960022    0.09000000    0.20999999
   17.20888901   77.84760284    0.09000000    0.20999999
   17.21222305   74.50080109    0.09000000    0.20999999
   17.21555710   74.63140106    0.09000000    0.20999999
   17.21861076   76.74909973    0.09000000    0.20999999
   17.22472191   76.74909973    0.09000000    0.20999999
   17.22861099   78.24259949    0.09000000    0.20999999
   17.23194504   77.34839630    0.09000000    0.20999999
   17.23527718   80.71759796    0.09000000    0.20999999
   17.23833275   81.01290131    0.09000000    0.20999999
   17.23888969   79.67379761    0.09000000    0.20999999
   17.24194527   79.29879761    0.09000000    0.20999999
   17.24527740   77.67410278    0.09000000    0.20999999
   17.24833298   74.51000214    0.09000000    0.20999999
   17.25166702   75.83879852    0.09000000    0.20999999
   17.25499916   77.98870087    0.09000000    0.20999999
   17.25805473   78.31890106    0.09000000    0.20999999
   17.26138878   78.20790100    0.09000000    0.20999999
   17.26749992   78.20790100    0.09000000    0.20999999
   17.27166557   77.50199890    0.09000000    0.20999999
   17.27222252   79.06670380    0.09000000    0.20999999
   17.27527809   80.38159943    0.09000000    0.20999999
   17.27861023   77.41439819    0.09000000    0.20999999
   17.28166580   79.00340271    0.09000000    0.20999999
   17.28499985   76.68409729    0.09000000    0.20999999
   17.28833199   75.14279938    0.09000000    0.20999999
   17.29138756   74.74060059    0.09000000    0.20999999
   17.29472160   77.32389832    0.09000000    0.20999999
   17.29805565   73.89730072    0.09000000    0.20999999
   17.30111122   72.63580322    0.09000000    0.20999999
   17.30444336   74.66870117    0.09000000    0.20999999
   17.30499840   76.01010132    0.09000000    0.20999999
   17.31027794   76.01010132    0.09000000    0.20999999
   17.31444359   78.14620209    0.09000000    0.20999999
   17.31777954   81.46669769    0.09000000    0.20999999
   17.32083511   75.80989838    0.09000000    0.20999999
   17.32416725   76.12419891    0.09000000    0.20999999
   17.32722282   79.24770355    0.09000000    0.20999999
   17.33055687   76.16169739    0.09000000    0.20999999
   17.33388901   76.22530365    0.09000000    0.20999999
   17.33694458   76.27709961    0.09000000    0.20999999
   17.33833313   78.15779877    0.09000000    0.20999999
   17.34083366   75.01899719    0.09000000    0.20999999
   17.34388924   75.38829803    0.09000000    0.20999999
   17.34722328   75.55919647    0.09000000    0.20999999
   17.35305595   75.55919647    0.09000000    0.20999999
   17.35722351   74.04139709    0.09000000    0.20999999
   17.36055565   76.85769653    0.09000000    0.20999999
   17.36361122   77.65779877    0.09000000    0.20999999
   17.36694527   75.95719910    0.09000000    0.20999999
   17.37027740   78.10459900    0.09000000    0.20999999
   17.37166595   79.02140045    0.09000000    0.20999999
   17.37388992   78.07299805    0.09000000    0.20999999
   17.37694550   77.74780273    0.09000000    0.20999999
   17.38027763   77.41760254    0.09000000    0.20999999
   17.38361168   75.37670135    0.09000000    0.20999999
   17.38666725   82.67510223    0.09000000    0.20999999
   17.38999939   79.43990326    0.09000000    0.20999999
   17.39611053   79.43990326    0.09000000    0.20999999
   17.39999962   76.52929688    0.09000000    0.20999999
   17.40333366   73.25109863    0.09000000    0.20999999
   17.40499878   73.06839752    0.09000000    0.20999999
   17.40694427   72.88890076    0.09000000    0.20999999
   17.40999985   76.12689972    0.09000000    0.20999999
   17.41333389   76.01550293    0.09000000    0.20999999
   17.41666603   74.03029633    0.09000000    0.20999999
   17.41972160   72.45719910    0.09000000    0.20999999
   17.42305565   73.11289978    0.09000000    0.20999999
   17.42611122   74.18430328    0.09000000    0.20999999
   17.42944336   73.60590363    0.09000000    0.20999999
   17.43277740   73.75740051    0.09000000    0.20999999
   17.43888855   73.75740051    0.09000000    0.20999999
   17.44305420   74.71970367    0.09000000    0.20999999
   17.44610977   76.92209625    0.09000000    0.20999999
   17.44944382   73.26409912    0.09000000    0.20999999
   17.45277786   75.57890320    0.09000000    0.20999999
   17.45583344   77.18250275    0.09000000    0.20999999
   17.45916748   76.44509888    0.09000000    0.20999999
   17.46250153   76.53849792    0.09000000    0.20999999
   17.46555710   78.84770203    0.09000000    0.20999999
   17.46888924   74.66320038    0.09000000    0.20999999
   17.47166634   73.58190155    0.09000000    0.20999999
   17.47249985   74.52050018    0.09000000    0.20999999
   17.47555542   74.01889801    0.09000000    0.20999999
   17.48166656   74.01889801    0.09000000    0.20999999
   17.48583412   77.09790039    0.09000000    0.20999999
   17.48916626   79.93720245    0.09000000    0.20999999
   17.49222183   77.95770264    0.09000000    0.20999999
   17.49555588   79.10900116    0.09000000    0.20999999
   17.49888992   81.54889679    0.09000000    0.20999999
   17.50194359   76.51219940    0.09000000    0.20999999
   17.50499916   79.24690247    0.09000000    0.20999999
   17.50583267   79.50000000    0.09000000    0.20999999
   17.50888824   81.54209900    0.09000000    0.20999999
   17.51222229   72.00000000    0.09000000    0.20999999
   17.51555634   80.04850006    0.09000000    0.20999999
   17.51861000   80.35590363    0.09000000    0.20999999
   17.52444458   80.35590363    0.09000000    0.20999999
   17.52861023   75.89620209    0.09000000    0.20999999
   17.53194427   83.02780151    0.09000000    0.20999999
   17.53499985   83.58999634    0.09000000    0.20999999
   17.53833199   76.01499939    0.09000000    0.20999999
   17.53888893   78.39150238    0.09000000    0.20999999
   17.54194450   81.16000366    0.09000000    0.20999999
   17.54527664   77.91790009    0.09000000    0.20999999
   17.54861069   75.55470276    0.09000000    0.20999999
   17.55166626   81.66210175    0.09000000    0.20999999
   17.55499840   77.07669830    0.09000000    0.20999999
   17.55805397   73.05290222    0.09000000    0.20999999
   17.56138802   73.73259735    0.09000000    0.20999999
   17.56750107   73.73259735    0.09000000    0.20999999
   17.57139015   81.62860107    0.09000000    0.20999999
   17.57194519   81.73429871    0.09000000    0.20999999
   17.57527924   80.64959717    0.09000000    0.20999999
   17.57861137   78.92440033    0.09000000    0.20999999
   17.58166695   77.12550354    0.09000000    0.20999999
   17.58500099   79.95279694    0.09000000    0.20999999
   17.58833313   76.74400330    0.09000000    0.20999999
   17.59138870   79.56479645    0.09000000    0.20999999
   17.59472275   75.62670135    0.09000000    0.20999999
   17.59777832   78.92130280    0.09000000    0.20999999
   17.60111237   77.41300201    0.09000000    0.20999999
   17.60444450   82.10669708    0.09000000    0.20999999
   17.60527802   79.82070160    0.09000000    0.20999999
   17.61027908   79.82070160    0.09000000    0.20999999
   17.61444473   77.82849884    0.09000000    0.20999999
   17.61750031   78.80639648    0.09000000    0.20999999
   17.62083435   79.68630219    0.09000000    0.20999999
   17.62416649   81.72899628    0.09000000    0.20999999
   17.62722206   71.31729889    0.09000000    0.20999999
   17.63055611   74.67289734    0.09000000    0.20999999
   17.63388824   77.60179901    0.09000000    0.20999999
   17.63694382   79.14170074    0.09000000    0.20999999
   17.63861084   75.47760010    0.09000000    0.20999999
   17.64055634   79.77529907    0.09000000    0.20999999
   17.64388847   79.78549957    0.09000000    0.20999999
   17.64694405   76.54499817    0.09000000    0.20999999
   17.65305519   76.54499817    0.09000000    0.20999999
   17.65722275   81.90309906    0.09000000    0.20999999
   17.66055489   74.84290314    0.09000000    0.20999999
   17.66361046   75.22049713    0.09000000    0.20999999
   17.66694450   76.72779846    0.09000000    0.20999999
   17.67000008   75.41719818    0.09000000    0.20999999
   17.67194366   75.42610168    0.09000000    0.20999999
   17.67388916   75.16500092    0.09000000    0.20999999
   17.67722130   79.62819672    0.09000000    0.20999999
   17.68027687   73.69799805    0.09000000    0.20999999
   17.68361092   75.48210144    0.09000000    0.20999999
   17.68694305   83.09729767    0.09000000    0.20999999
   17.68999863   77.21520233    0.09000000    0.20999999
   17.69583321   77.21520233    0.09000000    0.20999999
   17.70000076   74.07199860    0.09000000    0.20999999
   17.70333481   76.30580139    0.09000000    0.20999999
   17.70583344   81.93930054    0.09000000    0.20999999
   17.70722389   81.62079620    0.09000000    0.20999999
   17.71055603   80.16369629    0.09000000    0.20999999
   17.71389008   77.75640106    0.09000000    0.20999999
   17.71694565   74.52259827    0.09000000    0.20999999
   17.72027779   75.76609802    0.09000000    0.20999999
   17.72333336   77.06890106    0.09000000    0.20999999
   17.72666740   74.72139740    0.09000000    0.20999999
   17.73000145   77.58180237    0.09000000    0.20999999
   17.73305511   78.97059631    0.09000000    0.20999999
   17.73888969   78.97059631    0.09000000    0.20999999
   17.74277878   78.38240051    0.09000000    0.20999999
   17.74611092   72.97660065    0.09000000    0.20999999
   17.74944496   78.49929810    0.09000000    0.20999999
   17.75250053   77.31549835    0.09000000    0.20999999
   17.75583267   76.98819733    0.09000000    0.20999999
   17.75888824   73.77680206    0.09000000    0.20999999
   17.76222229   73.76029968    0.09000000    0.20999999
   17.76555634   78.21489716    0.09000000    0.20999999
   17.76861000   74.14060211    0.09000000    0.20999999
   17.77194405   73.40640259    0.09000000    0.20999999
   17.77249908   77.66190338    0.09000000    0.20999999
   17.77583313   77.49649811    0.09000000    0.20999999
   17.78166580   77.49649811    0.09000000    0.20999999
   17.78583336   81.17729950    0.09000000    0.20999999
   17.78888893   78.53800201    0.09000000    0.20999999
   17.79222107   76.84230042    0.09000000    0.20999999
   17.79527664   77.60040283    0.09000000    0.20999999
   17.79861069   74.10990143    0.09000000    0.20999999
   17.80194283   75.90540314    0.09000000    0.20999999
   17.80499840   76.85330200    0.09000000    0.20999999
   17.80583191   77.11499786    0.09000000    0.20999999
   17.80888748   76.33799744    0.09000000    0.20999999
   17.81194305   79.29129791    0.09000000    0.20999999
   17.81527710   75.61389923    0.09000000    0.20999999
   17.81833458   72.34770203    0.09000000    0.20999999
   17.82444572   72.34770203    0.09000000    0.20999999
   17.82861137   73.62719727    0.09000000    0.20999999
   17.83166695   74.36460114    0.09000000    0.20999999
   17.83500099   75.59300232    0.09000000    0.20999999
   17.83833313   76.39890289    0.09000000    0.20999999
   17.83916664   75.18750000    0.09000000    0.20999999
   17.84194565   78.92400360    0.09000000    0.20999999
   17.84500122   75.89420319    0.09000000    0.20999999
   17.84833336   81.64779663    0.09000000    0.20999999
   17.85138893   83.28440094    0.09000000    0.20999999
   17.85472298   77.18910217    0.09000000    0.20999999
   17.85805511   80.40190125    0.09000000    0.20999999
   17.86111069   81.80889893    0.09000000    0.20999999
   17.86722183   81.80889893    0.09000000    0.20999999
   17.87138939   76.99060059    0.09000000    0.20999999
   17.87249947   78.16320038    0.09000000    0.20999999
   17.87527847   76.41239929    0.09000000    0.20999999
   17.87833405   78.34719849    0.09000000    0.20999999
   17.88166618   80.43440247    0.09000000    0.20999999
   17.88472176   80.78949738    0.09000000    0.20999999
   17.88805580   83.27999878    0.09000000    0.20999999
   17.89138794   80.62580109    0.09000000    0.20999999
   17.89444351   80.89849854    0.09000000    0.20999999
   17.89777756   81.06130219    0.09000000    0.20999999
   17.90111160   79.74169922    0.09000000    0.20999999
   17.90416718   81.96060181    0.09000000    0.20999999
   17.90583229   77.13050079    0.09000000    0.20999999
   17.90999985   77.13050079    0.09000000    0.20999999
   17.91416550   79.90830231    0.09000000    0.20999999
   17.91749954   78.00039673    0.09000000    0.20999999
   17.92083359   78.00229645    0.09000000    0.20999999
   17.92388916   76.53050232    0.09000000    0.20999999
   17.92722130   82.03320313    0.09000000    0.20999999
   17.93055534   79.51390076    0.09000000    0.20999999
   17.93361092   72.81610107    0.09000000    0.20999999
   17.93694305   74.99929810    0.09000000    0.20999999
   17.93916512   81.27670288    0.09000000    0.20999999
   17.94055557   77.22969818    0.09000000    0.20999999
   17.94361115   78.08460236    0.09000000    0.20999999
   17.94694328   75.44850159    0.09000000    0.20999999
   17.95305634   75.44850159    0.09000000    0.20999999
   17.95722389   77.71279907    0.09000000    0.20999999
   17.96027946   81.15670013    0.09000000    0.20999999
   17.96361160   77.88480377    0.09000000    0.20999999
   17.96694565   77.97460175    0.09000000    0.20999999
   17.97000122   79.27100372    0.09000000    0.20999999
   17.97249985   80.04450226    0.09000000    0.20999999
   17.97389030   79.66750336    0.09000000    0.20999999
   17.97694588   76.01180267    0.09000000    0.20999999
   17.98027802   79.87390137    0.09000000    0.20999999
   17.98333359   79.96980286    0.09000000    0.20999999
   17.98666763   77.96730042    0.09000000    0.20999999
   17.98999977   74.20179749    0.09000000    0.20999999
   17.99583435   74.20179749    0.09000000    0.20999999
   18.00000000   76.25450134    0.09000000    0.20999999
   18.00305557   71.46489716    0.09000000    0.20999999
   18.00583267   74.33070374    0.09000000    0.20999999
   18.00694466   79.65149689    0.09000000    0.20999999
   18.01000023   78.55380249    0.09000000    0.20999999
   18.01333427   74.24659729    0.09000000    0.20999999
   18.01666641   76.39869690    0.09000000    0.20999999
   18.01972198   76.13760376    0.09000000    0.20999999
   18.02305603   75.48120117    0.09000000    0.20999999
   18.02611160   75.82499695    0.09000000    0.20999999
   18.02944374   77.44470215    0.09000000    0.20999999
   18.03277779   77.91190338    0.09000000    0.20999999
   18.03861046   77.91190338    0.09000000    0.20999999
   18.05694389   77.41339874    0.09000000    0.20999999
   18.06027794   74.79879761    0.09000000    0.20999999
   18.06361008   74.86910248    0.09000000    0.20999999
   18.06666756   81.10199738    0.09000000    0.20999999
   18.07000160   77.22969818    0.09000000    0.20999999
   18.07305717   80.00050354    0.09000000    0.20999999
   18.07638931   83.04779816    0.09000000    0.20999999
   18.08166695   83.04779816    0.09000000    0.20999999
   18.08583450   83.79429626    0.09000000    0.20999999
   18.08916664   97.54450226    0.09000000    0.20999999
   18.09000015   95.01799774    0.09000000    0.20999999
   18.09277916  104.40799713    0.09000000    0.20999999
   18.09611130   87.58270264    0.09000000    0.20999999
   18.09916687   95.89170074    0.09000000    0.20999999
   18.10250092   85.63950348    0.09000000    0.20999999
   18.10583305   85.64980316    0.09000000    0.20999999
   18.10888863   78.85449982    0.09000000    0.20999999
   18.11222267   87.07009888    0.09000000    0.20999999
   18.11527824   94.34200287    0.09000000    0.20999999
   18.11861038   86.05370331    0.09000000    0.20999999
   18.12472153   86.05370331    0.09000000    0.20999999
   18.12861061   82.44010162    0.09000000    0.20999999
   18.13194466   79.15000153    0.09000000    0.20999999
   18.13527679   80.46170044    0.09000000    0.20999999
   18.13833237   85.77239990    0.09000000    0.20999999
   18.14194489   86.40390015    0.09000000    0.20999999
   18.14527702   88.98660278    0.09000000    0.20999999
   18.14833260   79.68830109    0.09000000    0.20999999
   18.15166664   88.07669830    0.09000000    0.20999999
   18.15499878   86.04219818    0.09000000    0.20999999
   18.15666580   84.63849640    0.09000000    0.20999999
   18.15861130   87.45439911    0.09000000    0.20999999
   18.16194344   82.09670258    0.09000000    0.20999999
   18.16749954   82.09670258    0.09000000    0.20999999
   18.17166519   85.86699677    0.09000000    0.20999999
   18.17472076   83.13480377    0.09000000    0.20999999
   18.17805481   81.67359924    0.09000000    0.20999999
   18.18138885   82.41619873    0.09000000    0.20999999
   18.18444443   83.90509796    0.09000000    0.20999999
   18.18777657   83.83660126    0.09000000    0.20999999
   18.18999863   85.23680115    0.09000000    0.20999999
   18.19138718   84.99890137    0.09000000    0.20999999
   18.19472122   78.30359650    0.09000000    0.20999999
   18.19777679   83.08119965    0.09000000    0.20999999
   18.20111275   81.01899719    0.09000000    0.20999999
   18.20444489   80.47239685    0.09000000    0.20999999
   18.21027946   80.47239685    0.09000000    0.20999999
   18.21444511   78.19259644    0.09000000    0.20999999
   18.21777916   81.62879944    0.09000000    0.20999999
   18.22083473   79.65709686    0.09000000    0.20999999
   18.22333336   78.08799744    0.09000000    0.20999999
   18.22444534   83.41049957    0.09000000    0.20999999
   18.22777748   77.70159912    0.09000000    0.20999999
   18.23083305   84.05590057    0.09000000    0.20999999
   18.23416710   78.24960327    0.09000000    0.20999999
   18.23750114   78.69309998    0.09000000    0.20999999
   18.24055672   83.19889832    0.09000000    0.20999999
   18.24388885   83.38829803    0.09000000    0.20999999
   18.24722290   86.15019989    0.09000000    0.20999999
   18.25305557   86.15019989    0.09000000    0.20999999
   18.25722313   81.33139801    0.09000000    0.20999999
   18.26055527   81.07409668    0.09000000    0.20999999
   18.26361084   84.61239624    0.09000000    0.20999999
   18.26694489   81.46070099    0.09000000    0.20999999
   18.27027702   85.48799896    0.09000000    0.20999999
   18.27333260   79.21589661    0.09000000    0.20999999
   18.27666664   83.97709656    0.09000000    0.20999999
   18.28000069   87.09030151    0.09000000    0.20999999
   18.28305435   84.60829926    0.09000000    0.20999999
   18.28638840   81.08670044    0.09000000    0.20999999
   18.28944397   87.16670227    0.09000000    0.20999999
   18.29027748   83.88539886    0.09000000    0.20999999
   18.29611015   83.88539886    0.09000000    0.20999999
   18.29999924   81.77719879    0.09000000    0.20999999
   18.30333328   82.78089905    0.09000000    0.20999999
   18.30666542   82.65489960    0.09000000    0.20999999
   18.30972099   87.57920074    0.09000000    0.20999999
   18.31305504   88.02390289    0.09000000    0.20999999
   18.31638718   80.08899689    0.09000000    0.20999999
   18.31944466   83.39959717    0.09000000    0.20999999
   18.32277870   86.60720062    0.09000000    0.20999999
   18.32361221   88.76360321    0.09000000    0.20999999
   18.32638931   83.99620056    0.09000000    0.20999999
   18.32972336   85.91950226    0.09000000    0.20999999
   18.33277893   83.80049896    0.09000000    0.20999999
   18.33889008   83.80049896    0.09000000    0.20999999
   18.34305573   83.09660339    0.09000000    0.20999999
   18.34611130   85.13950348    0.09000000    0.20999999
   18.34944534   85.41860199    0.09000000    0.20999999
   18.35277748   83.63649750    0.09000000    0.20999999
   18.35583305   82.58370209    0.09000000    0.20999999
   18.35694504   84.91259766    0.09000000    0.20999999
   18.35944557   79.36409760    0.09000000    0.20999999
   18.36277771   87.28240204    0.09000000    0.20999999
   18.36583328   83.99490356    0.09000000    0.20999999
   18.36916733   84.78279877    0.09000000    0.20999999
   18.37249947   81.13610077    0.09000000    0.20999999
   18.37555504   82.41760254    0.09000000    0.20999999
   18.38166618   82.41760254    0.09000000    0.20999999
   18.38583374   83.49829865    0.09000000    0.20999999
   18.38916588   78.01709747    0.09000000    0.20999999
   18.39027786   81.85179901    0.09000000    0.20999999
   18.39277840   79.18070221    0.09000000    0.20999999
   18.39611053   78.13159943    0.09000000    0.20999999
   18.39916611   77.81060028    0.09000000    0.20999999
   18.40250015   75.47869873    0.09000000    0.20999999
   18.40583229   80.13099670    0.09000000    0.20999999
   18.40888786   78.04440308    0.09000000    0.20999999
   18.41222191   81.35299683    0.09000000    0.20999999
   18.41555595   74.70040131    0.09000000    0.20999999
   18.41860962   77.43190002    0.09000000    0.20999999
   18.42444420   77.43190002    0.09000000    0.20999999
   18.42860985   81.92700195    0.09000000    0.20999999
   18.43194389   79.55819702    0.09000000    0.20999999
   18.43499947   81.84480286    0.09000000    0.20999999
   18.43833160   79.63870239    0.09000000    0.20999999
   18.44166565   83.86270142    0.09000000    0.20999999
   18.44472122   76.87660217    0.09000000    0.20999999
   18.44805527   84.52030182    0.09000000    0.20999999
   18.45111275   82.54789734    0.09000000    0.20999999
   18.45444489   81.53810120    0.09000000    0.20999999
   18.45694542   77.67199707    0.09000000    0.20999999
   18.45805550   76.17569733    0.09000000    0.20999999
   18.46138954   80.83139801    0.09000000    0.20999999
   18.46750069   80.83139801    0.09000000    0.20999999
   18.47138977   75.63580322    0.09000000    0.20999999
   18.47472191   75.69499969    0.09000000    0.20999999
   18.47805595   80.71730042    0.09000000    0.20999999
   18.48111153   80.55819702    0.09000000    0.20999999
   18.48444557   74.42449951    0.09000000    0.20999999
   18.48750114   80.96170044    0.09000000    0.20999999
   18.49027824   76.04669952    0.09000000    0.20999999
   18.49111176   76.31860352    0.09000000    0.20999999
   18.49444389   78.98490143    0.09000000    0.20999999
   18.49749947   84.24030304    0.09000000    0.20999999
   18.50083351   77.12909698    0.09000000    0.20999999
   18.50416756   77.38999939    0.09000000    0.20999999
   18.51027870   77.38999939    0.09000000    0.20999999
   18.51444435   78.70919800    0.09000000    0.20999999
   18.51749992   78.47160339    0.09000000    0.20999999
   18.52083397   81.09100342    0.09000000    0.20999999
   18.52361107   81.63929749    0.09000000    0.20999999
   18.52444458   82.62870026    0.09000000    0.20999999
   18.52777672   77.69840240    0.09000000    0.20999999
   18.53083229   82.34539795    0.09000000    0.20999999
   18.53416634   80.76429749    0.09000000    0.20999999
   18.53750038   73.19879913    0.09000000    0.20999999
   18.54055595   79.74440002    0.09000000    0.20999999
   18.54388809   81.33489990    0.09000000    0.20999999
   18.54722214   76.92140198    0.09000000    0.20999999
   18.55305481   76.92140198    0.09000000    0.20999999
   18.55722237   75.09609985    0.09000000    0.20999999
   18.56055450   77.90740204    0.09000000    0.20999999
   18.56361008   80.89759827    0.09000000    0.20999999
   18.56694603   76.84860229    0.09000000    0.20999999
   18.57000160   78.40859985    0.09000000    0.20999999
   18.57333374   74.71839905    0.09000000    0.20999999
   18.57666779   75.02259827    0.09000000    0.20999999
   18.57972336   78.47930145    0.09000000    0.20999999
   18.58305550   75.13999939    0.09000000    0.20999999
   18.58638954   77.44830322    0.09000000    0.20999999
   18.58944511   78.56289673    0.09000000    0.20999999
   18.59027863   84.16899872    0.09000000    0.20999999
   18.59583473   84.16899872    0.09000000    0.20999999
   18.60000038   81.22789764    0.09000000    0.20999999
   18.60333443   84.45659637    0.09000000    0.20999999
   18.60639000   81.86969757    0.09000000    0.20999999
   18.60972214   84.68679810    0.09000000    0.20999999
   18.61305618   82.67600250    0.09000000    0.20999999
   18.61611176   82.76010132    0.09000000    0.20999999
   18.61944389   86.21920013    0.09000000    0.20999999
   18.62249947   75.63510132    0.09000000    0.20999999
   18.62361145   75.98989868    0.09000000    0.20999999
   18.62611198   73.89070129    0.09000000    0.20999999
   18.62944412   73.34030151    0.09000000    0.20999999
   18.63277817   75.39520264    0.09000000    0.20999999
   18.63888931   75.39520264    0.09000000    0.20999999
   18.64277840   74.89430237    0.09000000    0.20999999
   18.64611053   78.74929810    0.09000000    0.20999999
   18.64944458   77.55819702    0.09000000    0.20999999
   18.65250015   75.90809631    0.09000000    0.20999999
   18.65583229   78.42410278    0.09000000    0.20999999
   18.65694427   79.97100067    0.09000000    0.20999999
   18.65944481   81.96710205    0.09000000    0.20999999
   18.66277695   79.85929871    0.09000000    0.20999999
   18.66611099   80.76409912    0.09000000    0.20999999
   18.66916656   75.61029816    0.09000000    0.20999999
   18.67249870   78.28949738    0.09000000    0.20999999
   18.67555428   83.46690369    0.09000000    0.20999999
   18.68166542   83.46690369    0.09000000    0.20999999
   18.68583298   79.50229645    0.09000000    0.20999999
   18.68888855   77.42600250    0.09000000    0.20999999
   18.69027710   77.55000305    0.09000000    0.20999999
   18.69249916   79.66449738    0.09000000    0.20999999
   18.69583321   78.89219666    0.09000000    0.20999999
   18.69916534   77.56710052    0.09000000    0.20999999
   18.70222282   77.15859985    0.09000000    0.20999999
   18.70555687   79.95559692    0.09000000    0.20999999
   18.70861244   79.57740021    0.09000000    0.20999999
   18.71194458   78.31369781    0.09000000    0.20999999
   18.71527863   78.81390381    0.09000000    0.20999999
   18.71833420   79.85859680    0.09000000    0.20999999
   18.72444534   79.85859680    0.09000000    0.20999999
   18.72861099   76.31950378    0.09000000    0.20999999
   18.73166656   81.66390228    0.09000000    0.20999999
   18.73500061   75.57379913    0.09000000    0.20999999
   18.73833275   78.91570282    0.09000000    0.20999999
   18.74138832   83.51000214    0.09000000    0.20999999
   18.74472237   77.43289948    0.09000000    0.20999999
   18.74805641   78.52890015    0.09000000    0.20999999
   18.75111198   81.02179718    0.09000000    0.20999999
   18.75444412   82.42700195    0.09000000    0.20999999
   18.75694466   84.45290375    0.09000000    0.20999999
   18.75805473   85.54959869    0.09000000    0.20999999
   18.76138878   81.62500000    0.09000000    0.20999999
   18.76722145   81.62500000    0.09000000    0.20999999
   18.77138901   86.14710236    0.09000000    0.20999999
   18.77472115   85.49759674    0.09000000    0.20999999
   18.77777672   82.96769714    0.09000000    0.20999999
   18.78111076   84.11239624    0.09000000    0.20999999
   18.78444481   82.49970245    0.09000000    0.20999999
   18.78750038   83.75710297    0.09000000    0.20999999
   18.79027748   84.45230103    0.09000000    0.20999999
   18.79111099   89.80919647    0.09000000    0.20999999
   18.79444313   82.40640259    0.09000000    0.20999999
   18.79777718   79.61650085    0.09000000    0.20999999
   18.80083275   79.64440155    0.09000000    0.20999999
   18.80416679   78.71099854    0.09000000    0.20999999
   18.80999947   78.71099854    0.09000000    0.20999999
   18.81416512   80.42880249    0.09000000    0.20999999
   18.81750107   83.15229797    0.09000000    0.20999999
   18.82083511   83.05159760    0.09000000    0.20999999
   18.82361221   84.98770142    0.09000000    0.20999999
   18.82416725   87.72899628    0.09000000    0.20999999
   18.82750130   83.52940369    0.09000000    0.20999999
   18.83083344   80.10150146    0.09000000    0.20999999
   18.83388901   74.84249878    0.09000000    0.20999999
   18.83722305   88.17510223    0.09000000    0.20999999
   18.84027863   83.73750305    0.09000000    0.20999999
   18.84361267   90.66110229    0.09000000    0.20999999
   18.84694481   86.09609985    0.09000000    0.20999999
   18.85305595   86.09609985    0.09000000    0.20999999
   18.85722351   84.43370056    0.09000000    0.20999999
   18.86027908   84.02259827    0.09000000    0.20999999
   18.86361122   87.07839966    0.09000000    0.20999999
   18.86666679   79.60700226    0.09000000    0.20999999
   18.87000084   84.74140167    0.09000000    0.20999999
   18.87333298   85.79419708    0.09000000    0.20999999
   18.87638855   84.20670319    0.09000000    0.20999999
   18.87972260   81.46769714    0.09000000    0.20999999
   18.88305473   85.48600006    0.09000000    0.20999999
   18.88611031   78.07170105    0.09000000    0.20999999
   18.88944435   85.82839966    0.09000000    0.20999999
   18.89027786   80.35710144    0.09000000    0.20999999
   18.89583397   80.35710144    0.09000000    0.20999999
   18.89999962   88.44059753    0.09000000    0.20999999
   18.90305519   83.64209747    0.09000000    0.20999999
   18.90638924   82.39080048    0.09000000    0.20999999
   18.90972137   78.98819733    0.09000000    0.20999999
   18.91305542   78.24600220    0.09000000    0.20999999
   18.91611099   83.06780243    0.09000000    0.20999999
   18.91944313   80.19840240    0.09000000    0.20999999
   18.92249870   82.76899719    0.09000000    0.20999999
   18.92361069   83.07890320    0.09000000    0.20999999
   18.92611122   79.10359955    0.09000000    0.20999999
   18.92944336   84.94139862    0.09000000    0.20999999
   18.93277740   75.76349640    0.09000000    0.20999999
   18.93861008   75.76349640    0.09000000    0.20999999
   18.94277763   81.17449951    0.09000000    0.20999999
   18.94610977   74.10620117    0.09000000    0.20999999
   18.94916534   86.77400208    0.09000000    0.20999999
   18.95250130   78.41619873    0.09000000    0.20999999
   18.95583344   84.59770203    0.09000000    0.20999999
   18.95694542   81.88780212    0.09000000    0.20999999
   18.95916748   74.82610321    0.09000000    0.20999999
   18.96250153   71.01239777    0.09000000    0.20999999
   18.96583366   86.69360352    0.09000000    0.20999999
   18.96888924   83.90059662    0.09000000    0.20999999
   18.97222328   83.24089813    0.09000000    0.20999999
   18.97555542   78.33689880    0.09000000    0.20999999
   18.98139000   78.33689880    0.09000000    0.20999999
   18.98555565   83.31189728    0.09000000    0.20999999
   18.98888969   86.15129852    0.09000000    0.20999999
   18.99027824   75.10279846    0.09000000    0.20999999
   18.99250031   83.11119843    0.09000000    0.20999999
   18.99583435   82.40529633    0.09000000    0.20999999
   18.99916649   86.33159637    0.09000000    0.20999999
   19.00222206   80.34839630    0.09000000    0.20999999
   19.00555611   72.20629883    0.09000000    0.20999999
   19.00888824   75.64600372    0.09000000    0.20999999
   19.01194382   80.00509644    0.09000000    0.20999999
   19.01527786   70.40329742    0.09000000    0.20999999
   19.01833344   91.42910004    0.09000000    0.20999999
   19.02444458   91.42910004    0.09000000    0.20999999
   19.02861023   85.61679840    0.09000000    0.20999999
   19.03166580   82.09760284    0.09000000    0.20999999
   19.03499985   90.59700012    0.09000000    0.20999999
   19.03805542   91.63909912    0.09000000    0.20999999
   19.04138756   86.13089752    0.09000000    0.20999999
   19.04472160   80.71630096    0.09000000    0.20999999
   19.04777718   94.93530273    0.09000000    0.20999999
   19.05111122   89.99259949    0.09000000    0.20999999
   19.05444336   84.71710205    0.09000000    0.20999999
   19.05694389   90.03070068    0.09000000    0.20999999
   19.07750130   90.03070068    0.09000000    0.20999999
   19.08166695   78.82640076    0.09000000    0.20999999
   19.08500099   79.46859741    0.09000000    0.20999999
   19.08805656   75.48609924    0.09000000    0.20999999
   19.09027863   76.81970215    0.09000000    0.20999999
   19.09194565   70.34010315    0.09000000    0.20999999
   19.09500122   81.20020294    0.09000000    0.20999999
   19.09833336   82.23049927    0.09000000    0.20999999
   19.10166740   83.36730194    0.09000000    0.20999999
   19.10472298   82.08129883    0.09000000    0.20999999
   19.10805511   76.20429993    0.09000000    0.20999999
   19.11111069   78.67639923    0.09000000    0.20999999
   19.11444473   81.24019623    0.09000000    0.20999999
   19.12027740   81.24019623    0.09000000    0.20999999
   19.12444496   83.54409790    0.09000000    0.20999999
   19.12750053   83.64230347    0.09000000    0.20999999
   19.13083267   80.39859772    0.09000000    0.20999999
   19.13416672   80.72100067    0.09000000    0.20999999
   19.13722229   82.01950073    0.09000000    0.20999999
   19.14055634   81.76950073    0.09000000    0.20999999
   19.14388847   81.54479980    0.09000000    0.20999999
   19.14694405   85.00589752    0.09000000    0.20999999
   19.15027809   90.08020020    0.09000000    0.20999999
   19.15333366   81.42669678    0.09000000    0.20999999
   19.15666580   88.11640167    0.09000000    0.20999999
   19.15722275   82.20320129    0.09000000    0.20999999
   19.16305542   82.20320129    0.09000000    0.20999999
   19.16722107   83.58039856    0.09000000    0.20999999
   19.17055511   88.69400024    0.09000000    0.20999999
   19.17361069   83.44429779    0.09000000    0.20999999
   19.17694473   84.51540375    0.09000000    0.20999999
   19.18027687   83.32890320    0.09000000    0.20999999
   19.18361092   78.52179718    0.09000000    0.20999999
   19.18694305   79.54540253    0.09000000    0.20999999
   19.19027710   78.09519958    0.09000000    0.20999999
   19.19083214   81.70050049    0.09000000    0.20999999
   19.19388771   79.94830322    0.09000000    0.20999999
   19.19722176   77.41870117    0.09000000    0.20999999
   19.20055580   77.54270172    0.09000000    0.20999999
   19.20611191   77.54270172    0.09000000    0.20999999
   19.21000099   84.12359619    0.09000000    0.20999999
   19.21333504   83.12640381    0.09000000    0.20999999
   19.21666718   83.08300018    0.09000000    0.20999999
   19.21972275   85.85150146    0.09000000    0.20999999
   19.22305679   80.66709900    0.09000000    0.20999999
   19.22416687   80.92630005    0.09000000    0.20999999
   19.22666740   81.92269897    0.09000000    0.20999999
   19.23000145   88.63069916    0.09000000    0.20999999
   19.23333359   82.28209686    0.09000000    0.20999999
   19.23638916   86.06030273    0.09000000    0.20999999
   19.23972321   79.22889709    0.09000000    0.20999999
   19.24277878   80.64270020    0.09000000    0.20999999
   19.24888992   80.64270020    0.09000000    0.20999999
   19.25305557   80.26830292    0.09000000    0.20999999
   19.25611115   84.68000031    0.09000000    0.20999999
   19.25749969   85.57409668    0.09000000    0.20999999
   19.25972176   84.56009674    0.09000000    0.20999999
   19.26305580   79.65219879    0.09000000    0.20999999
   19.26638794   82.96279907    0.09000000    0.20999999
   19.26944351   75.62860107    0.09000000    0.20999999
   19.27277756   78.02239990    0.09000000    0.20999999
   19.27583313   73.88929749    0.09000000    0.20999999
   19.27916718   81.80780029    0.09000000    0.20999999
   19.28249931   85.04850006    0.09000000    0.20999999
   19.28555489   78.77719879    0.09000000    0.20999999
   19.29166603   78.77719879    0.09000000    0.20999999
   19.29583359   82.99690247    0.09000000    0.20999999
   19.29888916   86.85959625    0.09000000    0.20999999
   19.30222130   82.19940186    0.09000000    0.20999999
   19.30555534   89.34970093    0.09000000    0.20999999
   19.30861092   86.08319855    0.09000000    0.20999999
   19.31194305   86.12509918    0.09000000    0.20999999
   19.31527710   84.44680023    0.09000000    0.20999999
   19.31833458   84.06839752    0.09000000    0.20999999
   19.32166672   87.06590271    0.09000000    0.20999999
   19.32416725   79.49839783    0.09000000    0.20999999
   19.32527924   78.49649811    0.09000000    0.20999999
   19.32861137   87.14880371    0.09000000    0.20999999
   19.33444595   87.14880371    0.09000000    0.20999999
   19.33861160   84.55599976    0.09000000    0.20999999
   19.34194565   87.44290161    0.09000000    0.20999999
   19.34500122   80.83709717    0.09000000    0.20999999
   19.34833336   84.75800323    0.09000000    0.20999999
   19.35166740   86.63410187    0.09000000    0.20999999
   19.35472298   80.34899902    0.09000000    0.20999999
   19.35750008   81.54679871    0.09000000    0.20999999
   19.35833359   85.16210175    0.09000000    0.20999999
   19.36166763   82.80709839    0.09000000    0.20999999
   19.36499977   77.96379852    0.09000000    0.20999999
   19.36805534   78.13420105    0.09000000    0.20999999
   19.37138939   80.31410217    0.09000000    0.20999999
   19.37722206   80.31410217    0.09000000    0.20999999
   19.38138962   80.66470337    0.09000000    0.20999999
   19.38472176   87.82830048    0.09000000    0.20999999
   19.38805580   82.83370209    0.09000000    0.20999999
   19.39083290   84.15959930    0.09000000    0.20999999
   19.39138794   81.03150177    0.09000000    0.20999999
   19.39472198   84.87339783    0.09000000    0.20999999
   19.39805603   88.53929901    0.09000000    0.20999999
   19.40111160   91.08439636    0.09000000    0.20999999
   19.40444374   84.04080200    0.09000000    0.20999999
   19.40749931   81.49109650    0.09000000    0.20999999
   19.41083336   84.12339783    0.09000000    0.20999999
   19.41416550   76.96970367    0.09000000    0.20999999
   19.42027664   76.96970367    0.09000000    0.20999999
   19.42444420   81.02929688    0.09000000    0.20999999
   19.42749977   77.72290039    0.09000000    0.20999999
   19.43083191   79.77239990    0.09000000    0.20999999
   19.43388748   85.03459930    0.09000000    0.20999999
   19.43722153   82.19889832    0.09000000    0.20999999
   19.44055557   81.91940308    0.09000000    0.20999999
   19.44361115   81.78389740    0.09000000    0.20999999
   19.44694328   82.47509766    0.09000000    0.20999999
   19.45027924   82.72940063    0.09000000    0.20999999
   19.45333481   78.39610291    0.09000000    0.20999999
   19.45666695   78.63310242    0.09000000    0.20999999
   19.45750046   78.67230225    0.09000000    0.20999999
   19.46305656   78.67230225    0.09000000    0.20999999
   19.46722221   84.41529846    0.09000000    0.20999999
   19.47027779   86.00319672    0.09000000    0.20999999
   19.47361183   86.85620117    0.09000000    0.20999999
   19.47694588   78.50209808    0.09000000    0.20999999
   19.48000145   80.29869843    0.09000000    0.20999999
   19.48333359   84.84200287    0.09000000    0.20999999
   19.48666763   79.29689789    0.09000000    0.20999999
   19.48972321   82.87169647    0.09000000    0.20999999
   19.49083328   80.87229919    0.09000000    0.20999999
   19.49333382   80.40309906    0.09000000    0.20999999
   19.49666786   83.06999969    0.09000000    0.20999999
   19.50000000   79.53910065    0.09000000    0.20999999
   19.50583267   79.53910065    0.09000000    0.20999999
   19.51000023   79.96269989    0.09000000    0.20999999
   19.51333427   74.68009949    0.09000000    0.20999999
   19.51638794   75.48909760    0.09000000    0.20999999
   19.51972198   80.98819733    0.09000000    0.20999999
   19.52305603   79.27729797    0.09000000    0.20999999
   19.52416611   80.34609985    0.09000000    0.20999999
   19.52638817   76.79989624    0.09000000    0.20999999
   19.52972221   82.54730225    0.09000000    0.20999999
   19.53305435   80.84739685    0.09000000    0.20999999
   19.53610992   77.71869659    0.09000000    0.20999999
   19.53944397   79.64070129    0.09000000    0.20999999
   19.54277802   77.43699646    0.09000000    0.20999999
   19.54861069   77.43699646    0.09000000    0.20999999
   19.55277634   78.93650055    0.09000000    0.20999999
   19.55611038   82.62239838    0.09000000    0.20999999
   19.55749893   78.35050201    0.09000000    0.20999999
   19.55972099   81.17960358    0.09000000    0.20999999
   19.56305504   74.26850128    0.09000000    0.20999999
   19.56638718   74.06919861    0.09000000    0.20999999
   19.56944466   82.37930298    0.09000000    0.20999999
   19.57277870   82.92369843    0.09000000    0.20999999
   19.57611275   77.85179901    0.09000000    0.20999999
   19.57916832   74.70369720    0.09000000    0.20999999
   19.58250046   80.09590149    0.09000000    0.20999999
   19.58555603   75.88549805    0.09000000    0.20999999
   19.59166718   75.88549805    0.09000000    0.20999999
   19.59583473   87.26370239    0.09000000    0.20999999
   19.59889030   78.23139954    0.09000000    0.20999999
   19.60222244   81.80999756    0.09000000    0.20999999
   19.60527802   82.86270142    0.09000000    0.20999999
   19.60861206   83.94039917    0.09000000    0.20999999
   19.61194420   77.48930359    0.09000000    0.20999999
   19.61499977   79.65450287    0.09000000    0.20999999
   19.61833382   80.14510345    0.09000000    0.20999999
   19.62166595   79.52130127    0.09000000    0.20999999
   19.62416649   79.20240021    0.09000000    0.20999999
   19.62500000   80.73809814    0.09000000    0.20999999
   19.62833405   81.56369781    0.09000000    0.20999999
   19.63444519   81.56369781    0.09000000    0.20999999
   19.63861084   81.23680115    0.09000000    0.20999999
   19.64166641   76.08360291    0.09000000    0.20999999
   19.64500046   78.85189819    0.09000000    0.20999999
   19.64833260   74.43689728    0.09000000    0.20999999
   19.65138817   77.79190063    0.09000000    0.20999999
   19.65472221   76.15239716    0.09000000    0.20999999
   19.65749931   80.40290070    0.09000000    0.20999999
   19.65833282   76.62629700    0.09000000    0.20999999
   19.66166687   75.72059631    0.09000000    0.20999999
   19.66499901   81.69239807    0.09000000    0.20999999
   19.66805458   76.81199646    0.09000000    0.20999999
   19.67138863   79.73940277    0.09000000    0.20999999
   19.67722130   79.73940277    0.09000000    0.20999999
   19.68138885   76.20629883    0.09000000    0.20999999
   19.68472099   82.57409668    0.09000000    0.20999999
   19.68777657   77.62539673    0.09000000    0.20999999
   19.69083214   87.54479980    0.09000000    0.20999999
   19.69138718   77.04060364    0.09000000    0.20999999
   19.69472122   81.94069672    0.09000000    0.20999999
   19.69805527   75.58029938    0.09000000    0.20999999
   19.70111275   78.47250366    0.09000000    0.20999999
   19.70444489   81.42040253    0.09000000    0.20999999
   19.70777893   75.74500275    0.09000000    0.20999999
   19.71083450   81.50679779    0.09000000    0.20999999
   19.71416664   83.86340332    0.09000000    0.20999999
   19.72000122   83.86340332    0.09000000    0.20999999
   19.72416687   77.71630096    0.09000000    0.20999999
   19.72750092   81.48650360    0.09000000    0.20999999
   19.73083305   82.78489685    0.09000000    0.20999999
   19.73388863   86.11499786    0.09000000    0.20999999
   19.73722267   80.30819702    0.09000000    0.20999999
   19.74027824   80.89080048    0.09000000    0.20999999
   19.74361229   79.43840027    0.09000000    0.20999999
   19.74694443   75.64559937    0.09000000    0.20999999
   19.75000000   81.66190338    0.09000000    0.20999999
   19.75333405   79.79869843    0.09000000    0.20999999
   19.75666618   77.91349792    0.09000000    0.20999999
   19.75749969   77.94960022    0.09000000    0.20999999
   19.76305580   77.94960022    0.09000000    0.20999999
   19.76722145   86.84169769    0.09000000    0.20999999
   19.77027702   79.65660095    0.09000000    0.20999999
   19.77361107   82.69409943    0.09000000    0.20999999
   19.77666664   78.39199829    0.09000000    0.20999999
   19.78000069   75.74189758    0.09000000    0.20999999
   19.78333282   80.16369629    0.09000000    0.20999999
   19.78666687   77.21399689    0.09000000    0.20999999
   19.78972244   78.41549683    0.09000000    0.20999999
   19.79083252   80.54109955    0.09000000    0.20999999
   19.79361153   80.75779724    0.09000000    0.20999999
   19.79666710   76.93939972    0.09000000    0.20999999
   19.79999924   77.10240173    0.09000000    0.20999999
   19.80583191   77.10240173    0.09000000    0.20999999
   19.80999947   74.24349976    0.09000000    0.20999999
   19.81305504   77.03179932    0.09000000    0.20999999
   19.81638718   75.98390198    0.09000000    0.20999999
   19.81972313   75.44899750    0.09000000    0.20999999
   19.82277870   78.28089905    0.09000000    0.20999999
   19.82416725   82.15509796    0.09000000    0.20999999
   19.82666779   72.57060242    0.09000000    0.20999999
   19.82972336   79.46669769    0.09000000    0.20999999
   19.83305550   78.36029816    0.09000000    0.20999999
   19.83611107   77.24610138    0.09000000    0.20999999
   19.83944511   81.99050140    0.09000000    0.20999999
   19.84277916   80.64440155    0.09000000    0.20999999
   19.84861183   80.64440155    0.09000000    0.20999999
   19.85277748   76.52040100    0.09000000    0.20999999
   19.85611153   82.17800140    0.09000000    0.20999999
   19.85750008   73.19409943    0.09000000    0.20999999
   19.85972214   76.19000244    0.09000000    0.20999999
   19.86277771   77.68669891    0.09000000    0.20999999
   19.86611176   85.70539856    0.09000000    0.20999999
   19.86916733   76.14440155    0.09000000    0.20999999
   19.87249947   79.23229980    0.09000000    0.20999999
   19.87583351   83.31359863    0.09000000    0.20999999
   19.87888908   78.62370300    0.09000000    0.20999999
   19.88222313   77.84159851    0.09000000    0.20999999
   19.88555527   82.29199982    0.09000000    0.20999999
   19.89138794   82.29199982    0.09000000    0.20999999
   19.89555550   79.70079803    0.09000000    0.20999999
   19.89888954   77.38449860    0.09000000    0.20999999
   19.90194321   77.54889679    0.09000000    0.20999999
   19.90527725   77.72530365    0.09000000    0.20999999
   19.90861130   84.47149658    0.09000000    0.20999999
   19.91166687   89.61440277    0.09000000    0.20999999
   19.91499901   78.99089813    0.09000000    0.20999999
   19.91833305   83.41719818    0.09000000    0.20999999
   19.92138863   82.64969635    0.09000000    0.20999999
   19.92416573   84.34190369    0.09000000    0.20999999
   19.92527771   82.03520203    0.09000000    0.20999999
   19.92833328   80.54969788    0.09000000    0.20999999
   19.93444443   80.54969788    0.09000000    0.20999999
   19.93833160   91.70809937    0.09000000    0.20999999
   19.94166565   81.94650269    0.09000000    0.20999999
   19.94499969   78.38150024    0.09000000    0.20999999
   19.94805527   76.67819977    0.09000000    0.20999999
   19.95138931   82.63079834    0.09000000    0.20999999
   19.95472336   85.42189789    0.09000000    0.20999999
   19.95750046   84.74109650    0.09000000    0.20999999
   19.95833397   81.77390289    0.09000000    0.20999999
   19.96138954   79.15679932    0.09000000    0.20999999
   19.96472359   80.78379822    0.09000000    0.20999999
   19.96805573   78.38009644    0.09000000    0.20999999
   19.97111130   79.21890259    0.09000000    0.20999999
   19.97722244   79.21890259    0.09000000    0.20999999
   19.98139000   80.56220245    0.09000000    0.20999999
   19.98444557   86.87699890    0.09000000    0.20999999
   19.98777771   85.30229950    0.09000000    0.20999999
   19.99083328   81.45269775    0.09000000    0.20999999
   19.99138832   85.20099640    0.09000000    0.20999999
   19.99444389   82.71099854    0.09000000    0.20999999
   19.99777794   81.02610016    0.09000000    0.20999999
   20.00111198   81.88580322    0.09000000    0.20999999
   20.00416756   86.00779724    0.09000000    0.20999999
   20.00749969   80.98529816    0.09000000    0.20999999
   20.01055527   79.63430023    0.09000000    0.20999999
   20.01388931   82.21320343    0.09000000    0.20999999
   20.02000046   82.21320343    0.09000000    0.20999999
   20.02416611   83.82559967    0.09000000    0.20999999
   20.02750015   77.70020294    0.09000000    0.20999999
   20.03055573   84.47820282    0.09000000    0.20999999
   20.03388786   82.11489868    0.09000000    0.20999999
   20.03694344   82.65570068    0.09000000    0.20999999
   20.04027748   85.76789856    0.09000000    0.20999999
   20.04361153   84.17070007    0.09000000    0.20999999
   20.04666710   77.34780121    0.09000000    0.20999999
   20.04999924   79.92230225    0.09000000    0.20999999
   20.05333328   75.26679993    0.09000000    0.20999999
   20.05638885   84.19719696    0.09000000    0.20999999
   20.05749893   81.61389923    0.09000000    0.20999999
   20.06277657   81.61389923    0.09000000    0.20999999
   20.06694603   76.72329712    0.09000000    0.20999999
   20.07027817   80.35070038    0.09000000    0.20999999
   20.07333374   82.21489716    0.09000000    0.20999999
   20.09111214   80.03170013    0.09000000    0.20999999
   20.09333420   82.14469910    0.09000000    0.20999999
   20.09666824   76.21109772    0.09000000    0.20999999
   20.10000038   83.85939789    0.09000000    0.20999999
   20.10583305   83.85939789    0.09000000    0.20999999
   20.11000061   77.31759644    0.09000000    0.20999999
   20.11333466   82.85849762    0.09000000    0.20999999
   20.11638832   81.02079773    0.09000000    0.20999999
   20.11972237   78.15889740    0.09000000    0.20999999
   20.12305641   82.59870148    0.09000000    0.20999999
   20.12416649   79.20960236    0.09000000    0.20999999
   20.12666702   84.06980133    0.09000000    0.20999999
   20.13000107   82.84190369    0.09000000    0.20999999
   20.13305473   83.73770142    0.09000000    0.20999999
   20.13638878   77.56179810    0.09000000    0.20999999
   20.13972282   85.75659943    0.09000000    0.20999999
   20.14277840   86.97129822    0.09000000    0.20999999
   20.14888954   86.97129822    0.09000000    0.20999999
   20.15277672   85.17620087    0.09000000    0.20999999
   20.15611076   79.26029968    0.09000000    0.20999999
   20.15749931   94.04250336    0.09000000    0.20999999
   20.15972137   91.16410065    0.09000000    0.20999999
   20.16305542   81.36190033    0.09000000    0.20999999
   20.16611099   78.81549835    0.09000000    0.20999999
   20.16944313   83.31790161    0.09000000    0.20999999
   20.17277718   85.19329834    0.09000000    0.20999999
   20.17583275   85.43569946    0.09000000    0.20999999
   20.17916679   82.80870056    0.09000000    0.20999999
   20.18222237   80.91829681    0.09000000    0.20999999
   20.18555450   78.20989990    0.09000000    0.20999999
   20.19166565   78.20989990    0.09000000    0.20999999
   20.19583321   81.22139740    0.09000000    0.20999999
   20.19888878   79.38490295    0.09000000    0.20999999
   20.20222282   76.83339691    0.09000000    0.20999999
   20.20555687   74.68000031    0.09000000    0.20999999
   20.20861244   75.45970154    0.09000000    0.20999999
   20.21194458   82.46340179    0.09000000    0.20999999
   20.21527863   75.92089844    0.09000000    0.20999999
   20.21833420   79.42179871    0.09000000    0.20999999
   20.22166634   76.12290192    0.09000000    0.20999999
   20.22416687   76.08039856    0.09000000    0.20999999
   20.22527885   79.65820313    0.09000000    0.20999999
   20.22861099   80.61049652    0.09000000    0.20999999
   20.23444557   80.61049652    0.09000000    0.20999999
   20.23861122   78.07640076    0.09000000    0.20999999
   20.24194527   78.84300232    0.09000000    0.20999999
   20.24500084   78.96769714    0.09000000    0.20999999
   20.24833298   77.40560150    0.09000000    0.20999999
   20.25138855   82.43250275    0.09000000    0.20999999
   20.25472260   76.65409851    0.09000000    0.20999999
   20.25749969   80.67849731    0.09000000    0.20999999
   20.25833321   79.03130341    0.09000000    0.20999999
   20.26166725   80.02510071    0.09000000    0.20999999
   20.26472282   78.65830231    0.09000000    0.20999999
   20.26805496   81.99420166    0.09000000    0.20999999
   20.27138901   80.77220154    0.09000000    0.20999999
   20.27722168   80.77220154    0.09000000    0.20999999
   20.28138924   79.13780212    0.09000000    0.20999999
   20.28472137   77.58609772    0.09000000    0.20999999
   20.28777695   78.31120300    0.09000000    0.20999999
   20.29083252   84.19819641    0.09000000    0.20999999
   20.29166603   81.96430206    0.09000000    0.20999999
   20.29500008   77.83280182    0.09000000    0.20999999
   20.29805565   83.10990143    0.09000000    0.20999999
   20.30138779   77.09410095    0.09000000    0.20999999
   20.30472183   76.21649933    0.09000000    0.20999999
   20.30777740   77.18370056    0.09000000    0.20999999
   20.31110954   76.81490326    0.09000000    0.20999999
   20.31416512   76.52189636    0.09000000    0.20999999
   20.32000160   76.52189636    0.09000000    0.20999999
   20.32416725   79.26979828    0.09000000    0.20999999
   20.32750130   76.00250244    0.09000000    0.20999999
   20.33083344   82.02940369    0.09000000    0.20999999
   20.33388901   78.22619629    0.09000000    0.20999999
   20.33722305   83.22599792    0.09000000    0.20999999
   20.34027863   79.95369720    0.09000000    0.20999999
   20.34361267   79.18029785    0.09000000    0.20999999
   20.34694481   80.29640198    0.09000000    0.20999999
   20.35000038   80.95369720    0.09000000    0.20999999
   20.35333443   85.35269928    0.09000000    0.20999999
   20.35666656   80.50730133    0.09000000    0.20999999
   20.35750008   83.00749969    0.09000000    0.20999999
   20.36305618   83.00749969    0.09000000    0.20999999
   20.36722183   82.17040253    0.09000000    0.20999999
   20.37027740   78.72949982    0.09000000    0.20999999
   20.37361145   84.39969635    0.09000000    0.20999999
   20.37666702   87.39630127    0.09000000    0.20999999
   20.38000107   80.19799805    0.09000000    0.20999999
   20.38333321   80.26570129    0.09000000    0.20999999
   20.38638878   78.57279968    0.09000000    0.20999999
   20.38972282   78.16069794    0.09000000    0.20999999
   20.39083290   82.90809631    0.09000000    0.20999999
   20.39333344   80.58080292    0.09000000    0.20999999
   20.39666748   82.96769714    0.09000000    0.20999999
   20.39972115   83.91310120    0.09000000    0.20999999
   20.40583229   83.91310120    0.09000000    0.20999999
   20.40999985   80.74949646    0.09000000    0.20999999
   20.41305542   77.19039917    0.09000000    0.20999999
   20.41638756   80.37819672    0.09000000    0.20999999
   20.41972160   75.87290192    0.09000000    0.20999999
   20.42277718   77.47689819    0.09000000    0.20999999
   20.42416573   81.41220093    0.09000000    0.20999999
   20.42638779   77.09780121    0.09000000    0.20999999
   20.42972183   76.14430237    0.09000000    0.20999999
   20.43277740   77.91549683    0.09000000    0.20999999
   20.43610954   79.74620056    0.09000000    0.20999999
   20.43944359   86.15989685    0.09000000    0.20999999
   20.44249916   85.71549988    0.09000000    0.20999999
   20.44861031   85.71549988    0.09000000    0.20999999
   20.45277786   77.92590332    0.09000000    0.20999999
   20.45611191   78.74530029    0.09000000    0.20999999
   20.45805550   77.77549744    0.09000000    0.20999999
   20.46027946   83.47350311    0.09000000    0.20999999
   20.46333504   87.42559814    0.09000000    0.20999999
   20.46666718   86.65299988    0.09000000    0.20999999
   20.46972275   81.01989746    0.09000000    0.20999999
   20.47305679   87.48899841    0.09000000    0.20999999
   20.47638893   78.68890381    0.09000000    0.20999999
   20.47944450   85.25160217    0.09000000    0.20999999
   20.48277855   83.57890320    0.09000000    0.20999999
   20.48611069   81.92919922    0.09000000    0.20999999
   20.49138832   81.92919922    0.09000000    0.20999999
   20.49555588   78.70600128    0.09000000    0.20999999
   20.49888992   81.69049835    0.09000000    0.20999999
   20.50222206   81.69539642    0.09000000    0.20999999
   20.50527763   83.34369659    0.09000000    0.20999999
   20.50861168   84.74160004    0.09000000    0.20999999
   20.51166725   87.69709778    0.09000000    0.20999999
   20.51499939   84.70629883    0.09000000    0.20999999
   20.51833344   82.86389923    0.09000000    0.20999999
   20.52138901   86.60160065    0.09000000    0.20999999
   20.52416611   86.27760315    0.09000000    0.20999999
   20.52499962   82.26989746    0.09000000    0.20999999
   20.52833366   83.19529724    0.09000000    0.20999999
   20.53444481   83.19529724    0.09000000    0.20999999
   20.53861046   81.51629639    0.09000000    0.20999999
   20.54166603   89.87000275    0.09000000    0.20999999
   20.54500008   93.70670319    0.09000000    0.20999999
   20.54805565   88.36630249    0.09000000    0.20999999
   20.55138779   83.73269653    0.09000000    0.20999999
   20.55472183   78.88500214    0.09000000    0.20999999
   20.55777740   80.23169708    0.09000000    0.20999999
   20.55833244   80.91179657    0.09000000    0.20999999
   20.56166649   93.33630371    0.09000000    0.20999999
   20.56472206   79.67910004    0.09000000    0.20999999
   20.56805611   80.05879974    0.09000000    0.20999999
   20.57139015   81.76390076    0.09000000    0.20999999
   20.57722282   81.76390076    0.09000000    0.20999999
   20.58139038   84.62490082    0.09000000    0.20999999
   20.58444595   78.43379974    0.09000000    0.20999999
   20.58777809   83.57289886    0.09000000    0.20999999
   20.59111214   80.50170135    0.09000000    0.20999999
   20.59138870   84.39730072    0.09000000    0.20999999
   20.59472275   85.31289673    0.09000000    0.20999999
   20.59777832   82.12490082    0.09000000    0.20999999
   20.60111237   78.84539795    0.09000000    0.20999999
   20.60444450   77.00279999    0.09000000    0.20999999
   20.60750008   78.25650024    0.09000000    0.20999999
   20.61083412   80.24430084    0.09000000    0.20999999
   20.61416626   77.77449799    0.09000000    0.20999999
   20.62000084   77.77449799    0.09000000    0.20999999
   20.62416649   80.67810059    0.09000000    0.20999999
   20.62472153   83.58670044    0.09000000    0.20999999
   20.62805557   81.65429688    0.09000000    0.20999999
   20.63111115   81.88639832    0.09000000    0.20999999
   20.63444519   79.19020081    0.09000000    0.20999999
   20.63777733   79.58650208    0.09000000    0.20999999
   20.64083290   80.32279968    0.09000000    0.20999999
   20.64416695   81.53669739    0.09000000    0.20999999
   20.64749908   75.14569855    0.09000000    0.20999999
   20.65055466   77.27610016    0.09000000    0.20999999
   20.65388870   78.85980225    0.09000000    0.20999999
   20.65694427   85.42009735    0.09000000    0.20999999
   20.65805435   82.97319794    0.09000000    0.20999999
   20.66277695   82.97319794    0.09000000    0.20999999
   20.66694450   77.62850189    0.09000000    0.20999999
   20.67027664   83.32199860    0.09000000    0.20999999
   20.67361069   83.05329895    0.09000000    0.20999999
   20.67666626   82.86340332    0.09000000    0.20999999
   20.68000031   80.51200104    0.09000000    0.20999999
   20.68305397   79.39170074    0.09000000    0.20999999
   20.68638802   76.69329834    0.09000000    0.20999999
   20.68972206   77.96559906    0.09000000    0.20999999
   20.69138718   79.69799805    0.09000000    0.20999999
   20.69333267   77.60500336    0.09000000    0.20999999
   20.69638824   84.88240051    0.09000000    0.20999999
   20.69972038   81.58820343    0.09000000    0.20999999
   20.70583344   81.58820343    0.09000000    0.20999999
   20.71000099   83.56569672    0.09000000    0.20999999
   20.71305656   80.01650238    0.09000000    0.20999999
   20.71638870   76.08570099    0.09000000    0.20999999
   20.71944427   74.24900055    0.09000000    0.20999999
   20.72277832   78.48410034    0.09000000    0.20999999
   20.72472191   82.32540131    0.09000000    0.20999999
   20.72666740   84.75039673    0.09000000    0.20999999
   20.72972298   78.92340088    0.09000000    0.20999999
   20.73305511   83.34230042    0.09000000    0.20999999
   20.73638916   76.42549896    0.09000000    0.20999999
   20.73944473   76.41490173    0.09000000    0.20999999
   20.74277878   81.60890198    0.09000000    0.20999999
   20.74861145   81.60890198    0.09000000    0.20999999
   20.75277710   80.76349640    0.09000000    0.20999999
   20.75583267   78.84649658    0.09000000    0.20999999
   20.75805473   82.19779968    0.09000000    0.20999999
   20.75972176   75.66220093    0.09000000    0.20999999
   20.76277733   79.90979767    0.09000000    0.20999999
   20.76611137   78.50700378    0.09000000    0.20999999
   20.76944351   82.01069641    0.09000000    0.20999999
   20.77249908   84.43750000    0.09000000    0.20999999
   20.77583313   77.90869904    0.09000000    0.20999999
   20.77888870   79.51830292    0.09000000    0.20999999
   20.78222275   79.67400360    0.09000000    0.20999999
   20.78555489   80.02369690    0.09000000    0.20999999
   20.79138756   80.02369690    0.09000000    0.20999999
   20.79555511   76.89990234    0.09000000    0.20999999
   20.79888916   75.48609924    0.09000000    0.20999999
   20.80194283   76.34269714    0.09000000    0.20999999
   20.80527687   77.10420227    0.09000000    0.20999999
   20.80861092   79.25050354    0.09000000    0.20999999
   20.81166649   81.21759796    0.09000000    0.20999999
   20.81499863   80.26139832    0.09000000    0.20999999
   20.81805611   80.90170288    0.09000000    0.20999999
   20.82139015   80.03530121    0.09000000    0.20999999
   20.82472229   76.26450348    0.09000000    0.20999999
   20.82527924   77.62390137    0.09000000    0.20999999
   20.82833481   85.32129669    0.09000000    0.20999999
   20.83416748   85.32129669    0.09000000    0.20999999
   20.83833313   84.49510193    0.09000000    0.20999999
   20.84166718   83.87000275    0.09000000    0.20999999
   20.84500122   79.70719910    0.09000000    0.20999999
   20.84805679   85.95950317    0.09000000    0.20999999
   20.85138893   78.62390137    0.09000000    0.20999999
   20.85444450   87.20179749    0.09000000    0.20999999
   20.85777855   86.42130280    0.09000000    0.20999999
   20.85861206   80.20839691    0.09000000    0.20999999
   20.86138916   83.98950195    0.09000000    0.20999999
   20.86472321   80.37049866    0.09000000    0.20999999
   20.86805534   82.75309753    0.09000000    0.20999999
   20.87111092   80.03939819    0.09000000    0.20999999
   20.87722206   80.03939819    0.09000000    0.20999999
   20.88138962   82.44170380    0.09000000    0.20999999
   20.88444519   77.78610229    0.09000000    0.20999999
   20.88777733   82.59110260    0.09000000    0.20999999
   20.89083290   81.81700134    0.09000000    0.20999999
   20.89194489   79.41339874    0.09000000    0.20999999
   20.89444351   82.44460297    0.09000000    0.20999999
   20.89777756   83.04489899    0.09000000    0.20999999
   20.90111160   87.11799622    0.09000000    0.20999999
   20.90416718   77.40670013    0.09000000    0.20999999
   20.90749931   78.81770325    0.09000000    0.20999999
   20.91055489   78.17299652    0.09000000    0.20999999
   20.91388893   85.75409698    0.09000000    0.20999999
   20.92000008   85.75409698    0.09000000    0.20999999
   20.92416573   77.89009857    0.09000000    0.20999999
   20.92527771   80.25219727    0.09000000    0.20999999
   20.92777634   81.16190338    0.09000000    0.20999999
   20.93111038   78.80480194    0.09000000    0.20999999
   20.93444443   79.80120087    0.09000000    0.20999999
   20.93750000   83.24880219    0.09000000    0.20999999
   20.94083214   82.88269806    0.09000000    0.20999999
   20.94388771   86.06510162    0.09000000    0.20999999
   20.94722176   84.17479706    0.09000000    0.20999999
   20.95055580   77.36049652    0.09000000    0.20999999
   20.95361137   81.02809906    0.09000000    0.20999999
   20.95694542   83.87169647    0.09000000    0.20999999
   20.95861244   79.64160156    0.09000000    0.20999999
   20.96277809   79.64160156    0.09000000    0.20999999
   20.96694565   80.38020325    0.09000000    0.20999999
   20.97027779   83.12139893    0.09000000    0.20999999
   20.97333336   81.46080017    0.09000000    0.20999999
   20.97666740   79.23590088    0.09000000    0.20999999
   20.98000145   84.47299957    0.09000000    0.20999999
   20.98305511   81.61289978    0.09000000    0.20999999
   20.98638916   88.59880066    0.09000000    0.20999999
   20.98972321   85.44360352    0.09000000    0.20999999
   20.99194527   84.49659729    0.09000000    0.20999999
   20.99305534   83.38120270    0.09000000    0.20999999
   20.99638939   85.95069885    0.09000000    0.20999999
   20.99972153   82.39929962    0.09000000    0.20999999
   21.00555611   82.39929962    0.09000000    0.20999999
   21.00972176   88.78440094    0.09000000    0.20999999
   21.01305580   81.74259949    0.09000000    0.20999999
   21.01611137   79.85369873    0.09000000    0.20999999
   21.01944351   78.38950348    0.09000000    0.20999999
   21.02277756   78.68710327    0.09000000    0.20999999
   21.02527809   85.03009796    0.09000000    0.20999999
   21.02611160   81.90989685    0.09000000    0.20999999
   21.02944374   84.01940155    0.09000000    0.20999999
   21.03277779   82.68199921    0.09000000    0.20999999
   21.03583336   82.49629974    0.09000000    0.20999999
   21.03916550   77.09590149    0.09000000    0.20999999
   21.04222107   80.40209961    0.09000000    0.20999999
   21.04888916   80.40209961    0.09000000    0.20999999
   21.05333328   82.02400208    0.09000000    0.20999999
   21.05666542   83.87950134    0.09000000    0.20999999
   21.05861092   84.35880280    0.09000000    0.20999999
   21.05999947   90.52200317    0.09000000    0.20999999
   21.06333351   86.17209625    0.09000000    0.20999999
   21.06666756   84.44560242    0.09000000    0.20999999
   21.06972313   82.34970093    0.09000000    0.20999999
   21.07305717   84.29000092    0.09000000    0.20999999
   21.07638931   86.45539856    0.09000000    0.20999999
   21.07944489   83.28489685    0.09000000    0.20999999
   21.08277893   84.27940369    0.09000000    0.20999999
   21.08583450   81.80529785    0.09000000    0.20999999
   21.09138870   81.80529785    0.09000000    0.20999999
   21.10972214   82.31809998    0.09000000    0.20999999
   21.11305618   80.54389954    0.09000000    0.20999999
   21.11611176   80.57830048    0.09000000    0.20999999
   21.11944389   81.18769836    0.09000000    0.20999999
   21.12277794   84.32649994    0.09000000    0.20999999
   21.12583351   80.38359833    0.09000000    0.20999999
   21.12916756   77.09639740    0.09000000    0.20999999
   21.13444519   77.09639740    0.09000000    0.20999999
   21.13861084   85.37629700    0.09000000    0.20999999
   21.14194489   96.84130096    0.09000000    0.20999999
   21.14277840   89.64430237    0.09000000    0.20999999
   21.14555550   93.08809662    0.09000000    0.20999999
   21.14861107   83.71880341    0.09000000    0.20999999
   21.15194321   85.61779785    0.09000000    0.20999999
   21.15527725   84.06439972    0.09000000    0.20999999
   21.15833282   84.67690277    0.09000000    0.20999999
   21.16166687   82.26719666    0.09000000    0.20999999
   21.16499901   84.82180023    0.09000000    0.20999999
   21.16805458   84.49729919    0.09000000    0.20999999
   21.17138863   84.20230103    0.09000000    0.20999999
   21.17722130   84.20230103    0.09000000    0.20999999
   21.18138885   82.53209686    0.09000000    0.20999999
   21.18472099   84.30039978    0.09000000    0.20999999
   21.18777657   86.02570343    0.09000000    0.20999999
   21.19111061   92.87979889    0.09000000    0.20999999
   21.19444275   86.50720215    0.09000000    0.20999999
   21.19749832   86.07949829    0.09000000    0.20999999
   21.20083427   88.38469696    0.09000000    0.20999999
   21.20416832   88.52860260    0.09000000    0.20999999
   21.20722389   90.56980133    0.09000000    0.20999999
   21.20944595   87.00199890    0.09000000    0.20999999
   21.21111107   84.13150024    0.09000000    0.20999999
   21.21416664   82.94619751    0.09000000    0.20999999
   21.22027779   82.94619751    0.09000000    0.20999999
   21.22416687   85.45729828    0.09000000    0.20999999
   21.22750092   84.71839905    0.09000000    0.20999999
   21.23083305   88.60089874    0.09000000    0.20999999
   21.23388863   89.32630157    0.09000000    0.20999999
   21.23722267   86.78739929    0.09000000    0.20999999
   21.24055672   91.91149902    0.09000000    0.20999999
   21.24277878   83.10569763    0.09000000    0.20999999
   21.24416733   86.63939667    0.09000000    0.20999999
   21.24722290   80.24430084    0.09000000    0.20999999
   21.25055504   81.61270142    0.09000000    0.20999999
   21.25388908   87.56880188    0.09000000    0.20999999
   21.25694466   83.08029938    0.09000000    0.20999999
   21.26305580   83.08029938    0.09000000    0.20999999
   21.26722145   85.68460083    0.09000000    0.20999999
   21.27027702   85.89679718    0.09000000    0.20999999
   21.27361107   81.77400208    0.09000000    0.20999999
   21.27611160   78.94300079    0.09000000    0.20999999
   21.27722168   83.55840302    0.09000000    0.20999999
   21.28027725   83.22850037    0.09000000    0.20999999
   21.28361130   91.55500031    0.09000000    0.20999999
   21.28694344   85.95909882    0.09000000    0.20999999
   21.28999901   83.71410370    0.09000000    0.20999999
   21.29333305   85.50830078    0.09000000    0.20999999
   21.29666710   86.78279877    0.09000000    0.20999999
   21.29972076   86.93489838    0.09000000    0.20999999
   21.30583191   86.93489838    0.09000000    0.20999999
   21.30999947   83.02890015    0.09000000    0.20999999
   21.31333351   88.00389862    0.09000000    0.20999999
   21.31638718   85.75440216    0.09000000    0.20999999
   21.31972313   90.76080322    0.09000000    0.20999999
   21.32277870   88.03050232    0.09000000    0.20999999
   21.32611275   89.69730377    0.09000000    0.20999999
   21.32944489   87.04820251    0.09000000    0.20999999
   21.33277893   85.14900208    0.09000000    0.20999999
   21.33583450   82.68530273    0.09000000    0.20999999
   21.33916664   82.64689636    0.09000000    0.20999999
   21.34222221   82.88469696    0.09000000    0.20999999
   21.34277916   81.92700195    0.09000000    0.20999999
   21.34861183   81.92700195    0.09000000    0.20999999
   21.35277748   87.64559937    0.09000000    0.20999999
   21.35611153   78.12979889    0.09000000    0.20999999
   21.35916710   82.44229889    0.09000000    0.20999999
   21.36250114   86.35440063    0.09000000    0.20999999
   21.36583328   82.61640167    0.09000000    0.20999999
   21.36888885   84.10649872    0.09000000    0.20999999
   21.37222290   83.04429626    0.09000000    0.20999999
   21.37527847   85.34539795    0.09000000    0.20999999
   21.37611198   88.63670349    0.09000000    0.20999999
   21.37888908   89.40850067    0.09000000    0.20999999
   21.38222313   92.94850159    0.09000000    0.20999999
   21.38527679   85.58329773    0.09000000    0.20999999
   21.39138794   85.58329773    0.09000000    0.20999999
   21.39555550   84.97409821    0.09000000    0.20999999
   21.39888954   88.97109985    0.09000000    0.20999999
   21.40222168   82.23979950    0.09000000    0.20999999
   21.40527725   83.39610291    0.09000000    0.20999999
   21.40861130   82.81099701    0.09000000    0.20999999
   21.40944481   84.30500031    0.09000000    0.20999999
   21.41222191   82.16000366    0.09000000    0.20999999
   21.41555595   80.68090057    0.09000000    0.20999999
   21.41860962   82.70149994    0.09000000    0.20999999
   21.42194366   85.03900146    0.09000000    0.20999999
   21.42527771   88.53189850    0.09000000    0.20999999
   21.42833328   84.38600159    0.09000000    0.20999999
   21.43444443   84.38600159    0.09000000    0.20999999
   21.43861008   84.17150116    0.09000000    0.20999999
   21.44166565   84.54290009    0.09000000    0.20999999
   21.44277763   91.16040039    0.09000000    0.20999999
   21.44527626   85.16919708    0.09000000    0.20999999
   21.44861031   76.95480347    0.09000000    0.20999999
   21.45166779   81.34639740    0.09000000    0.20999999
   21.45499992   82.98600006    0.09000000    0.20999999
   21.45833397   83.55480194    0.09000000    0.20999999
   21.46138954   85.76429749    0.09000000    0.20999999
   21.46472359   85.73439789    0.09000000    0.20999999
   21.46777916   88.50700378    0.09000000    0.20999999
   21.47111130   85.87719727    0.09000000    0.20999999
   21.47722244   85.87719727    0.09000000    0.20999999
   21.48139000   87.99739838    0.09000000    0.20999999
   21.48472214   81.86750031    0.09000000    0.20999999
   21.48777771   82.35959625    0.09000000    0.20999999
   21.49111176   84.55770111    0.09000000    0.20999999
   21.49416733   84.10310364    0.09000000    0.20999999
   21.49749947   85.59200287    0.09000000    0.20999999
   21.50083351   83.05740356    0.09000000    0.20999999
   21.50388908   73.91400146    0.09000000    0.20999999
   21.50722313   82.08439636    0.09000000    0.20999999
   21.50944519   80.64420319    0.09000000    0.20999999
   21.51083374   86.73770142    0.09000000    0.20999999
   21.51416588   78.99780273    0.09000000    0.20999999
   21.52000046   78.99780273    0.09000000    0.20999999
   21.52416611   81.00309753    0.09000000    0.20999999
   21.52750015   82.91490173    0.09000000    0.20999999
   21.53055573   87.51889801    0.09000000    0.20999999
   21.53388786   79.06559753    0.09000000    0.20999999
   21.53722191   77.72940063    0.09000000    0.20999999
   21.54027748   80.47180176    0.09000000    0.20999999
   21.54277802   84.14330292    0.09000000    0.20999999
   21.54388809   82.70999908    0.09000000    0.20999999
   21.54722214   82.31739807    0.09000000    0.20999999
   21.55027771   82.66339874    0.09000000    0.20999999
   21.55360985   87.11389923    0.09000000    0.20999999
   21.55694389   85.85440063    0.09000000    0.20999999
   21.56277657   85.85440063    0.09000000    0.20999999
   21.56694603   85.33119965    0.09000000    0.20999999
   21.57027817   84.40350342    0.09000000    0.20999999
   21.57361221   79.80629730    0.09000000    0.20999999
   21.57611275   84.67870331    0.09000000    0.20999999
   21.57722282   91.30470276    0.09000000    0.20999999
   21.58055687   87.08650208    0.09000000    0.20999999
   21.58361244   84.72139740    0.09000000    0.20999999
   21.58694458   82.15010071    0.09000000    0.20999999
   21.59027863   80.97010040    0.09000000    0.20999999
   21.59333420   83.27429962    0.09000000    0.20999999
   21.59666824   86.54229736    0.09000000    0.20999999
   21.59972191   82.41870117    0.09000000    0.20999999
   21.60583305   82.41870117    0.09000000    0.20999999
   21.61000061   87.35199738    0.09000000    0.20999999
   21.61305618   85.65190125    0.09000000    0.20999999
   21.61638832   83.46240234    0.09000000    0.20999999
   21.61944389   83.47859955    0.09000000    0.20999999
   21.62277794   83.20739746    0.09000000    0.20999999
   21.62611198   88.31590271    0.09000000    0.20999999
   21.62916756   82.10209656    0.09000000    0.20999999
   21.63249969   82.21389771    0.09000000    0.20999999
   21.63583374   83.22489929    0.09000000    0.20999999
   21.63888931   82.42489624    0.09000000    0.20999999
   21.64222145   85.48560333    0.09000000    0.20999999
   21.64277840   87.17569733    0.09000000    0.20999999
   21.64861107   87.17569733    0.09000000    0.20999999
   21.65277672   94.28140259    0.09000000    0.20999999
   21.65583229   89.65480042    0.09000000    0.20999999
   21.65916634   97.19170380    0.09000000    0.20999999
   21.66250038   87.00990295    0.09000000    0.20999999
   21.66583252   83.45829773    0.09000000    0.20999999
   21.66888809   97.53309631    0.09000000    0.20999999
