    HOUR (UT)   FLARE FACTOR    SKY TESTER    SUN TESTER
   12.30888939   -1.00000000   -1.00000000   -1.00000000
   12.33055592  205.24299622    1.39999998    1.86000001
   12.33611107  201.31199646    1.39999998    1.88000000
   12.33944416  188.66400146    1.39999998    1.88000000
   12.34249973  155.47599792    1.39999998    1.86000001
   12.34583282  168.99299622    1.39999998    1.86000001
   12.34916592  162.07499695    1.33000004    1.88000000
   12.35222244  154.68400574    1.33000004    1.89999998
   12.35583401  166.71000671    1.33000004    1.88000000
   12.35916710  172.84199524    1.33000004    1.89999998
   12.36222267  141.83999634    1.33000004    1.89999998
   12.36361122  168.67399597    1.33000004    1.89999998
   12.36583328  191.19000244    1.33000004    1.89999998
   12.36916637  215.36300659    1.33000004    1.89999998
   12.37250042  160.28799438    1.33000004    1.91999996
   12.37555599  145.12699890    1.33000004    1.89999998
   12.37888908  147.50900269    1.30999994    1.91999996
   12.38222218  123.26100159    1.28999996    1.91999996
   12.38527775  149.84399414    1.28999996    1.91999996
   12.38861084  133.22399902    1.26999998    1.91999996
   12.39166641  154.19400024    1.26999998    1.94000006
   12.39499950  139.41499329    1.26999998    1.94000006
   12.39694405  148.93699646    1.25000000    1.94000006
   12.39861107  147.50399780    1.25000000    1.94000006
   12.40194416  162.13900757    1.25000000    1.94000006
   12.40527725  154.87300110    1.25000000    1.94000006
   12.40833282  124.19300079    1.26999998    1.94000006
   12.41166592  144.93099976    1.26999998    1.94000006
   12.41499996  150.77299500    1.26999998    1.94000006
   12.41805553  138.80799866    1.26999998    1.96000004
   12.42138958  148.55499268    1.26999998    1.96000004
   12.42444515  152.91700745    1.26999998    1.96000004
   12.42777824  128.04699707    1.25000000    1.96000004
   12.43027782  152.90800476    1.23000002    1.96000004
   12.43138885  150.87899780    1.23000002    1.96000004
   12.43472195  164.42599487    1.23000002    1.98000002
   12.43805599  144.13299561    1.25000000    1.96000004
   12.44111156  150.36999512    1.25000000    1.96000004
   12.44444466  140.31300354    1.25000000    1.98000002
   12.44777775  138.30499268    1.23000002    1.98000002
   12.45083332  163.62399292    1.21000004    1.98000002
   12.45416641  145.90800476    1.21000004    1.98000002
   12.45722198  168.36000061    1.21000004    1.98000002
   12.46055508  135.96200562    1.19000006    1.98000002
   12.46361065  151.67599487    1.19000006    2.00000000
   12.46416664  148.46499634    1.16999996    2.00000000
   12.46749973  139.16600037    1.16999996    2.00000000
   12.47083282  151.25700378    1.16999996    2.00000000
   12.47388840  147.06599426    1.16999996    2.00000000
   12.47722149  126.93499756    1.19000006    2.00000000
   12.48027706  158.30900574    1.16999996    2.00000000
   12.48361111  179.15600586    1.19000006    2.01999998
   12.48694515  129.75700378    1.19000006    2.00000000
   12.49000072  134.33399963    1.19000006    2.00000000
   12.49333382  141.56399536    1.16999996    2.01999998
   12.49666691  132.41200256    1.16999996    2.00000000
   12.49722290  119.37699890    1.16999996    2.01999998
   12.50027752  129.45300293    1.16999996    2.01999998
   12.50361156  102.55599976    1.16999996    2.01999998
   12.50666714  113.01699829    1.14999998    2.01999998
   12.51000023  108.43399811    1.16999996    2.01999998
   12.51333332  104.60700226    1.14999998    2.01999998
   12.51638889  112.16200256    1.16999996    2.01999998
   12.51972198  106.51699829    1.16999996    2.03999996
   12.52305508  105.67500305    1.16999996    2.03999996
   12.52611065  105.65599823    1.16999996    2.03999996
   12.52944374  102.63600159    1.16999996    2.03999996
   12.53055573  110.82199860    1.16999996    2.03999996
   12.53305531  115.20700073    1.16999996    2.05999994
   12.53638935  114.81099701    1.16999996    2.05999994
   12.53944492  116.36699677    1.16999996    2.05999994
   12.54277802  111.26000214    1.16999996    2.03999996
   12.54611111  114.41000366    1.19000006    2.05999994
   12.54916668  111.60199738    1.19000006    2.03999996
   12.55249977  106.01999664    1.19000006    2.03999996
   12.55583382  121.31900024    1.19000006    2.05999994
   12.55888939  115.21800232    1.19000006    2.05999994
   12.56222248  112.39199829    1.19000006    2.05999994
   12.56388950  114.51599884    1.19000006    2.05999994
   12.56583309  109.46499634    1.19000006    2.07999992
   12.56916618  112.07700348    1.19000006    2.05999994
   12.57222176  105.75900269    1.16999996    2.07999992
   12.57555580  106.51100159    1.16999996    2.07999992
   12.57888889   98.55599976    1.14999998    2.07999992
   12.58194447  103.30899811    1.14999998    2.07999992
   12.58527756   94.45719910    1.14999998    2.07999992
   12.58861065   95.75319672    1.14999998    2.07999992
   12.59166622  101.14600372    1.14999998    2.07999992
   12.59499931  101.01100159    1.14999998    2.09999990
   12.59722233  104.25199890    1.14999998    2.09999990
   12.59861088  100.06199646    1.14999998    2.09999990
   12.60194492   96.71630096    1.14999998    2.09999990
   12.60500050   96.20469666    1.14999998    2.09999990
   12.60833359   99.76940155    1.14999998    2.09999990
   12.61166668   88.70410156    1.14999998    2.09999990
   12.61472225  108.33300018    1.14999998    2.09999990
   12.61805534   98.85559845    1.14999998    2.09999990
   12.62138939   96.82559967    1.14999998    2.09999990
   12.62444496   92.04010010    1.16999996    2.09999990
   12.62777805   94.71369934    1.16999996    2.11999989
   12.63055611   81.12239838    1.16999996    2.11999989
   12.63138866   92.05380249    1.16999996    2.11999989
   12.63472176   97.03790283    1.14999998    2.09999990
   12.63805580   93.20749664    1.14999998    2.11999989
   12.64111137   99.09149933    1.13000000    2.11999989
   12.64444447   91.79979706    1.13000000    2.11999989
   12.64750004  102.87300110    1.11000001    2.11999989
   12.65083313  101.37400055    1.13000000    2.11999989
   12.65416622   93.50800323    1.11000001    2.11999989
   12.65722179   99.46610260    1.11000001    2.11999989
   12.66055489   91.90799713    1.11000001    2.11999989
   12.66388893   94.84369659    1.11000001    2.13000011
   12.66416645   98.59089661    1.11000001    2.13000011
   12.66750050   95.35399628    1.09000003    2.13000011
   12.67083359   92.55560303    1.09000003    2.13000011
   12.67388916   90.68049622    1.09000003    2.13000011
   12.67722225   93.39749908    1.09000003    2.13000011
   12.68027782   84.59339905    1.09000003    2.13000011
   12.68361092   90.31320190    1.09000003    2.11999989
   12.68694496   92.10810089    1.09000003    2.13000011
   12.69000053   94.01570129    1.07000005    2.13000011
   12.69333363   96.51899719    1.07000005    2.15000010
   12.69666672   89.19770050    1.07000005    2.15000010
   12.69722271   98.06369781    1.05999994    2.15000010
   12.69999981   93.60179901    1.07000005    2.15000010
   12.70333290   88.98190308    1.07000005    2.17000008
   12.70666695   82.87570190    1.07000005    2.17000008
   12.70972157   93.33670044    1.07000005    2.17000008
   12.71305561   98.74680328    1.09000003    2.15000010
   12.71611118   87.48529816    1.09000003    2.15000010
   12.71944427   88.58360291    1.09000003    2.15000010
   12.72277737   97.09220123    1.09000003    2.17000008
   12.72583294   86.60320282    1.09000003    2.17000008
   12.72916603   95.80460358    1.09000003    2.17000008
   12.73055553   86.75920105    1.09000003    2.17000008
   12.73277760   94.98850250    1.09000003    2.17000008
   12.73611164   99.59400177    1.09000003    2.17000008
   12.73944473   97.11530304    1.09000003    2.17000008
   12.74250031   93.86150360    1.09000003    2.17000008
   12.74583340   94.23149872    1.09000003    2.17000008
   12.74888897  112.37599945    1.09000003    2.17000008
   12.75222206  102.84500122    1.09000003    2.17000008
   12.75555515  120.76999664    1.09000003    2.17000008
   12.75861073  104.09999847    1.09000003    2.17000008
   12.76194477   94.68669891    1.07000005    2.17000008
   12.76388931   95.08329773    1.09000003    2.17000008
   12.76555538   98.47930145    1.07000005    2.17000008
   12.76888847  102.64700317    1.05999994    2.19000006
   12.77222157  121.33399963    1.05999994    2.19000006
   12.77527714  108.80300140    1.05999994    2.19000006
   12.77861118   97.02010345    1.05999994    2.19000006
   12.78166676  111.89399719    1.03999996    2.19000006
   12.78500080  106.61599731    1.05999994    2.19000006
   12.78833389  101.33399963    1.03999996    2.19000006
   12.79138947  108.65599823    1.03999996    2.19000006
   12.79472256  100.87500000    1.03999996    2.21000004
   12.79750061   96.12750244    1.03999996    2.21000004
   12.79888916   85.19149780    1.03999996    2.21000004
   12.80194473  102.04199982    1.03999996    2.19000006
   12.80527782   87.94370270    1.01999998    2.21000004
   12.80833340   94.58789825    1.01999998    2.21000004
   12.81166649  113.06700134    1.00000000    2.21000004
   12.81500053   92.01139832    1.00000000    2.21000004
   12.81805515   87.59989929    1.00000000    2.21000004
   12.82138920   91.51460266    1.00000000    2.21000004
   12.82472229   92.23439789    0.98000002    2.21000004
   12.82805538   85.46869659    0.98000002    2.21000004
   12.83055592  104.13300323    1.00000000    2.23000002
   12.83166695   89.04039764    0.98000002    2.23000002
   12.83500004  106.67099762    0.98000002    2.23000002
   12.83833313   95.85299683    1.00000000    2.21000004
   12.84138870   99.72640228    1.00000000    2.23000002
   12.84472179   97.48130035    1.00000000    2.23000002
   12.84805489   93.80210114    1.00000000    2.21000004
   12.85111141   93.26730347    0.98000002    2.23000002
   12.85444450  112.46199799    0.98000002    2.23000002
   12.85750008  113.14299774    0.98000002    2.23000002
   12.86083412  103.20600128    0.98000002    2.23000002
   12.86388969  107.69000244    0.98000002    2.23000002
   12.86444473  111.24500275    0.98000002    2.23000002
   12.86777782  126.66500092    0.98000002    2.25000000
   12.87111092  122.29100037    1.00000000    2.25000000
   12.87416649  137.83099365    0.98000002    2.25000000
   12.87750053  127.20200348    0.98000002    2.25000000
   12.88083363  148.25999451    0.95999998    2.25000000
   12.88388920  139.05299377    0.95999998    2.25000000
   12.88722229  136.96800232    0.95999998    2.25000000
   12.89027786  119.67099762    0.95999998    2.25000000
   12.89361095  119.45500183    0.95999998    2.25000000
   12.89694405  105.86399841    0.98000002    2.25000000
   12.89750004  121.87999725    0.95999998    2.25000000
   12.90055561  107.80699921    0.98000002    2.25000000
   12.90388870  119.00399780    0.98000002    2.25000000
   12.90694427   98.56199646    0.98000002    2.25000000
   12.91027737   99.64179993    0.98000002    2.25000000
   12.91361046  100.47399902    0.98000002    2.25000000
   12.91666698  104.32499695    0.98000002    2.25000000
   12.92000008  104.31099701    0.95999998    2.25000000
   12.92333412   99.58830261    0.95999998    2.26999998
   12.92638874  111.31600189    0.94000000    2.26999998
   12.92972279   94.81040192    0.94000000    2.25000000
   12.93083382   99.84200287    0.94000000    2.26999998
   12.93333340   88.58609772    0.94000000    2.28999996
   12.93666649   96.73439789    0.94000000    2.28999996
   12.94000053   88.88480377    0.94000000    2.26999998
   12.94305515   94.07369995    0.95999998    2.26999998
   12.94638920   93.67990112    0.94000000    2.26999998
   12.94944477   86.53230286    0.95999998    2.26999998
   12.95277786   85.96019745    0.95999998    2.28999996
   12.95611095   89.27639771    0.98000002    2.26999998
   12.95916653   86.32710266    0.95999998    2.26999998
   12.96249962   84.71559906    0.95999998    2.26999998
   12.96416664   84.66359711    0.98000002    2.26999998
   12.96611118   95.47660065    0.98000002    2.26999998
   12.96944427   82.93840027    0.95999998    2.26999998
   12.97277737   96.18750000    0.94000000    2.28999996
   12.97583294   87.41280365    0.94000000    2.26999998
   12.97916603   90.79419708    0.92000002    2.28999996
   12.98222160   98.99179840    0.92000002    2.28999996
   12.98555565   87.55860138    0.92000002    2.26999998
   12.98888874   90.41719818    0.92000002    2.28999996
   12.99194431   87.80079651    0.92000002    2.28999996
   12.99527836   83.73429871    0.92000002    2.28999996
   12.99750042   89.94920349    0.92000002    2.28999996
   12.99888897   95.04589844    0.92000002    2.30999994
   13.00222206   94.97720337    0.92000002    2.28999996
   13.00555515  103.68000031    0.92000002    2.28999996
   13.00861073   97.98919678    0.92000002    2.30999994
   13.01194477   90.90630341    0.92000002    2.30999994
   13.01500034   89.31900024    0.92000002    2.28999996
   13.01833344   83.82910156    0.92000002    2.30999994
   13.02166653   91.28900146    0.92000002    2.30999994
   13.02472210  104.12599945    0.92000002    2.30999994
   13.02805519  102.82199860    0.94000000    2.30999994
   13.03083324  100.61699677    0.92000002    2.30999994
   13.03166676  104.79699707    0.92000002    2.30999994
   13.03500080  109.03199768    0.92000002    2.30999994
   13.03833389  106.62899780    0.92000002    2.30999994
   13.04138947  105.05500031    0.94000000    2.30999994
   13.04472256   97.57599640    0.94000000    2.30999994
   13.04777813  101.88300323    0.94000000    2.30999994
   13.05111122   99.92420197    0.94000000    2.30999994
   13.05444431  108.51799774    0.94000000    2.30999994
   13.05749989   91.55210114    0.94000000    2.30999994
   13.06083393  108.12400055    0.95999998    2.30999994
   13.06416702  106.00900269    0.95999998    2.30999994
   13.06444454  112.66100311    0.98000002    2.30999994
   13.06777763  106.12799835    0.95999998    2.30999994
   13.07111073  100.25199890    0.95999998    2.32999992
   13.07416630  113.98200226    0.95999998    2.32999992
   13.07750034  123.98600006    0.95999998    2.32999992
   13.08055592  104.41899872    0.95999998    2.32999992
   13.08388901  122.40899658    0.95999998    2.32999992
   13.08722210  108.60700226    0.95999998    2.32999992
   13.09027767  100.19899750    0.95999998    2.32999992
   13.09361076   96.11630249    0.94000000    2.32999992
   13.09694386  122.50199890    0.94000000    2.32999992
   13.09749985  105.20899963    0.94000000    2.32999992
   13.10027790   98.55930328    0.92000002    2.32999992
   13.10361195  106.46700287    0.89999998    2.32999992
   13.10694504  118.64299774    0.92000002    2.32999992
   13.11000061  112.61299896    0.89999998    2.32999992
   13.11333370  115.33399963    0.89999998    2.32999992
   13.11638927  124.76200104    1.19000006    2.32999992
   13.11972237  122.03500366    1.30999994    2.34999990
   13.12305546  124.78399658    2.21000004    2.32999992
   13.12611103  120.55100250    2.46000004    2.34999990
   13.12944412  129.50000000    2.93000007    2.34999990
   13.13083363   99.30300140    2.91000009    2.34999990
   13.13305569  132.85299683    2.80999994    2.34999990
   13.13638878  124.68900299    2.23000002    2.30999994
   13.13972187  126.89199829    2.17000008    2.30999994
   13.14277744  123.12599945    2.09999990    2.32999992
   13.14611053  114.61900330    2.01999998    2.34999990
   13.14916611  110.11499786    2.03999996    2.34999990
   13.15249920  106.26200104    2.15000010    2.36999989
   13.15583324  114.51599884    1.76999998    2.34999990
   13.15888882  121.61399841    1.25000000    2.34999990
   13.16222191  131.11300659    0.94000000    2.34999990
   13.16416645  130.60299683    0.92000002    2.36999989
   13.16583252  118.72699738    0.89999998    2.34999990
   13.16916656  136.77499390    0.92000002    2.34999990
   13.17250061  136.11999512    0.92000002    2.34999990
   13.17555618  115.14199829    0.89999998    2.36999989
   13.17888927  117.97000122    0.92000002    2.36999989
   13.18194485  136.45799255    0.94000000    2.34999990
   13.18527794  132.80299377    0.94000000    2.36999989
   13.18861103  151.15499878    0.92000002    2.36999989
   13.19166660  154.76699829    0.92000002    2.36999989
   13.19499969  165.17500305    0.92000002    2.34999990
   13.19750023  161.87300110    0.92000002    2.36999989
   13.19861126  169.58200073    0.92000002    2.36999989
   13.20194435  155.98500061    0.89999998    2.34999990
   13.20527744  158.97000122    0.89999998    2.36999989
   13.20833302  145.70300293    0.88000000    2.36999989
   13.21166611  139.47799683    0.86000001    2.36999989
   13.21500015  142.88900757    0.86000001    2.36999989
   13.21805477  151.46499634    0.86000001    2.36999989
   13.22138882  141.26400757    0.83999997    2.39000010
   13.22472191  146.23100281    0.83999997    2.39000010
   13.22777748  142.12899780    0.83999997    2.36999989
   13.23083305  144.60699463    0.83999997    2.39000010
   13.23166656  140.69099426    0.81999999    2.39000010
   13.23500061  157.32200623    0.83999997    2.39000010
   13.23833370  153.59700012    0.81999999    2.39000010
   13.24138927  159.36700439    0.81999999    2.39000010
   13.24472237  159.86000061    0.80000001    2.39000010
   13.24805546  161.13999939    0.81999999    2.39000010
   13.25111103  139.97000122    0.83999997    2.39000010
   13.25444412  141.36599731    0.83999997    2.39000010
   13.25749969  147.77099609    0.83999997    2.39000010
   13.26083374  153.71699524    0.83999997    2.39000010
   13.26444435  125.37400055    0.83999997    2.39000010
   13.26500034  141.82099915    0.83999997    2.39000010
   13.26833344  132.00500488    0.83999997    2.39000010
   13.27166653  143.61999512    0.86000001    2.39000010
   13.27472210  143.95700073    0.86000001    2.39000010
   13.27805519  141.27999878    0.86000001    2.39000010
   13.28138828  150.00900269    0.86000001    2.40000010
   13.28444481  139.21899414    0.86000001    2.39000010
   13.28777790  146.84399414    0.83999997    2.39000010
   13.29111195  140.83799744    0.81999999    2.39000010
   13.29416752  152.23500061    0.81999999    2.39000010
   13.29750061  131.51600647    0.81999999    2.40000010
   13.29805565  127.54100037    0.81999999    2.40000010
   13.30111122  128.35400391    0.81999999    2.40000010
   13.30444431  132.99899292    0.83999997    2.40000010
   13.30749989  132.46000671    0.83999997    2.39000010
   13.31083393  129.51800537    0.81999999    2.40000010
   13.31416702  131.70700073    0.81999999    2.39000010
   13.31750011  129.09100342    0.81999999    2.40000010
   13.32055569  132.65199280    0.81999999    2.40000010
   13.32388878  146.61500549    0.81999999    2.40000010
   13.32722187  134.26100159    0.81999999    2.40000010
   13.34666634  132.44299316    0.81999999    2.40000010
   13.34722233  118.97100067    0.80000001    2.40000010
   13.35055637  124.81099701    0.81999999    2.40000010
   13.35388947  121.35399628    0.80000001    2.40000010
   13.35694504  129.95300293    0.80000001    2.40000010
   13.36027813  137.44900513    0.80000001    2.40000010
   13.36361122  119.25700378    0.79000002    2.40000010
   13.36666679  130.26800537    0.79000002    2.42000008
   13.36999989  121.72899628    0.79000002    2.42000008
   13.37333393  135.70199585    0.79000002    2.42000008
   13.37638855  131.24499512    0.79000002    2.42000008
   13.37972260  121.88999939    0.80000001    2.42000008
   13.38055611  124.08599854    0.80000001    2.42000008
   13.38333321  120.99199677    0.80000001    2.42000008
   13.38666630  126.71700287    0.80000001    2.42000008
   13.38972187  123.60399628    0.80000001    2.42000008
   13.39305496  120.32700348    0.80000001    2.40000010
   13.39638901  124.85700226    0.79000002    2.42000008
   13.39972210  118.31600189    0.79000002    2.42000008
   13.40305519  128.59700012    0.80000001    2.42000008
   13.40611076  137.88499451    0.79000002    2.42000008
   13.40944386  133.33599854    0.79000002    2.42000008
   13.41249943  128.63299561    0.79000002    2.44000006
   13.41416645  134.56100464    0.76999998    2.44000006
   13.41611099  128.88999939    0.76999998    2.40000010
   13.41944504  124.52200317    0.79000002    2.44000006
   13.42250061  129.22599792    0.79000002    2.44000006
   13.42583370  119.56900024    0.79000002    2.42000008
   13.42916679  131.26899719    0.79000002    2.42000008
   13.43222237  126.76300049    0.79000002    2.42000008
   13.43555546  133.43800354    0.79000002    2.42000008
   13.43888855  125.58699799    0.79000002    2.42000008
   13.44222260  122.12799835    0.79000002    2.42000008
   13.44527817  130.64999390    0.76999998    2.44000006
   13.44750023  114.30899811    0.79000002    2.42000008
   13.44916630  122.45999908    0.76999998    2.44000006
   13.45249939  121.33300018    0.79000002    2.44000006
   13.45583344  113.76499939    0.79000002    2.44000006
   13.45888901  115.93199921    0.76999998    2.44000006
   13.46222210  126.27799988    0.76999998    2.46000004
   13.46555519  107.76999664    0.76999998    2.44000006
   13.46861076  117.72799683    0.76999998    2.42000008
   13.47194386  118.95200348    0.76999998    2.44000006
   13.47527695  112.90100098    0.75000000    2.44000006
   13.47833252  112.31700134    0.76999998    2.44000006
   13.48083305  109.26599884    0.79000002    2.44000006
   13.48222160  117.62699890    0.76999998    2.42000008
   13.48527813  111.37899780    0.76999998    2.44000006
   13.48861122  115.31300354    0.76999998    2.44000006
   13.49194431  112.81999969    0.76999998    2.42000008
   13.49527836  105.39900208    0.76999998    2.44000006
   13.49861145  108.24900055    0.76999998    2.44000006
   13.50166702  118.49600220    0.76999998    2.44000006
   13.50500011  126.41999817    0.76999998    2.46000004
   13.50833321  123.80500031    0.75000000    2.46000004
   13.51166630  128.87600708    0.76999998    2.46000004
   13.51416683  122.60299683    0.76999998    2.46000004
   13.51555538  123.13999939    0.76999998    2.46000004
   13.51861095  121.48999786    0.76999998    2.46000004
   13.52194405  118.81500244    0.75000000    2.44000006
   13.52527714  118.87100220    0.76999998    2.46000004
   13.52833271  112.42700195    0.75000000    2.44000006
   13.53166676  115.99400330    0.75000000    2.46000004
   13.53500080  121.21800232    0.75000000    2.46000004
   13.53805637  103.52100372    0.76999998    2.46000004
   13.54138947  112.88300323    0.75000000    2.46000004
   13.54472256  106.00399780    0.75000000    2.46000004
   13.54750061  105.47899628    0.76999998    2.46000004
   13.54861164  108.20300293    0.76999998    2.46000004
   13.55194473  110.76000214    0.76999998    2.46000004
   13.55500031  117.30999756    0.76999998    2.46000004
   13.55833340  115.11299896    0.75000000    2.46000004
   13.56166649  109.67700195    0.76999998    2.46000004
   13.56500053  109.62599945    0.76999998    2.46000004
   13.56833363  114.37200165    0.76999998    2.46000004
   13.57138920  122.30999756    0.76999998    2.46000004
   13.57472229  111.80799866    0.76999998    2.46000004
   13.57805538  115.56099701    0.76999998    2.46000004
   13.58083344  112.90399933    0.76999998    2.46000004
   13.58194447  118.28500366    0.76999998    2.46000004
   13.58527756  116.49500275    0.76999998    2.46000004
   13.58833313  122.65899658    0.75000000    2.46000004
   13.59166622  117.95400238    0.75000000    2.46000004
   13.59499931  114.00000000    0.76999998    2.48000002
   13.59805489  114.07599640    0.76999998    2.46000004
   13.60138893  108.44799805    0.76999998    2.46000004
   13.60444450  118.77300262    0.76999998    2.46000004
   13.60777855  114.46099854    0.76999998    2.46000004
   13.61111164  107.37899780    0.79000002    2.46000004
   13.61416721  114.12599945    0.79000002    2.46000004
   13.61444473  116.15599823    0.79000002    2.46000004
   13.61777782  106.37000275    0.79000002    2.46000004
   13.62111092  114.14099884    0.79000002    2.46000004
   13.62416649  108.25900269    0.79000002    2.46000004
   13.62750053  111.39800262    0.80000001    2.48000002
   13.63083363  110.07599640    0.80000001    2.46000004
   13.63388920  116.31500244    0.80000001    2.46000004
   13.63722229  113.59600067    0.80000001    2.46000004
   13.64055538  108.85800171    0.80000001    2.46000004
   13.64361095  105.36000061    0.80000001    2.48000002
   13.64750004  117.20500183    0.80000001    2.48000002
   13.64972210  120.27200317    0.81999999    2.48000002
   13.65333271  114.07499695    0.81999999    2.48000002
   13.65666676  109.88899994    0.81999999    2.48000002
   13.65999985  117.15499878    0.81999999    2.46000004
   13.66305542  109.14099884    0.81999999    2.48000002
   13.66638851  107.54399872    0.80000001    2.48000002
   13.66944504  104.35600281    0.80000001    2.46000004
   13.67277813  111.12200165    0.80000001    2.50000000
   13.67611122  119.71299744    0.79000002    2.48000002
   13.67916679  121.16899872    0.79000002    2.48000002
   13.68138885  115.38600159    0.79000002    2.48000002
   13.68277836  125.79499817    0.79000002    2.48000002
   13.68611145  124.22799683    0.79000002    2.50000000
   13.68944454  120.74500275    0.79000002    2.48000002
   13.69250011  117.62699890    0.80000001    2.48000002
   13.69583321  121.70099640    0.79000002    2.48000002
   13.69888878  107.89499664    0.79000002    2.48000002
   13.70222187  114.27600098    0.79000002    2.48000002
   13.70555496  111.44200134    0.79000002    2.48000002
   13.70861053  119.13600159    0.79000002    2.48000002
   13.71194458  118.01999664    0.79000002    2.48000002
   13.82416630   -1.00000000   -1.00000000   -1.00000000
   13.92194462   -1.00000000   -1.00000000   -1.00000000
   14.02055550   -1.00000000   -1.00000000   -1.00000000
   14.05861092   68.60970306    0.75000000    2.53999996
   14.06194496  117.86199951    0.73000002    2.53999996
   14.06500053  105.94799805    0.70999998    2.55999994
   14.06833363  107.44400024    0.70999998    2.55999994
   14.07138920  108.16300201    0.70999998    2.55999994
   14.07472229  103.15200043    0.70999998    2.55999994
   14.07888889  103.15200043    0.69000000    2.55999994
   14.08305550  106.68499756    0.69000000    2.55999994
   14.08638859  107.90699768    0.70999998    2.53999996
   14.08944416  108.87300110    0.70999998    2.53999996
   14.09194374   97.65260315    0.70999998    2.53999996
   14.09305477  108.23100281    0.70999998    2.55999994
   14.09638882  119.49800110    0.70999998    2.53999996
   14.09972191  106.03500366    0.70999998    2.55999994
   14.10277843  110.56999969    0.70999998    2.55999994
   14.10611153  109.15100098    0.70999998    2.55999994
   14.10944462  105.29199982    0.73000002    2.55999994
   14.11250019  109.21600342    0.73000002    2.55999994
   14.11583328  107.53600311    0.73000002    2.55999994
   14.12166691  107.53600311    0.70999998    2.53999996
   14.12583351  109.53700256    0.69000000    2.53999996
   14.12916660  107.73899841    0.69000000    2.53999996
   14.13222218   97.49340057    0.69000000    2.55999994
   14.13555527  107.83100128    0.69000000    2.55999994
   14.13888836  100.98300171    0.67000002    2.55999994
   14.14194393  103.87300110    0.67000002    2.55999994
   14.14527798   96.47660065    0.67000002    2.55999994
   14.14861107  102.86799622    0.69000000    2.55999994
   14.15166664   98.44930267    0.69000000    2.55999994
   14.15499973  101.79199982    0.69000000    2.55999994
   14.15805531  100.69599915    0.69000000    2.55999994
   14.15861034  110.82499695    0.70999998    2.55999994
   14.16472149  110.82499695    0.70999998    2.55999994
   14.16861153   91.76080322    0.70999998    2.55999994
   14.17194462  106.68699646    0.73000002    2.55999994
   14.17527771  112.87500000    0.73000002    2.55999994
   14.17833328  111.54799652    0.73000002    2.53999996
   14.18166733  105.19799805    0.73000002    2.55999994
   14.18472195  113.68199921    0.75000000    2.55999994
   14.18805599  108.06099701    0.73000002    2.55999994
   14.19138908  115.21399689    0.73000002    2.55999994
   14.19194412  111.30400085    0.73000002    2.55999994
   14.19499969  121.56700134    0.73000002    2.55999994
   14.19833374  104.65699768    0.73000002    2.55999994
   14.20138836  113.91400146    0.73000002    2.55999994
   14.20749950  113.91400146    0.73000002    2.55999994
   14.21166611  104.68000031    0.75000000    2.55999994
   14.21472168  104.98100281    0.73000002    2.55999994
   14.21805477  107.68000031    0.73000002    2.55999994
   14.22111034  105.68000031    0.73000002    2.55999994
   14.22444439   94.76200104    0.73000002    2.55999994
   14.22527695   96.09049988    0.73000002    2.55999994
   14.22805500  105.68800354    0.73000002    2.55999994
   14.23138809  113.76100159    0.73000002    2.55999994
   14.23444462   99.14929962    0.73000002    2.57999992
   14.23777771  102.70400238    0.75000000    2.55999994
   14.24111176  106.07900238    0.79000002    2.57999992
   14.24416733  101.31800079    0.80000001    2.57999992
   14.25027752  101.31800079    0.80000001    2.57999992
   14.25444412  112.81700134    0.80000001    2.55999994
   14.25749969  112.61100006    0.79000002    2.55999994
   14.25861073  112.27600098    0.79000002    2.55999994
   14.26111126  100.69899750    0.79000002    2.55999994
   14.26444435   93.22910309    0.79000002    2.57999992
   14.26749992  107.01200104    0.79000002    2.57999992
   14.27083302  106.62000275    0.79000002    2.57999992
   14.27416611  102.33000183    0.79000002    2.55999994
   14.27722168  106.68499756    0.76999998    2.55999994
   14.28055573  108.71600342    0.75000000    2.55999994
   14.28361130  107.58399963    0.75000000    2.55999994
   14.28694534   97.84880066    0.75000000    2.57999992
   14.29305553   97.84880066    0.75000000    2.55999994
   14.29722309  103.15200043    0.73000002    2.57999992
   14.30055618  107.42199707    0.73000002    2.57999992
   14.30361176  101.41300201    0.70999998    2.55999994
   14.30694485  114.46399689    0.70999998    2.57999992
   14.31027794  112.76599884    0.70999998    2.57999992
   14.31333351   94.97669983    0.70999998    2.57999992
   14.31666660  105.49500275    0.70999998    2.57999992
   14.31999969  114.42500305    0.69000000    2.57999992
   14.32305527  101.33799744    0.69000000    2.57999992
   14.32527733  108.31999969    0.67000002    2.57999992
   14.32666683  111.07700348    0.67000002    2.57999992
   14.32999992  106.06400299    0.67000002    2.57999992
   14.33611107  106.06400299    0.67000002    2.57999992
   14.34000015  103.34500122    0.67000002    2.57999992
   14.34333324  108.68699646    0.69000000    2.57999992
   14.34666634  106.50299835    0.69000000    2.57999992
   14.34972191  106.77100372    0.69000000    2.57999992
   14.35305595   98.80280304    0.69000000    2.57999992
   14.35638905  107.84700012    0.73000002    2.57999992
   14.35861111  118.13800049    0.73000002    2.57999992
   14.36000061  109.43299866    0.73000002    2.57999992
   14.36333370  113.49700165    0.73000002    2.57999992
   14.36638927  111.23000336    0.73000002    2.57999992
   14.36972237  117.85600281    0.70999998    2.57999992
   14.37305546  131.18899536    0.73000002    2.57999992
   14.37888908  131.18899536    0.73000002    2.57999992
   14.38305569  120.45099640    0.73000002    2.57999992
   14.38611126  122.35399628    0.73000002    2.57999992
   14.38944435  123.65699768    0.73000002    2.57999992
   14.39194393  125.56199646    0.73000002    2.57999992
   14.39305496  118.23600006    0.73000002    2.57999992
   14.39638901  106.34799957    0.70999998    2.57999992
   14.39944458  111.28800201    0.70999998    2.57999992
   14.40277767  115.35099792    0.70999998    2.57999992
   14.40611076  117.28800201    0.70999998    2.57999992
   14.40916634  111.38500214    0.70999998    2.59999990
   14.41249943  107.32900238    0.70999998    2.59999990
   14.41555500  114.35299683    0.70999998    2.59999990
   14.42166710  114.35299683    0.69000000    2.57999992
   14.42583370  113.93800354    0.67000002    2.57999992
   14.42888927  103.23799896    0.67000002    2.59999990
   14.43222237  113.08000183    0.69000000    2.59999990
   14.43555546  109.60500336    0.70999998    2.57999992
   14.43861103  119.56099701    0.70999998    2.57999992
   14.44194412  123.47399902    0.70999998    2.59999990
   14.44527817  118.41500092    0.70999998    2.59999990
   14.44833374  120.13999939    0.70999998    2.59999990
   14.45166683  116.90100098    0.70999998    2.59999990
   14.45472240  131.88000488    0.70999998    2.59999990
   14.45805550  118.29900360    0.67000002    2.59999990
   14.45888901  132.17300415    0.67000002    2.59999990
   14.46444416  132.17300415    0.64999998    2.59999990
   14.46861076  115.27200317    0.64999998    2.57999992
   14.47194386  106.32399750    0.64999998    2.59999990
   14.47499943  104.33499908    0.64999998    2.59999990
   14.47833252  112.94400024    0.64999998    2.59999990
   14.48166656  110.76499939    0.64999998    2.59999990
   14.48472214  108.91300201    0.64999998    2.59999990
   14.48805618  110.00800323    0.67000002    2.59999990
   14.49138927  113.46399689    0.69000000    2.59999990
   14.49222279  109.27899933    0.69000000    2.59999990
   14.49499989  114.65599823    0.67000002    2.59999990
   14.49833393  109.81400299    0.67000002    2.57999992
   14.50138855  101.55100250    0.69000000    2.59999990
   14.50722218  101.55100250    0.69000000    2.57999992
   14.51138878  107.17099762    0.69000000    2.59999990
   14.51472187  109.77899933    0.69000000    2.59999990
   14.51805496  124.10500336    0.69000000    2.59999990
   14.52111053  116.58899689    0.69000000    2.57999992
   14.52444458  113.30599976    0.67000002    2.59999990
   14.52555561  106.59700012    0.67000002    2.59999990
   14.52805519  109.09700012    0.67000002    2.59999990
   14.53138828  113.06999969    0.67000002    2.59999990
   14.53444481  115.32499695    0.69000000    2.59999990
   14.53777790  114.56500244    0.67000002    2.59999990
   14.54111195  112.81199646    0.69000000    2.59999990
   14.54416752  117.70300293    0.64999998    2.61999989
   14.55027771  117.70300293    0.63000000    2.59999990
   14.55444431  109.99500275    0.63000000    2.59999990
   14.55749989  107.60700226    0.61000001    2.59999990
   14.55888939  100.29100037    0.63000000    2.59999990
   14.56111145  107.68000031    0.61000001    2.61999989
   14.56444454  104.63300323    0.61000001    2.61999989
   14.56777763  103.59500122    0.61000001    2.59999990
   14.57083321  111.93199921    0.58999997    2.61999989
   14.57416630  107.70400238    0.58999997    2.61999989
   14.57750034  107.82599640    0.61000001    2.59999990
   14.58055592  114.16200256    0.61000001    2.59999990
   14.58388901  109.49500275    0.61000001    2.61999989
   14.58694458  107.99900055    0.63000000    2.59999990
   14.59305477  107.99900055    0.61000001    2.59999990
   14.59722233  100.73799896    0.58999997    2.59999990
   14.60027790  108.54499817    0.58999997    2.59999990
   14.60361195   94.46089935    0.58999997    2.61999989
   14.60694504   99.28369904    0.56999999    2.59999990
   14.61000061  106.94000244    0.56999999    2.61999989
   14.61333370   93.79689789    0.56999999    2.64000010
   14.61666679  103.87300110    0.58999997    2.59999990
   14.61972237   97.91290283    0.58999997    2.59999990
   14.62305546  100.62000275    0.58999997    2.59999990
   14.62555599   91.00039673    0.58999997    2.64000010
   14.62666702   97.53240204    0.58999997    2.64000010
   14.63000011  103.12000275    0.61000001    2.61999989
   14.63583279  103.12000275    0.58999997    2.61999989
   14.64000034   92.56020355    0.58999997    2.59999990
   14.64333344   87.95600128    0.58999997    2.61999989
   14.64638901  100.93699646    0.58999997    2.64000010
   14.64972210   92.64299774    0.61000001    2.59999990
   14.65305519  100.30899811    0.61000001    2.61999989
   14.65611076   94.48449707    0.61000001    2.59999990
   14.65888882   87.88639832    0.61000001    2.61999989
   14.65972137  104.40499878    0.61000001    2.61999989
   14.66305542   96.26149750    0.61000001    2.61999989
   14.66611099   93.87860107    0.61000001    2.61999989
   14.66944504  105.67400360    0.61000001    2.61999989
   14.67277813   89.57160187    0.61000001    2.61999989
   14.67861176   89.57160187    0.63000000    2.61999989
   14.68277836  102.16400146    0.63000000    2.61999989
   14.68611145   98.57649994    0.63000000    2.59999990
   14.68944454   92.35810089    0.63000000    2.61999989
   14.69222260   90.92150116    0.63000000    2.61999989
   14.69277763   89.60500336    0.63000000    2.61999989
   14.69611073   90.10849762    0.63000000    2.61999989
   14.69916630   94.85829926    0.63000000    2.61999989
   14.70249939   94.44629669    0.61000001    2.59999990
   14.70583344   93.25890350    0.61000001    2.61999989
   14.70888901   90.68830109    0.61000001    2.61999989
   14.71222210   90.52549744    0.61000001    2.61999989
   14.71555519   92.15670013    0.58999997    2.61999989
   14.72166634   92.15670013    0.58999997    2.61999989
   14.72583294   89.70549774    0.56999999    2.61999989
   14.72888851   89.91280365    0.56999999    2.61999989
   14.73222160   89.54579926    0.56999999    2.61999989
   14.73527813   90.02739716    0.56999999    2.61999989
   14.73861122   89.95629883    0.58999997    2.61999989
   14.74194431  101.16100311    0.56999999    2.61999989
   14.74499989   98.04550171    0.56999999    2.61999989
   14.74833393  107.52500153    0.56999999    2.64000010
   14.75166702   94.74739838    0.56999999    2.64000010
   14.75472260  100.48400116    0.56999999    2.61999989
   14.75805569  104.68000031    0.56999999    2.61999989
   14.75888920  103.59999847    0.56999999    2.64000010
   14.76444435  103.59999847    0.58999997    2.61999989
   14.76861095  106.71900177    0.61000001    2.61999989
   14.77166653  123.63899994    0.58999997    2.61999989
   14.77499962  102.77400208    0.61000001    2.61999989
   14.77833271  118.74500275    0.61000001    2.61999989
   14.78138828  120.11900330    0.58999997    2.64000010
   14.78472233  119.53900146    0.58999997    2.61999989
   14.78805637  117.61799622    0.58999997    2.61999989
   14.79111195  106.38700104    0.58999997    2.61999989
   14.79222298  129.29699707    0.58999997    2.61999989
   14.79472256  136.45599365    0.58999997    2.64000010
   14.79805565  142.25000000    0.58999997    2.61999989
   14.80138874  129.88999939    0.58999997    2.61999989
   14.80722237  129.88999939    0.56999999    2.64000010
   14.81138897  136.18400574    0.56999999    2.61999989
   14.81472206  126.59300232    0.56999999    2.61999989
   14.81777763  142.11900330    0.55000001    2.64000010
   14.82111073  134.78100586    0.55000001    2.61999989
   14.82444477  137.65400696    0.55000001    2.64000010
   14.82555580  124.35299683    0.55000001    2.64000010
   14.82777786  137.66400146    0.55000001    2.64000010
   14.83111095  133.75999451    0.56999999    2.61999989
   14.83444405  140.76100159    0.56999999    2.64000010
   14.83749962  136.40800476    0.56999999    2.61999989
   14.84083271  127.56400299    0.56999999    2.64000010
   14.84388828  103.76300049    0.56999999    2.64000010
   14.85000038  103.76300049    0.55000001    2.64000010
   14.85416698  130.47000122    0.52999997    2.64000010
   14.85750008  123.33799744    0.55000001    2.61999989
   14.85888958  123.77799988    0.55000001    2.61999989
   14.86111164  107.26100159    0.55000001    2.64000010
   14.86444473  132.91499329    0.55000001    2.64000010
   14.86777782  132.05999756    0.55000001    2.64000010
   14.87083340  126.53800201    0.55000001    2.64000010
   14.87416649  135.83599854    0.55000001    2.61999989
   14.87722206  131.69400024    0.55000001    2.64000010
   14.88055611  112.96900177    0.55000001    2.61999989
   14.88388920  114.86000061    0.55000001    2.64000010
   14.88694477  131.65800476    0.56999999    2.64000010
   14.89305496  131.65800476    0.58999997    2.61999989
   14.89722252  115.20800018    0.58999997    2.61999989
   14.90027714  106.12699890    0.58999997    2.64000010
   14.90361118  111.38999939    0.58999997    2.64000010
   14.90666676  112.39199829    0.58999997    2.64000010
   14.90999985  124.63099670    0.58999997    2.61999989
   14.91333294  105.94400024    0.58999997    2.61999989
   14.91638851   92.93409729    0.58999997    2.64000010
   14.91972256  103.54900360    0.58999997    2.64000010
   14.92305565  114.74199677    0.58999997    2.64000010
   14.92555618  101.38099670    0.58999997    2.64000010
   14.92638874   98.32119751    0.56999999    2.64000010
   14.92972279  100.57599640    0.56999999    2.64000010
   14.93583298  100.57599640    0.56999999    2.64000010
   14.94000053  115.69200134    0.56999999    2.64000010
   14.94333363  103.45200348    0.56999999    2.64000010
   14.94638920  111.90899658    0.56999999    2.64000010
   14.94972229   96.78510284    0.56999999    2.64000010
   14.95277786  106.46299744    0.56999999    2.64000010
   14.95611095  105.64900208    0.56999999    2.64000010
   14.95888901  101.37999725    0.56999999    2.64000010
   14.95972157  111.04699707    0.56999999    2.64000010
   14.96305561  113.04000092    0.56999999    2.64000010
   14.96638870  107.68199921    0.56999999    2.64000010
   14.96944427  108.32599640    0.55000001    2.64000010
   14.97277737  112.27300262    0.55000001    2.64000010
   14.97861099  112.27300262    0.52999997    2.64000010
   14.98277760  118.39600372    0.55000001    2.64000010
   14.98611164  125.44599915    0.55000001    2.64000010
   14.98916721  108.52300262    0.55000001    2.64000010
   14.99222279  118.02300262    0.55000001    2.64000010
   14.99277782  114.86799622    0.55000001    2.64000010
   14.99611092  116.30999756    0.55000001    2.64000010
   14.99944496   99.63189697    0.55000001    2.64000010
   15.00249958  109.30400085    0.55000001    2.64000010
   15.00583363  116.74299622    0.52999997    2.64000010
   15.00888920  110.14499664    0.55000001    2.64000010
   15.01222229   99.82369995    0.52999997    2.64000010
   15.01555538   83.28320313    0.52999997    2.64000010
   15.02138901   83.28320313    0.52999997    2.64000010
   15.02555561   98.78630066    0.52999997    2.66000009
   15.02888870  103.08799744    0.52999997    2.64000010
   15.03222179   95.18019867    0.52999997    2.64000010
   15.03527832   94.51080322    0.52999997    2.64000010
   15.03861141   99.56500244    0.55000001    2.64000010
   15.04166698   96.59970093    0.52999997    2.64000010
   15.04500008  114.24299622    0.55000001    2.64000010
   15.04833412   94.33969879    0.55000001    2.66000009
   15.05138874   97.82969666    0.55000001    2.64000010
   15.05472279   98.31980133    0.55000001    2.64000010
   15.05805588   89.76629639    0.52999997    2.64000010
   15.05888939  110.19699860    0.52999997    2.66000009
   15.07944393  110.19699860    0.51999998    2.64000010
   15.08361053   92.05190277    0.51999998    2.66000009
   15.08694458   95.13919830    0.52999997    2.64000010
   15.09000015  102.86900330    0.51999998    2.66000009
   15.09222221  105.22799683    0.52999997    2.64000010
   15.09361076  104.21600342    0.52999997    2.66000009
   15.09694386   98.71209717    0.52999997    2.64000010
   15.10027790  103.35299683    0.52999997    2.64000010
   15.10333347  103.19899750    0.52999997    2.64000010
   15.10666752   99.95670319    0.52999997    2.66000009
   15.11000061  105.38800049    0.52999997    2.64000010
   15.11305618   96.74109650    0.52999997    2.64000010
   15.11638927  102.19799805    0.52999997    2.66000009
   15.12222195  102.19799805    0.51999998    2.66000009
   15.12638855   96.40760040    0.52999997    2.64000010
   15.12972260   97.72080231    0.51999998    2.66000009
   15.13277817   99.28279877    0.51999998    2.66000009
   15.13611126  103.54799652    0.51999998    2.66000009
   15.13944435  101.06600189    0.51999998    2.66000009
   15.14249992  102.95800018    0.51999998    2.66000009
   15.14583302  108.60399628    0.51999998    2.66000009
   15.14888859  111.96499634    0.51999998    2.66000009
   15.15222168  115.75800323    0.51999998    2.66000009
   15.15555477  103.40499878    0.51999998    2.66000009
   15.15861034  107.73899841    0.51999998    2.66000009
   15.15916634  109.89199829    0.51999998    2.66000009
   15.16499996  109.89199829    0.51999998    2.66000009
   15.16916656  103.73999786    0.51999998    2.66000009
   15.17250061   98.78659821    0.52999997    2.66000009
   15.17583370  107.45899963    0.52999997    2.66000009
   15.17888927  106.59899902    0.51999998    2.66000009
   15.18222237  112.33100128    0.52999997    2.66000009
   15.18527794  106.43499756    0.51999998    2.66000009
   15.18861103  113.48000336    0.51999998    2.66000009
   15.19194412  121.62500000    0.52999997    2.66000009
   15.19250011  122.77200317    0.52999997    2.66000009
   15.19555569  132.68800354    0.55000001    2.66000009
   15.19888878  133.76300049    0.55000001    2.64000010
   15.20194435  149.57099915    0.52999997    2.66000009
   15.20805550  149.57099915    0.52999997    2.66000009
   15.21222210  140.68600464    0.55000001    2.66000009
   15.21527767  130.35800171    0.55000001    2.66000009
   15.21861076  140.94200134    0.55000001    2.66000009
   15.22166634  145.06599426    0.55000001    2.66000009
   15.22499943  138.08200073    0.55000001    2.66000009
   15.22583294  129.63000488    0.55000001    2.66000009
   15.22861099  145.10299683    0.55000001    2.67000008
   15.23194408  151.29800415    0.55000001    2.67000008
   15.23500061  122.18499756    0.55000001    2.66000009
   15.23833370  147.99400330    0.55000001    2.66000009
   15.24138927  142.50100708    0.55000001    2.66000009
   15.24499989  155.57600403    0.55000001    2.66000009
   15.25083351  155.57600403    0.55000001    2.66000009
   15.25500011  132.23899841    0.55000001    2.66000009
   15.25805569  146.69400024    0.55000001    2.66000009
   15.25916672  135.05400085    0.55000001    2.66000009
   15.26194477  157.98300171    0.55000001    2.66000009
   15.26527786  142.00500488    0.55000001    2.66000009
   15.26833344  142.72999573    0.56999999    2.66000009
   15.27166653  133.37399292    0.56999999    2.66000009
   15.27472210  140.85899353    0.55000001    2.66000009
   15.27805519  132.57800293    0.56999999    2.66000009
   15.28138828  129.52000427    0.55000001    2.66000009
   15.28444481  127.73899841    0.55000001    2.66000009
   15.28777790  154.02499390    0.55000001    2.66000009
   15.29361153  154.02499390    0.52999997    2.66000009
   15.29777813  138.29100037    0.52999997    2.66000009
   15.30111122  126.67800140    0.52999997    2.66000009
   15.30416679  118.98300171    0.52999997    2.66000009
   15.30749989  123.22000122    0.51999998    2.66000009
   15.31083393  131.80599976    0.51999998    2.66000009
   15.31388950  119.19599915    0.51999998    2.66000009
   15.31722260  123.86399841    0.52999997    2.66000009
   15.32027817  133.54100037    0.51999998    2.66000009
   15.32361126  142.62399292    0.51999998    2.66000009
   15.32583332  122.55599976    0.51999998    2.66000009
   15.32722187  139.92999268    0.52999997    2.67000008
   15.33055592  120.66999817    0.51999998    2.67000008
   15.33638859  120.66999817    0.52999997    2.66000009
   15.34055519  132.58200073    0.52999997    2.66000009
   15.34388828  124.26100159    0.55000001    2.66000009
   15.34722233  114.50499725    0.55000001    2.66000009
   15.35027790  134.95899963    0.55000001    2.66000009
   15.35361195  120.52200317    0.55000001    2.66000009
   15.35666752  130.31799316    0.55000001    2.66000009
   15.35916710  127.76000214    0.55000001    2.66000009
   15.36055565  117.72599792    0.55000001    2.67000008
   15.36388969  101.37799835    0.55000001    2.66000009
   15.36694431  122.16400146    0.55000001    2.66000009
   15.37027836  117.19599915    0.55000001    2.66000009
   15.37361145  123.50299835    0.55000001    2.66000009
   15.37944412  123.50299835    0.52999997    2.66000009
   15.38361073  121.43499756    0.52999997    2.66000009
   15.38666630  126.06800079    0.52999997    2.66000009
   15.39000034  123.79299927    0.52999997    2.66000009
   15.39249992  116.58699799    0.52999997    2.66000009
   15.39361095  106.34600067    0.52999997    2.66000009
   15.39694405  105.93399811    0.51999998    2.67000008
   15.39999962  112.62000275    0.51999998    2.66000009
   15.40333271  105.67500305    0.52999997    2.66000009
   15.40638828  109.88500214    0.52999997    2.66000009
   15.40972137  114.80899811    0.51999998    2.66000009
   15.41305542  100.27500153    0.51999998    2.66000009
   15.41638851  106.48999786    0.51999998    2.66000009
   15.42222214  106.48999786    0.50000000    2.66000009
   15.42638874  118.30200195    0.50000000    2.67000008
   15.42944431  109.83899689    0.51999998    2.66000009
   15.43277836  108.28500366    0.50000000    2.66000009
   15.43611145  111.04199982    0.51999998    2.67000008
   15.43916702  115.12699890    0.50000000    2.66000009
   15.44250011  117.83200073    0.51999998    2.66000009
   15.44583321  105.93299866    0.51999998    2.66000009
   15.44888878  113.50399780    0.52999997    2.66000009
   15.45222187  103.24700165    0.51999998    2.66000009
   15.45555496  102.65799713    0.51999998    2.66000009
   15.45861053  114.93399811    0.51999998    2.67000008
   15.45916653  112.75700378    0.51999998    2.67000008
   15.46500015  112.75700378    0.51999998    2.67000008
   15.46916580   95.45149994    0.52999997    2.67000008
   15.47249985   96.77670288    0.51999998    2.66000009
   15.47555542  101.99199677    0.51999998    2.66000009
   15.47888851   95.43419647    0.51999998    2.66000009
   15.48222160   97.54499817    0.51999998    2.66000009
   15.48527813  106.60700226    0.52999997    2.67000008
   15.48861122   99.55300140    0.51999998    2.66000009
   15.49166679  106.45800018    0.51999998    2.69000006
   15.49250031  103.37500000    0.51999998    2.69000006
   15.49527836  106.32199860    0.51999998    2.67000008
   15.49861145   96.09960175    0.52999997    2.67000008
   15.50166702   96.65039825    0.51999998    2.67000008
   15.50777817   96.65039825    0.51999998    2.67000008
   15.51194477   98.79290009    0.51999998    2.66000009
   15.51527786   95.87899780    0.55000001    2.66000009
   15.51861095  113.48400116    0.52999997    2.66000009
   15.52166653   98.61090088    0.52999997    2.67000008
   15.52499962   94.34380341    0.52999997    2.66000009
   15.52583313   98.18350220    0.51999998    2.67000008
   15.52861118   89.09459686    0.51999998    2.67000008
   15.53194427   97.69159698    0.51999998    2.67000008
   15.53500080  101.77500153    0.51999998    2.67000008
   15.53833389  109.86000061    0.51999998    2.67000008
   15.54166698   94.96099854    0.51999998    2.67000008
   15.54472256  105.83499908    0.51999998    2.66000009
   15.55083370  105.83499908    0.51999998    2.67000008
   15.55500031   94.41359711    0.51999998    2.67000008
   15.55833340   90.99099731    0.52999997    2.67000008
   15.55916691   88.55570221    0.51999998    2.66000009
   15.56194496   89.77310181    0.52999997    2.66000009
   15.56527805   88.21759796    0.52999997    2.67000008
   15.56833363   81.82969666    0.52999997    2.67000008
   15.57166672   88.13919830    0.55000001    2.67000008
   15.57499981   84.37699890    0.55000001    2.66000009
   15.57805538   80.13880157    0.52999997    2.67000008
   15.58138847   90.99120331    0.52999997    2.66000009
   15.58472157   91.57559967    0.52999997    2.66000009
   15.58777714   82.96399689    0.52999997    2.67000008
   15.59361076   82.96399689    0.52999997    2.67000008
   15.59777737   96.74150085    0.55000001    2.67000008
   15.60083389   81.53549957    0.55000001    2.67000008
   15.60416698   85.45099640    0.55000001    2.67000008
   15.60750008   96.50820160    0.55000001    2.67000008
   15.61055565   82.79499817    0.56999999    2.67000008
   15.61388969   94.40029907    0.56999999    2.67000008
   15.61694431   91.97519684    0.55000001    2.67000008
   15.62027836   88.24410248    0.55000001    2.66000009
   15.62361145   91.44609833    0.55000001    2.66000009
   15.62583351   93.27899933    0.56999999    2.66000009
   15.62722206   92.04920197    0.56999999    2.66000009
   15.63055611   88.29550171    0.55000001    2.66000009
   15.63638878   88.29550171    0.56999999    2.66000009
   15.64055538   86.21959686    0.56999999    2.67000008
   15.64388847   97.25399780    0.63000000    2.67000008
   15.64694405   89.29579926    0.69000000    2.67000008
   15.65027714   93.64559937    0.70999998    2.67000008
   15.65333271   94.45870209    0.73000002    2.66000009
   15.65666676   94.86820221    0.73000002    2.66000009
   15.65916634   92.95089722    0.73000002    2.66000009
   15.66027737   88.26709747    0.73000002    2.66000009
   15.66361046   95.39540100    0.70999998    2.66000009
   15.66666698   97.82150269    0.73000002    2.66000009
   15.67000008   89.97290039    0.75000000    2.67000008
   15.67333412   90.30850220    0.76999998    2.67000008
   15.67916679   90.30850220    0.67000002    2.66000009
   15.68333340   83.68419647    0.64999998    2.66000009
   15.68666649   86.99960327    0.63000000    2.66000009
   15.68972206   72.87590027    0.61000001    2.67000008
   15.69250011   88.45249939    0.61000001    2.66000009
   15.69333363   83.81390381    0.61000001    2.66000009
   15.69666672   95.38990021    0.58999997    2.67000008
   15.69972229   91.69450378    0.58999997    2.67000008
   15.70305538   98.09999847    0.58999997    2.67000008
   15.70611095   91.29229736    0.61000001    2.67000008
   15.70944405   92.82990265    0.61000001    2.67000008
   15.71277714   87.68160248    0.58999997    2.66000009
   15.71583271   91.03980255    0.58999997    2.66000009
   15.72222137   91.03980255    0.61000001    2.67000008
   15.72611046   97.29399872    0.61000001    2.67000008
   15.72944355   92.52890015    0.61000001    2.67000008
   15.73277760   89.42120361    0.61000001    2.67000008
   15.73611164   93.57710266    0.61000001    2.67000008
   15.73916721   90.79060364    0.58999997    2.67000008
   15.74250031   95.82080078    0.58999997    2.66000009
   15.74583340   95.17729950    0.58999997    2.67000008
   15.74888897   89.39109802    0.58999997    2.67000008
   15.75222206   94.17729950    0.58999997    2.67000008
   15.75527763   94.72460175    0.58999997    2.66000009
   15.75861073   90.05059814    0.61000001    2.66000009
   15.75916672   96.10250092    0.58999997    2.67000008
   15.76500034   96.10250092    0.63000000    2.67000008
   15.76916599  100.15599823    0.63000000    2.67000008
   15.77222157   84.35240173    0.61000001    2.67000008
   15.77555561   93.51989746    0.61000001    2.66000009
   15.77861118   98.32080078    0.61000001    2.66000009
   15.78194427   88.55709839    0.56999999    2.66000009
   15.78527832  101.86199951    0.56999999    2.67000008
   15.78833389   96.50890350    0.56999999    2.67000008
   15.79166698   99.02680206    0.56999999    2.67000008
   15.79250050  107.34600067    0.55000001    2.67000008
   15.79527855  102.26300049    0.55000001    2.67000008
   15.79861164   99.09179688    0.56999999    2.67000008
   15.80166721   96.40650177    0.55000001    2.67000008
   15.80777836   96.40650177    0.55000001    2.67000008
   15.81194496   92.65209961    0.55000001    2.66000009
   15.81527805  105.76599884    0.55000001    2.67000008
   15.81833363   95.87129974    0.55000001    2.67000008
   15.82166672   97.31890106    0.55000001    2.67000008
   15.82472229  103.11399841    0.55000001    2.67000008
   15.82583332   99.44210052    0.55000001    2.67000008
   15.82833290   96.02310181    0.55000001    2.66000009
   15.83166695  106.95899963    0.56999999    2.66000009
   15.83472157   75.51750183    0.55000001    2.67000008
   15.83805561  109.09300232    0.55000001    2.67000008
   15.84138870  102.47299957    0.55000001    2.67000008
   15.84444427  102.39199829    0.55000001    2.67000008
   15.85055637  102.39199829    0.52999997    2.67000008
   15.85472298  104.84700012    0.51999998    2.67000008
   15.85805607   93.31060028    0.52999997    2.67000008
   15.85944462   93.30780029    0.52999997    2.67000008
   15.86166668  101.23400116    0.52999997    2.67000008
   15.86500072   86.85449982    0.52999997    2.67000008
   15.86805534  103.98500061    0.52999997    2.67000008
   15.87138939   91.04889679    0.52999997    2.67000008
   15.87472248  101.38800049    0.52999997    2.67000008
   15.87777805   95.39640045    0.52999997    2.67000008
   15.88111115   94.30519867    0.51999998    2.67000008
   15.88416672   94.22709656    0.52999997    2.67000008
   15.88749981   95.14129639    0.51999998    2.67000008
   15.89361095   95.14129639    0.51999998    2.66000009
   15.89750004  102.03099823    0.52999997    2.66000009
   15.90083313   98.27670288    0.51999998    2.66000009
   15.90416622   94.68129730    0.51999998    2.67000008
   15.90722179  105.53800201    0.51999998    2.67000008
   15.91055489   87.08910370    0.52999997    2.66000009
   15.91388893   95.80339813    0.51999998    2.67000008
   15.91694450  103.15100098    0.51999998    2.67000008
   15.92027855   96.50050354    0.52999997    2.67000008
   15.92333412   91.02050018    0.52999997    2.67000008
   15.92611122   92.09030151    0.52999997    2.67000008
   15.92694473   96.56620026    0.52999997    2.67000008
   15.93027782   95.69609833    0.52999997    2.67000008
   15.93638897   95.69609833    0.52999997    2.67000008
   15.94055557  102.44300079    0.51999998    2.67000008
   15.94361115  102.55200195    0.51999998    2.67000008
   15.94694424   91.99060059    0.51999998    2.67000008
   15.94999981  101.15299988    0.51999998    2.67000008
   15.95333290   93.23829651    0.51999998    2.67000008
   15.95666695   93.01419830    0.52999997    2.67000008
   15.95944405  104.54199982    0.52999997    2.67000008
   15.96027756   93.79109955    0.52999997    2.67000008
   15.96361065   97.72899628    0.52999997    2.67000008
   15.96666622   97.61000061    0.51999998    2.66000009
   15.96999931   90.80930328    0.52999997    2.67000008
   15.97333336   94.33399963    0.51999998    2.67000008
   15.97916603   94.33399963    0.51999998    2.67000008
   15.98333359   93.84889984    0.51999998    2.67000008
   15.98666668   92.25730133    0.51999998    2.67000008
   15.98972225   93.21179962    0.51999998    2.67000008
   15.99277782   83.76840210    0.51999998    2.67000008
   15.99333382   88.93949890    0.51999998    2.67000008
   15.99666691   89.70159912    0.51999998    2.67000008
   15.99972248   89.18759918    0.67000002    2.67000008
   16.00305557   91.62789917    0.76999998    2.67000008
   16.00638962   94.78869629    0.76999998    2.67000008
   16.00944519   96.18659973    0.81999999    2.67000008
   16.01277733   94.49420166    0.81999999    2.67000008
   16.01611137   86.60070038    0.55000001    2.67000008
   16.02194405   86.60070038    0.52999997    2.67000008
   16.02611160   97.09439850    0.52999997    2.67000008
   16.02944374   96.65129852    0.52999997    2.67000008
   16.03249931   90.21949768    0.52999997    2.66000009
   16.03583336   82.87550354    0.52999997    2.67000008
   16.03916550   91.99819946    0.52999997    2.67000008
   16.04222107   96.57849884    0.52999997    2.67000008
   16.04555511   88.07270050    0.52999997    2.67000008
   16.04861069   85.35369873    0.52999997    2.67000008
   16.05194283   90.93460083    0.52999997    2.67000008
   16.05527687   90.74359894    0.55000001    2.67000008
   16.05833244   96.33999634    0.52999997    2.67000008
   16.05944443   98.65889740    0.55000001    2.67000008
   16.06499863   98.65889740    0.52999997    2.67000008
   16.06888962   79.73110199    0.52999997    2.67000008
   16.07222366   94.54039764    0.52999997    2.67000008
   16.07555580   92.56459808    0.52999997    2.67000008
   16.09305573  100.80300140    0.51999998    2.67000008
   16.09555626   86.23680115    0.52999997    2.67000008
   16.09861183   93.82620239    0.51999998    2.67000008
   16.10194397   94.45220184    0.51999998    2.67000008
   16.10777855   94.45220184    0.51999998    2.67000008
   16.11194420   86.56420135    0.51999998    2.67000008
   16.11527824   97.30870056    0.52999997    2.67000008
   16.11861038   89.88590240    0.51999998    2.67000008
   16.12166595   88.86720276    0.51999998    2.67000008
   16.12500000   96.37899780    0.51999998    2.67000008
   16.12638855  100.90799713    0.51999998    2.67000008
   16.12861061   80.40059662    0.52999997    2.67000008
   16.13194466   97.02619934    0.52999997    2.67000008
   16.13527679   91.40589905    0.52999997    2.67000008
   16.13833237   95.10820007    0.51999998    2.67000008
   16.14166641   91.55699921    0.51999998    2.67000008
   16.14472198   95.78669739    0.51999998    2.67000008
   16.15083313   95.78669739    0.51999998    2.67000008
   16.15499878  102.20200348    0.51999998    2.67000008
   16.15805435  111.23999786    0.51999998    2.67000008
   16.15972137  103.73200226    0.50000000    2.67000008
   16.16166687   98.75520325    0.51999998    2.69000006
   16.16499901   91.26840210    0.51999998    2.69000006
   16.16833305   90.00689697    0.51999998    2.67000008
   16.17138863  100.83999634    0.50000000    2.67000008
   16.17472076  100.25499725    0.50000000    2.67000008
   16.17805481  111.12400055    0.51999998    2.67000008
   16.18111038  102.22899628    0.51999998    2.67000008
   16.18444443  110.26799774    1.05999994    2.67000008
   16.18750000   96.53589630    1.33000004    2.67000008
   16.19361115   96.53589630    0.50000000    2.67000008
   16.19777679   91.01650238    0.51999998    2.67000008
   16.20083427   89.83899689    0.51999998    2.67000008
   16.20416832   87.71880341    0.50000000    2.67000008
   16.20750046   94.23059845    0.51999998    2.67000008
   16.21055603   96.26580048    0.51999998    2.67000008
   16.21389008   75.80269623    0.51999998    2.69000006
   16.21694565   92.23619843    0.51999998    2.67000008
   16.22027779   88.52079773    0.51999998    2.67000008
   16.22361183   92.84940338    0.51999998    2.67000008
   16.22638893   90.29669952    0.51999998    2.67000008
   16.22694588   89.40239716    0.51999998    2.67000008
   16.23027802   93.80960083    0.51999998    2.67000008
   16.23638916   93.80960083    0.50000000    2.67000008
   16.24055672   91.08519745    0.50000000    2.67000008
   16.24388885   88.43730164    0.51999998    2.67000008
   16.24694443   86.46610260    0.51999998    2.67000008
   16.25027847   82.38639832    0.51999998    2.67000008
   16.25333405   88.29209900    0.51999998    2.67000008
   16.25666618   87.94819641    0.51999998    2.67000008
   16.25972176   82.29660034    0.52999997    2.67000008
   16.26055527   93.65540314    0.52999997    2.67000008
   16.26361084   84.62909698    0.52999997    2.67000008
   16.26694489   76.90750122    0.52999997    2.69000006
   16.27000046   95.01540375    0.51999998    2.67000008
   16.27333260   90.72799683    0.51999998    2.67000008
   16.27916718   90.72799683    0.51999998    2.69000006
   16.28333282   92.79740143    0.51999998    2.67000008
   16.28666687   88.68779755    0.51999998    2.67000008
   16.28999901   88.39749908    0.51999998    2.67000008
   16.29305458   88.30979919    0.51999998    2.67000008
   16.29333305   93.12909698    0.51999998    2.67000008
   16.29666710   90.49579620    0.51999998    2.67000008
   16.29999924   83.95030212    0.51999998    2.67000008
   16.30305481   85.50150299    0.52999997    2.67000008
   16.30638885   90.51450348    0.51999998    2.67000008
   16.30944443   85.43900299    0.51999998    2.67000008
   16.31277657   96.07810211    0.51999998    2.67000008
   16.31611061  101.59999847    0.51999998    2.67000008
   16.32222366  101.59999847    0.51999998    2.67000008
   16.32638931   86.23709869    0.51999998    2.67000008
   16.32666779   85.74880219    0.52999997    2.67000008
   16.33000183   84.00869751    0.51999998    2.67000008
   16.33333397   78.18959808    0.51999998    2.67000008
   16.33638954   80.26460266    0.51999998    2.67000008
   16.33972359   74.21679688    0.51999998    2.69000006
   16.34277916   75.51239777    0.51999998    2.67000008
   16.34611130   88.25990295    0.52999997    2.67000008
   16.34944534   86.20890045    0.52999997    2.67000008
   16.35250092   89.24479675    0.52999997    2.67000008
   16.35583305   91.13069916    0.52999997    2.67000008
   16.35916710   83.30329895    0.52999997    2.67000008
   16.35972214   83.52059937    0.52999997    2.67000008
   16.36499977   83.52059937    0.52999997    2.67000008
   16.36916733   91.68399811    0.52999997    2.67000008
   16.37222290   83.10350037    0.52999997    2.67000008
   16.37555504   86.37310028    0.56999999    2.69000006
   16.37888908   86.79640198    0.58999997    2.67000008
   16.38194466   91.09559631    0.58999997    2.67000008
   16.38527679   89.79149628    0.56999999    2.67000008
   16.38861084   81.87719727    0.56999999    2.67000008
   16.39166641   91.79720306    0.58999997    2.69000006
   16.39305496   92.36550140    0.56999999    2.67000008
   16.39527702   87.11049652    0.56999999    2.69000006
   16.39861107   90.30799866    0.58999997    2.67000008
   16.40194321   87.66619873    0.56999999    2.67000008
   16.40777779   87.66619873    0.56999999    2.67000008
   16.41194344   86.19660187    0.56999999    2.67000008
   16.41527748   81.23400116    0.56999999    2.69000006
   16.41833305   84.51830292    0.56999999    2.67000008
   16.42166519   75.82099915    0.56999999    2.69000006
   16.42472076   83.23860168    0.55000001    2.67000008
   16.42638779   86.35340118    0.56999999    2.67000008
   16.42833328   79.43609619    0.55000001    2.69000006
   16.43166542   80.11599731    0.55000001    2.67000008
   16.43499947   85.42739868    0.55000001    2.67000008
   16.43805504   82.41059875    0.67000002    2.67000008
   16.44138718   86.98310089    0.64999998    2.67000008
   16.44472122   84.07659912    0.70999998    2.67000008
   16.45055580   84.07659912    1.73000002    2.67000008
   16.45472336   79.70929718    1.64999998    2.67000008
   16.45805550   87.07029724    1.48000002    2.69000006
   16.45972252   84.36540222    2.09999990    2.66000009
   16.46138954   82.86380005    2.61999989    2.66000009
   16.46472359   88.00340271    3.07999992    2.66000009
   16.46805573   85.58020020    3.23000002    2.66000009
   16.47111130   88.04139709    3.00000000    2.66000009
   16.47444534   91.60749817    2.89000010    2.66000009
   16.47750092   81.96130371    2.19000006    2.66000009
   16.48083305   91.05850220    2.03999996    2.67000008
   16.48416710   81.09799957    2.30999994    2.67000008
   16.48722267   94.21060181    2.50000000    2.66000009
   16.49361229   94.21060181    3.51999998    2.64000010
   16.49749947   85.37789917    3.28999996    2.66000009
   16.50083351   85.25610352    2.89000010    2.64000010
   16.50416756   90.22070313    2.93000007    2.67000008
   16.50722313   88.82959747    2.98000002    2.66000009
   16.51055527  100.42500305    3.80999994    2.64000010
   16.51388931   97.48819733    4.40999985    2.61999989
   16.51694489   94.13610077    4.53999996    2.61999989
   16.52027702  111.83300018    4.53000021    2.61999989
   16.52361107   99.00980377    4.73999977    2.66000009
   16.52638817  108.75800323    4.36999989    2.64000010
   16.52694511  102.57900238    4.36999989    2.64000010
   16.53027725  111.17800140    4.53999996    2.64000010
   16.53638840  111.17800140    4.90999985    2.64000010
   16.54055595  102.57199860    4.90999985    2.64000010
   16.54361153   90.47499847    4.90999985    2.64000010
   16.54694366  104.61000061    4.90999985    2.64000010
   16.54999924  101.23600006    4.90999985    2.66000009
   16.55333328  106.25900269    4.90999985    2.64000010
   16.55666542  104.11499786    4.90999985    2.64000010
   16.55972099  111.04900360    4.90999985    2.61999989
   16.55999947  112.55899811    4.90999985    2.61999989
   16.56333351  103.07700348    4.90999985    2.64000010
   16.56666756  108.30999756    4.90999985    2.61999989
   16.56972313  117.91500092    4.90999985    2.59999990
   16.57305717  106.58100128    4.90999985    2.61999989
   16.57916832  106.58100128    4.90999985    2.61999989
   16.58333397  113.34100342    4.90999985    2.59999990
   16.58666801  119.12000275    4.90999985    2.61999989
   16.58972359  109.02799988    4.90999985    2.64000010
   16.59305573  105.15599823    4.90999985    2.64000010
   16.59333420  104.21299744    4.90999985    2.64000010
   16.59666824  111.84300232    4.90999985    2.64000010
   16.60000038  103.51200104    4.90999985    2.64000010
   16.60305595  107.31800079    4.90999985    2.61999989
   16.60639000   88.73850250    4.84999990    2.66000009
   16.60972214   97.40139771    4.59999990    2.64000010
   16.61277771   97.63780212    4.82999992    2.64000010
   16.61611176  104.88899994    4.90999985    2.64000010
   16.62194443  104.88899994    3.97000003    2.64000010
   16.62611198   99.87650299    4.28999996    2.64000010
   16.62666702  121.77100372    4.71999979    2.64000010
   16.63000107   99.80090332    4.90999985    2.59999990
   16.63305473   92.38590240    4.42999983    2.61999989
   16.63638878  115.07399750    2.82999992    2.66000009
   16.63972282  111.55400085    1.96000004    2.66000009
   16.64277840  104.50700378    1.88000000    2.67000008
   16.64611053  102.46700287    1.60000002    2.67000008
   16.64944458  114.71499634    1.85000002    2.67000008
   16.65250015   92.67810059    1.91999996    2.66000009
   16.65583229   97.29759979    1.98000002    2.64000010
   16.65888786   86.84780121    2.01999998    2.64000010
   16.65999985   98.52369690    2.11999989    2.66000009
   16.66499901   98.52369690    2.30999994    2.64000010
   16.66888809   88.21690369    1.63000000    2.67000008
   16.67222214   97.02259827    1.63000000    2.67000008
   16.67555428  102.97699738    2.26999998    2.64000010
   16.67860985  106.73600006    2.51999998    2.66000009
   16.68194389  105.18299866    3.01999998    2.66000009
   16.68527603   96.52670288    3.36999989    2.64000010
   16.68833160  125.69599915    3.99000001    2.61999989
   16.69166565   95.45349884    4.40999985    2.64000010
   16.69333267  111.15499878    4.40999985    2.64000010
   16.69527626   99.39309692    4.55999994    2.64000010
   16.69833183  121.31900024    4.90999985    2.64000010
   16.70166779  105.48300171    4.26000023    2.61999989
   16.70777893  105.48300171    4.82999992    2.61999989
   16.71194458  100.85500336    4.90999985    2.61999989
   16.71500015   99.96160126    4.90999985    2.59999990
   16.71833420  116.20400238    4.90999985    2.55999994
   16.72166634  113.19699860    4.90999985    2.59999990
   16.72472191  109.13200378    4.90999985    2.61999989
   16.72666740   98.94560242    4.90999985    2.57999992
   16.72861099   97.73490143    4.90999985    2.59999990
   16.73166656  116.48400116    4.90999985    2.59999990
   16.73500061  123.80000305    4.90999985    2.53999996
   16.73833275  107.25000000    4.90999985    2.59999990
   16.74138832  110.20800018    4.78000021    2.59999990
   16.74472237  108.74400330    4.86999989    2.59999990
   16.75055504  108.74400330    4.90999985    2.61999989
   16.75472260   94.59169769    4.90999985    2.59999990
   16.75805473   93.25659943    4.88999987    2.61999989
   16.76000023  111.74900055    4.55999994    2.61999989
   16.76166725   97.48380280    4.44999981    2.61999989
   16.76472282   92.90370178    4.17999983    2.61999989
   16.76805496  105.78600311    3.82999992    2.64000010
   16.77138901   87.91970062    3.86999989    2.64000010
   16.77444458  101.99099731    4.90999985    2.66000009
   16.77777672   85.86409760    4.90999985    2.64000010
   16.78111076  110.10600281    4.90999985    2.57999992
   16.78416634  105.16699982    4.90999985    2.57999992
   16.78750038  114.20500183    4.90999985    2.59999990
   16.79333305  114.20500183    4.90999985    2.61999989
   16.79749870   94.40830231    4.90999985    2.59999990
   16.80083275   91.98010254    4.90999985    2.59999990
   16.80388832   95.92790222    4.90999985    2.53999996
   16.80722237  101.16500092    4.90999985    2.55999994
   16.81055450   93.75150299    4.90999985    2.51999998
   16.81361008  103.73300171    4.90999985    2.53999996
   16.81694603  109.41799927    4.90999985    2.53999996
   16.82027817   98.31300354    4.90999985    2.59999990
   16.82333374   89.29000092    4.90999985    2.59999990
   16.82666779  102.61799622    4.90999985    2.64000010
   16.82722282   96.66220093    4.90999985    2.64000010
   16.83027840   90.57740021    4.80000019    2.64000010
   16.83638954   90.57740021    4.90999985    2.61999989
   16.84027863  103.39099884    4.90999985    2.57999992
   16.84361267  107.09799957    4.90999985    2.57999992
   16.84694481  100.30899811    4.90999985    2.57999992
   16.85000038  109.70600128    4.90999985    2.57999992
   16.85333443  113.77799988    4.90999985    2.55999994
   16.85666656   91.87280273    4.90999985    2.57999992
   16.85972214  104.95099640    4.90999985    2.59999990
   16.86055565   97.90709686    4.90999985    2.57999992
   16.86333466   98.51709747    4.90999985    2.57999992
   16.86666679   96.68060303    4.90999985    2.57999992
   16.87000084   93.41649628    4.90999985    2.55999994
   16.87305641   96.90779877    4.90999985    2.53999996
   16.87916756   96.90779877    4.90999985    2.55999994
   16.88333321   95.55719757    4.90999985    2.53999996
   16.88638878   88.31479645    4.90999985    2.59999990
   16.88972282   92.75219727    4.90999985    2.55999994
   16.89305496   92.85649872    4.90999985    2.53999996
   16.89388847   91.26799774    4.90999985    2.55999994
   16.89638901   82.13870239    4.90999985    2.57999992
   16.89972115   78.92089844    4.90999985    2.59999990
   16.90305519   85.43139648    4.90999985    2.59999990
   16.90611076   90.57820129    4.90999985    2.57999992
   16.90944481   91.90709686    4.90999985    2.61999989
   16.91277695   91.87799835    4.90999985    2.61999989
   16.91583252   94.26229858    4.90999985    2.59999990
   16.92194366   94.26229858    4.90999985    2.59999990
   16.92611122  129.22200012    4.90999985    2.57999992
   16.92722130  128.31700134    4.90999985    2.59999990
   16.92972183  144.18699646    4.90999985    2.59999990
   16.93305397  138.61900330    4.90999985    2.59999990
   16.93638802  133.89199829    4.90999985    2.55999994
   16.93944359  148.93299866    4.90999985    2.59999990
   16.94277763  131.42799377    4.90999985    2.53999996
   16.94610977  155.15800476    4.90999985    2.59999990
   16.94916534  139.99499512    4.90999985    2.57999992
   16.95250130  121.54399872    4.90999985    2.57999992
   16.95555687  111.75900269    4.90999985    2.57999992
   16.95888901  116.27500153    4.90999985    2.59999990
   16.96055603  107.38400269    4.90999985    2.59999990
   16.96472359  107.38400269    4.90999985    2.55999994
   16.96888924   94.76390076    4.90999985    2.57999992
   16.97222328  114.91200256    4.90999985    2.57999992
   16.97527885  101.35700226    4.90999985    2.53999996
   16.97861099   97.79199982    4.90999985    2.51999998
   16.98194504  111.16999817    4.90999985    2.55999994
   16.98500061   93.13050079    4.90999985    2.55999994
   16.98833275  105.00900269    4.90999985    2.57999992
   16.99166679   94.38980103    4.90999985    2.57999992
   16.99388885  104.48999786    4.90999985    2.57999992
   16.99500084   97.71520233    4.90999985    2.59999990
   16.99833298  103.71199799    4.90999985    2.59999990
   17.00166702   95.45140076    4.90999985    2.55999994
   17.00777817   95.45140076    4.90999985    2.57999992
   17.01166725  120.16799927    4.90999985    2.53999996
   17.01499939  114.07599640    4.90999985    2.57999992
   17.01833344  116.50700378    4.90999985    2.55999994
   17.02138901  115.09799957    4.90999985    2.57999992
   17.02472115  120.51699829    4.90999985    2.53999996
   17.02722168  122.17700195    4.90999985    2.53999996
   17.02833366  110.35299683    4.90999985    2.51999998
   17.03166580  114.46199799    4.90999985    2.55999994
   17.03499985  104.36399841    4.90999985    2.55999994
   17.03805542  113.54499817    4.90999985    2.55999994
   17.04138756  114.92099762    4.90999985    2.57999992
   17.04472160  103.80200195    4.90999985    2.53999996
   17.05055428  103.80200195    4.90999985    2.53999996
   17.05472183  114.85399628    4.90999985    2.55999994
   17.05777740  110.52200317    4.90999985    2.53999996
   17.06055450  111.75599670    4.90999985    2.51999998
   17.06138802  113.70300293    4.90999985    2.55999994
   17.06472206  110.15699768    0.19000000    0.34000000
   17.06805611  118.43499756    0.19000000    0.11000000
   17.07111168  105.14600372    0.15000001    0.01000000
   17.07444572   99.62989807    0.15000001    0.01000000
   17.07777786  107.16899872    0.15000001    0.01000000
   17.08083344   91.73090363    0.15000001    0.01000000
   17.08416748  123.80000305    0.15000001    0.01000000
   17.08722305  105.20200348    0.15000001    0.01000000
   17.09333420  105.20200348    0.15000001    0.01000000
   17.11166763  133.79600525    0.15000001    0.01000000
   17.11499977  132.19299316    0.15000001    0.01000000
   17.11805534  128.70899963    0.15000001    0.01000000
   17.12138939  131.19700623    0.15000001    0.01000000
   17.12472153  128.51800537    0.15000001    0.01000000
   17.12777710  113.76799774    0.15000001    0.01000000
   17.13111115  127.59899902    0.15000001    0.01000000
   17.13638878  127.59899902    0.15000001    0.01000000
   17.14055634   99.80439758    0.15000001    0.01000000
   17.14388847  109.68299866    0.15000001    0.01000000
   17.14472198  122.15599823    0.15000001    0.01000000
   17.14749908  112.91699982    0.15000001    0.01000000
   17.15055466  113.91400146    0.15000001    0.01000000
   17.15388870  114.16899872    0.15000001    0.01000000
   17.15722275  118.73300171    0.15000001    0.01000000
   17.16027832  107.84200287    0.15000001    0.01000000
   17.16361046  122.24199677    0.15000001    0.01000000
   17.16694450  130.16299438    0.15000001    0.01000000
   17.17000008  121.06099701    0.15000001    0.01000000
   17.17333221  122.55200195    0.15000001    0.01000000
   17.17916679  122.55200195    0.15000001    0.01000000
   17.18333244  110.56400299    0.15000001    0.01000000
   17.18666649  128.03700256    0.15000001    0.01000000
   17.18999863  123.45400238    0.15000001    0.01000000
   17.19305420  141.96099854    0.15000001    0.01000000
   17.19638824  147.14199829    0.15000001    0.01000000
   17.19944382  138.69000244    0.15000001    0.01000000
   17.20277786  149.20199585    0.15000001    0.01000000
   17.20611191  133.75300598    0.15000001    0.01000000
   17.20916748  140.88200378    0.15000001    0.01000000
   17.21138954  129.77000427    0.15000001    0.01000000
   17.21305656  140.89599609    0.15000001    0.01000000
   17.21638870  138.95700073    0.15000001    0.01000000
   17.22222328  138.95700073    0.15000001    0.01000000
   17.22638893  125.56199646    0.15000001    0.01000000
   17.22944450  128.71400452    0.15000001    0.01000000
   17.23277855  144.10299683    0.15000001    0.01000000
   17.23583412  135.99499512    0.15000001    0.01000000
   17.23944473  117.44599915    0.15000001    0.01000000
   17.24277878  102.44799805    0.15000001    0.01000000
   17.24472237  112.65000153    0.15000001    0.01000000
   17.24638939   98.78269958    0.15000001    0.01000000
   17.24972153  101.40599823    0.15000001    0.01000000
   17.25277710  112.77400208    0.15000001    0.01000000
   17.25611115  105.69599915    0.15000001    0.01000000
   17.25916672   97.40570068    0.15000001    0.01000000
   17.26499939   97.40570068    0.15000001    0.01000000
   17.26916695   85.76319885    0.15000001    0.01000000
   17.27222252   84.75479889    0.15000001    0.01000000
   17.27555466   82.60749817    0.15000001    0.01000000
   17.27805519   89.94809723    0.15000001    0.01000000
   17.27916718   86.60610199    0.15000001    0.01000000
   17.28249931   94.06140137    0.15000001    0.01000000
   17.28555489   89.20600128    0.15000001    0.01000000
   17.28888893   81.89209747    0.15000001    0.01000000
   17.29222107   83.66809845    0.15000001    0.01000000
   17.29527664   91.76509857    0.15000001    0.01000000
   17.29861069   93.38749695    0.15000001    0.01000000
   17.30166626   89.43419647    0.15000001    0.01000000
   17.30777740   89.43419647    0.15000001    0.01000000
   17.31194305   90.08779907    0.15000001    0.01000000
   17.31527710   83.22850037    0.15000001    0.01000000
   17.31833458   85.42680359    0.15000001    0.01000000
   17.32166672   85.76619720    0.15000001    0.01000000
   17.32500076   86.38400269    0.15000001    0.01000000
   17.32805634   90.87519836    0.15000001    0.01000000
   17.33139038   80.87239838    0.15000001    0.01000000
   17.33444595   86.76280212    0.15000001    0.01000000
   17.33777809   87.21350098    0.15000001    0.01000000
   17.34111214   87.08260345    0.15000001    0.01000000
   17.34416771   89.25219727    0.15000001    0.01000000
   17.34472275   86.06770325    0.15000001    0.01000000
   17.35055542   86.06770325    0.15000001    0.01000000
   17.35472298   80.67960358    0.15000001    0.01000000
   17.35805511   79.51679993    0.15000001    0.01000000
   17.36138916   75.67420197    0.15000001    0.01000000
   17.36444473   85.09780121    0.15000001    0.01000000
   17.36777878   79.46749878    0.15000001    0.01000000
   17.37111092   84.94629669    0.15000001    0.01000000
   17.37416649   88.98539734    0.15000001    0.01000000
   17.37750053   84.51270294    0.15000001    0.01000000
   17.37805557   83.27179718    0.15000001    0.01000000
   17.38111115   91.20290375    0.15000001    0.01000000
   17.38444519  104.28700256    0.15000001    0.01000000
   17.38750076   90.09770203    0.15000001    0.01000000
   17.39361191   90.09770203    0.15000001    0.01000000
   17.39749908   89.65699768    0.15000001    0.01000000
   17.40083313   82.18669891    0.15000001    0.01000000
   17.40416718   90.99690247    0.15000001    0.01000000
   17.40722275   84.35420227    0.15000001    0.01000000
   17.41055489   83.92780304    0.15000001    0.01000000
   17.41138840   85.19509888    0.15000001    0.01000000
   17.41416550  101.05300140    0.15000001    0.01000000
   17.41749954  101.65699768    0.15000001    0.01000000
   17.42055511   79.51450348    0.15000001    0.01000000
   17.42388916   86.35489655    0.15000001    0.01000000
   17.42694473   79.63990021    0.15000001    0.01000000
   17.43027687   84.97200012    0.15000001    0.01000000
   17.43638802   84.97200012    0.15000001    0.01000000
   17.44055557   89.06359863    0.15000001    0.01000000
   17.44361115   80.00810242    0.15000001    0.01000000
   17.44472122   82.46399689    0.15000001    0.01000000
   17.44722176   87.61589813    0.15000001    0.01000000
   17.45055580   77.28459930    0.15000001    0.01000000
   17.45388985   92.08100128    0.15000001    0.01000000
   17.45694542   83.35610199    0.15000001    0.01000000
   17.46027946   80.71730042    0.15000001    0.01000000
   17.46389008   87.93350220    0.15000001    0.01000000
   17.46694565   86.53150177    0.15000001    0.01000000
   17.47027779   89.27739716    0.15000001    0.01000000
   17.47361183   88.53970337    0.15000001    0.01000000
   17.47916794   88.53970337    0.15000001    0.01000000
   17.48333359   82.57679749    0.15000001    0.01000000
   17.48666763   84.36720276    0.15000001    0.01000000
   17.48972321   89.25569916    0.15000001    0.01000000
   17.49305534   86.68340302    0.15000001    0.01000000
   17.49638939   89.44709778    0.15000001    0.01000000
   17.49944496   91.01000214    0.15000001    0.01000000
   17.50277710   92.34420013    0.15000001    0.01000000
   17.50583267   82.15519714    0.15000001    0.01000000
   17.50916672   83.76149750    0.15000001    0.01000000
   17.51138878   97.82029724    0.15000001    0.01000000
   17.51277733   86.12870026    0.15000001    0.01000000
   17.51611137   80.09860229    0.15000001    0.01000000
   17.52194405   80.09860229    0.15000001    0.01000000
   17.52611160  103.55400085    0.15000001    0.01000000
   17.52944374   93.65509796    0.15000001    0.01000000
   17.53249931   87.08519745    0.15000001    0.01000000
   17.53583336   97.65760040    0.15000001    0.01000000
   17.53916550   99.24890137    0.15000001    0.01000000
   17.54222107  102.69999695    0.15000001    0.01000000
   17.54472160  112.72699738    0.15000001    0.01000000
   17.54583359  107.01300049    0.15000001    0.01000000
   17.54916573  112.28500366    0.15000001    0.01000000
   17.55222130   92.71920013    0.15000001    0.01000000
   17.55555534   97.27549744    0.15000001    0.01000000
   17.55888748   89.38880157    0.15000001    0.01000000
   17.56499863   89.38880157    0.15000001    0.01000000
   17.56888962  100.44400024    0.15000001    0.01000000
   17.57222366   90.45449829    0.15000001    0.01000000
   17.57555580  100.04599762    0.15000001    0.01000000
   17.57805634   99.76159668    0.15000001    0.01000000
   17.57916832   98.94000244    0.15000001    0.01000000
   17.58250046   93.83460236    0.15000001    0.01000000
   17.58555603   90.18470001    0.15000001    0.01000000
   17.58889008   93.69319916    0.15000001    0.01000000
   17.59222221  116.69000244    0.15000001    0.01000000
   17.59527779   99.21009827    0.15000001    0.01000000
   17.59861183   88.76820374    0.15000001    0.01000000
   17.60166740   85.70719910    0.15000001    0.01000000
   17.60777855   85.70719910    0.15000001    0.01000000
   17.61194420   99.47399902    0.15000001    0.01000000
   17.61527824   84.92169952    0.15000001    0.01000000
   17.61833382   93.98940277    0.15000001    0.01000000
   17.62166595   94.35630035    0.15000001    0.01000000
   17.62472153   89.66709900    0.15000001    0.01000000
   17.62805557   98.61910248    0.15000001    0.01000000
   17.63138962  100.10700226    0.15000001    0.01000000
   17.63444519   93.44560242    0.15000001    0.01000000
   17.63777733  103.36399841    0.15000001    0.01000000
   17.64111137   92.71240234    0.15000001    0.01000000
   17.64416695   -1.00000000    0.15000001    0.01000000
   17.65055466   -1.00000000    0.15000001    0.01000000
   17.65472221   98.05960083    0.15000001    0.01000000
   17.65805435   94.71920013    0.15000001    0.01000000
   17.66110992   97.27639771    0.15000001    0.01000000
   17.66444397   91.80439758    0.15000001    0.01000000
   17.66749954   87.83200073    0.15000001    0.01000000
   17.67083359   96.98090363    0.15000001    0.01000000
   17.67416573   83.41110229    0.15000001    0.01000000
