    HOUR (UT)   FLARE FACTOR    SKY TESTER    SUN TESTER
   12.45611095   -1.00000000   -1.00000000   -1.00000000
   12.48527813  216.27600098    4.90999985    1.78999996
   12.48861122  143.45100403    4.90999985    1.78999996
   12.49194431  144.29400635    4.90999985    1.78999996
   12.49499989  156.78799438    4.90999985    1.78999996
   12.49833393  160.68899536    4.90999985    1.78999996
   12.50138855  156.52299500    4.90999985    1.80999994
   12.50555515  156.52299500    4.90999985    1.78999996
   12.50972176  172.24499512    4.90999985    1.78999996
   12.51305580  148.05299377    4.90999985    1.80999994
   12.51611137  180.10899353    4.90999985    1.80999994
   12.51833344  172.18499756    4.90999985    1.80999994
   12.51999950  154.25300598    4.90999985    1.80999994
   12.52305508  159.55400085    4.90999985    1.80999994
   12.52638817  158.95399475    4.90999985    1.83000004
   12.52972221  160.72300720    4.90999985    1.83000004
   12.53277779  163.73800659    4.90999985    1.83000004
   12.53611183  179.69200134    4.90999985    1.83000004
   12.53944492  178.91099548    4.90999985    1.83000004
   12.54250050  192.85600281    4.90999985    1.83000004
   12.54861164  192.85600281    4.90999985    1.85000002
   12.55249977  191.34700012    4.90999985    1.85000002
   12.55583382  179.27499390    4.90999985    1.85000002
   12.55916691  196.47700500    4.90999985    1.85000002
   12.56222248  170.94999695    4.90999985    1.85000002
   12.56555557  174.20300293    4.90999985    1.85000002
   12.56888866  179.07699585    4.90999985    1.85000002
   12.57194424  183.11999512    4.90999985    1.85000002
   12.57527733  186.38699341    4.90999985    1.85000002
   12.57833290  189.15699768    4.90999985    1.85000002
   12.58166695  181.29800415    4.90999985    1.86000001
   12.58500004  177.71600342    4.90999985    1.86000001
   12.58555508  181.62899780    4.90999985    1.86000001
   12.59138870  181.62899780    4.90999985    1.86000001
   12.59555531  181.78599548    4.90999985    1.86000001
   12.59861088  196.00000000    4.90999985    1.86000001
   12.60194492  174.33500671    4.90999985    1.86000001
   12.60527802  170.93299866    4.90999985    1.86000001
   12.60833359  183.74000549    4.90999985    1.88000000
   12.61166668  160.41700745    4.90999985    1.88000000
   12.61472225  172.86199951    4.90999985    1.88000000
   12.61805534  195.59399414    4.90999985    1.88000000
   12.61888885  174.86199951    4.90999985    1.88000000
   12.62166691  185.86900330    4.90999985    1.88000000
   12.62500000  152.57699585    4.90999985    1.88000000
   12.62833309  179.15100098    4.90999985    1.89999998
   12.63416672  179.15100098    4.90999985    1.89999998
   12.63833332  167.49699402    4.90999985    1.89999998
   12.64166641  172.74400330    4.90999985    1.89999998
   12.64472198  162.48599243    4.90999985    1.91999996
   12.64805508  169.52000427    4.90999985    1.89999998
   12.65138817  171.32699585    4.90999985    1.89999998
   12.65222168  181.05999756    4.90999985    1.89999998
   12.65472221  170.94599915    4.90999985    1.91999996
   12.65805531  167.23500061    4.90999985    1.91999996
   12.66138840  165.98300171    4.90999985    1.91999996
   12.66444397  163.11700439    4.90999985    1.91999996
   12.66777802  170.30200195    4.90999985    1.94000006
   12.67083359  168.24699402    4.90999985    1.91999996
   12.67694473  168.24699402    4.90999985    1.94000006
   12.68111134  192.21600342    4.90999985    1.94000006
   12.68444443  168.66200256    4.90999985    1.94000006
   12.68555546  161.44799805    4.90999985    1.94000006
   12.68805599  168.64599609    4.90999985    1.94000006
   12.69138908  175.08799744    4.90999985    1.94000006
   12.69472218  177.38600159    4.90999985    1.96000004
   12.69777775  195.80499268    4.90999985    1.96000004
   12.70111084  167.64799500    4.90999985    1.96000004
   12.70416641  160.80000305    4.90999985    1.96000004
   12.70749950  162.25500488    4.90999985    1.96000004
   12.71083355  168.86099243    4.90999985    1.96000004
   12.71388912  171.36000061    4.90999985    1.96000004
   12.71999931  171.36000061    4.90999985    1.96000004
   12.72388840  180.40299988    4.90999985    1.98000002
   12.72722149  164.33099365    4.90999985    1.98000002
   12.73055553  160.91999817    4.90999985    1.98000002
   12.73361111  159.08099365    4.90999985    1.98000002
   12.73694515  168.36799622    4.90999985    1.98000002
   12.74027824  171.58700562    4.90999985    2.00000000
   12.74333382  159.97999573    4.90999985    2.00000000
   12.74666691  147.61099243    4.90999985    2.00000000
   12.74972248  176.71499634    4.90999985    2.00000000
   12.75222206  161.22300720    4.90999985    2.00000000
   12.75333309  161.78599548    4.90999985    1.98000002
   12.75666714  166.61000061    4.90999985    2.00000000
   12.76277733  166.61000061    4.90999985    2.00000000
   12.76694393  152.42300415    4.90999985    2.00000000
   12.76999950  161.74200439    4.90999985    2.01999998
   12.77333355  168.38999939    4.90999985    2.01999998
   12.77666664  163.23699951    4.90999985    2.01999998
   12.77972221  151.89799500    4.90999985    2.01999998
   12.78305531  151.63699341    4.90999985    2.01999998
   12.78555584  175.66099548    4.90999985    2.01999998
   12.78666687  160.42300415    4.90999985    2.00000000
   12.79000092  168.53500366    4.90999985    2.03999996
   12.79333401  154.37899780    4.90999985    2.01999998
   12.79638958  170.25199890    4.90999985    2.01999998
   12.79972267  158.50300598    4.90999985    2.01999998
   12.80555534  158.50300598    4.90999985    2.03999996
   12.80972195  158.53599548    4.90999985    2.01999998
   12.81305599  152.02299500    4.90999985    2.01999998
   12.81611156  161.14199829    4.90999985    2.01999998
   12.81888866  149.91799927    4.90999985    2.03999996
   12.81972218  174.86399841    4.90999985    2.03999996
   12.82305527  150.08700562    4.90999985    2.03999996
   12.82638836  162.61099243    4.90999985    2.03999996
   12.82944393  161.72399902    4.90999985    2.03999996
   12.83277798  160.11900330    4.90999985    2.03999996
   12.83583260  156.12399292    4.90999985    2.03999996
   12.83916664  160.69299316    4.90999985    2.05999994
   12.84249973  143.97399902    4.90999985    2.03999996
   12.84833336  143.97399902    4.90999985    2.05999994
   12.85249996  148.50100708    4.90999985    2.05999994
   12.85583401  146.80499268    4.90999985    2.05999994
   12.85888958  147.73399353    4.90999985    2.05999994
   12.86222267  143.61099243    4.90999985    2.05999994
   12.86555576  160.68200684    4.90999985    2.05999994
   12.86861134  160.03199768    4.90999985    2.05999994
   12.87194443  151.41999817    4.90999985    2.05999994
   12.87527752  161.17999268    4.90999985    2.07999992
   12.87833309  163.35400391    4.90999985    2.07999992
   12.88166714  170.89100647    4.90999985    2.07999992
   12.88472176  162.77900696    4.90999985    2.07999992
   12.88555527  164.05099487    4.90999985    2.07999992
   12.89111137  164.05099487    4.90999985    2.05999994
   12.89527798  167.72000122    4.90999985    2.07999992
   12.89861107  162.41700745    4.90999985    2.07999992
   12.90194416  162.71000671    4.90999985    2.07999992
   12.90499973  162.63800049    4.90999985    2.09999990
   12.90833282  160.20100403    4.90999985    2.09999990
   12.91166592  164.44799805    4.90999985    2.09999990
   12.91472149  159.25000000    4.90999985    2.09999990
   12.91805553  166.85099792    4.90999985    2.09999990
   12.91916656  155.42500305    4.90999985    2.09999990
   12.92222214  149.29899597    4.90999985    2.09999990
   12.92555618  151.81399536    4.90999985    2.09999990
   12.92861176  156.94500732    4.90999985    2.07999992
   12.93416691  156.94500732    4.90999985    2.09999990
   12.93833351  154.10899353    4.90999985    2.09999990
   12.94138908  163.46099854    4.90999985    2.09999990
   12.94472218  157.55299377    4.90999985    2.09999990
   12.94777775  164.92399597    4.90999985    2.09999990
   12.95111084  160.23599243    4.90999985    2.09999990
   12.95222187  165.88900757    4.90999985    2.09999990
   12.95472240  159.15699768    4.90999985    2.11999989
   12.95805550  151.25000000    4.90999985    2.11999989
   12.96138859  153.83799744    4.90999985    2.11999989
   12.96444416  161.06700134    4.90999985    2.11999989
   12.96777725  154.62300110    4.90999985    2.11999989
   12.97111034  157.05599976    4.90999985    2.11999989
   12.97694397  157.05599976    4.90999985    2.11999989
   12.98111057  145.15899658    4.90999985    2.13000011
   12.98416710  144.87100220    4.90999985    2.13000011
   12.98555565  152.94799805    4.90999985    2.13000011
   12.98777771  165.64599609    4.90999985    2.11999989
   12.99111176  162.43800354    4.90999985    2.13000011
   12.99444485  164.02099609    4.90999985    2.13000011
   12.99750042  162.78900146    4.90999985    2.13000011
   13.00083351  152.44700623    4.90999985    2.13000011
   13.00416660  159.78900146    4.90999985    2.13000011
   13.00722218  157.40199280    4.90999985    2.13000011
   13.01055527  157.67700195    4.90999985    2.13000011
   13.01361084  165.25500488    4.90999985    2.13000011
   13.01972198  165.25500488    4.90999985    2.15000010
   13.02388859  149.85099792    4.90999985    2.13000011
   13.02722168  153.34599304    4.90999985    2.13000011
   13.03027725  154.01300049    4.90999985    2.15000010
   13.03361130  147.58000183    4.90999985    2.15000010
   13.03694534  142.82400513    4.90999985    2.15000010
   13.04000092  154.84100342    4.90999985    2.15000010
   13.04333401  161.65699768    4.90999985    2.15000010
   13.04638958  149.58299255    4.90999985    2.15000010
   13.04972267  160.59300232    4.90999985    2.13000011
   13.05222225  158.03300476    4.90999985    2.13000011
   13.05333328  153.37500000    4.90999985    2.15000010
   13.05666733  159.02299500    4.90999985    2.15000010
   13.06250000  159.02299500    4.90999985    2.15000010
   13.06666660  152.70399475    4.90999985    2.15000010
   13.06999969  152.47399902    4.90999985    2.15000010
   13.07333374  145.78100586    4.90999985    2.15000010
   13.07638836  148.51100159    4.90999985    2.17000008
   13.07972240  137.92900085    4.90999985    2.15000010
   13.08305550  147.60600281    4.90999985    2.17000008
   13.08555508  150.17399597    4.90999985    2.17000008
   13.08638859  153.20300293    4.90999985    2.17000008
   13.08972168  152.49200439    4.90999985    2.15000010
   13.09305477  153.26400757    4.90999985    2.17000008
   13.09611034  140.97399902    4.90999985    2.17000008
   13.09944439  153.99600220    4.90999985    2.17000008
   13.10555553  153.99600220    4.90999985    2.17000008
   13.10972214  144.85800171    4.90999985    2.17000008
   13.11277771  148.06399536    4.90999985    2.17000008
   13.11611176  147.60200500    4.90999985    2.17000008
   13.11888885  166.62399292    4.90999985    2.19000006
   13.11944485  153.54299927    4.90999985    2.19000006
   13.12277794  146.32200623    4.90999985    2.19000006
   13.12611103  151.83200073    4.90999985    2.17000008
   13.12916660  159.64399719    4.90999985    2.19000006
   13.13249969  140.85600281    4.90999985    2.17000008
   13.13583279  151.16000366    4.90999985    2.19000006
   13.13888836  151.30000305    4.90999985    2.19000006
   13.14222240  147.68400574    4.90999985    2.19000006
   13.14833355  147.68400574    4.90999985    2.19000006
   13.15249920  136.80700684    4.90999985    2.17000008
   13.15555477  155.45899963    4.90999985    2.19000006
   13.15888882  155.67399597    4.90999985    2.19000006
   13.16222191  147.35899353    4.90999985    2.19000006
   13.16527748  133.10099792    4.90999985    2.19000006
   13.16861153  145.71699524    4.90999985    2.19000006
   13.17194462  141.77400208    4.90999985    2.19000006
   13.17500019  149.10299683    4.90999985    2.21000004
   13.17833328  161.40199280    4.90999985    2.19000006
   13.18138885  153.81399536    4.90999985    2.19000006
   13.18472195  150.48300171    4.90999985    2.21000004
   13.18555546  142.55400085    4.90999985    2.21000004
   13.19111156  142.55400085    4.90999985    2.21000004
   13.19527817  161.11700439    4.90999985    2.21000004
   13.19861126  156.21800232    4.90999985    2.21000004
   13.20166683  140.17199707    4.90999985    2.21000004
   13.20499992  137.11500549    4.90999985    2.21000004
   13.20833302  149.53100586    4.90999985    2.21000004
   13.21138859  140.71899414    4.90999985    2.21000004
   13.21472168  153.93600464    4.90999985    2.21000004
   13.21777725  146.54100037    4.90999985    2.21000004
   13.21888828  143.58999634    4.90999985    2.21000004
   13.22166634  137.44500732    4.90999985    2.23000002
   13.22472191  151.06599426    4.88999987    2.21000004
   13.22805500  147.12500000    4.88999987    2.23000002
   13.23388958  147.12500000    4.86999989    2.23000002
   13.23805618  135.59700012    4.84999990    2.23000002
   13.24138927  147.49400330    4.84999990    2.23000002
   13.24444485  146.01699829    4.84999990    2.23000002
   13.24777794  144.71699524    4.82999992    2.23000002
   13.25111103  153.24699402    4.80999994    2.23000002
   13.25222206  143.01199341    4.80999994    2.23000002
   13.25444412  146.51499939    4.80000019    2.23000002
   13.25777817  136.04400635    4.76000023    2.23000002
   13.26111126  142.44799805    4.73999977    2.23000002
   13.26416683  146.82000732    4.71999979    2.23000002
   13.26749992  145.02499390    4.69999981    2.25000000
   13.27083302  141.36300659    4.65999985    2.23000002
   13.27694416  141.36300659    4.67999983    2.25000000
   13.28083324  130.05000305    4.65999985    2.25000000
   13.28416729  145.99000549    4.59999990    2.25000000
   13.28555584  149.03900146    4.59999990    2.25000000
   13.28777790  141.22799683    4.57999992    2.25000000
   13.29111195  139.62800598    4.53999996    2.25000000
   13.29444504  135.02999878    4.53000021    2.25000000
   13.29750061  135.36900330    4.53000021    2.25000000
   13.30083370  139.47799683    4.48999977    2.25000000
   13.30416679  148.39399719    4.46999979    2.26999998
   13.30722237  130.55499268    4.44999981    2.25000000
   13.31055546  139.68200684    4.42999983    2.25000000
   13.31361103  140.18800354    4.40999985    2.25000000
   13.31972218  140.18800354    4.38999987    2.25000000
   13.32388878  138.20300293    4.34999990    2.26999998
   13.32694435  155.53700256    4.32999992    2.26999998
   13.33027744  141.77200317    4.36999989    2.26999998
   13.33361053  149.91999817    4.38999987    2.26999998
   13.33666611  144.42700195    4.38999987    2.26999998
   13.34000015  138.44999695    4.38999987    2.26999998
   13.34305477  140.70300293    4.40999985    2.26999998
   13.34638882  140.42999268    4.42999983    2.26999998
   13.34972191  136.66999817    4.42999983    2.26999998
   13.35222244  129.41000366    4.42999983    2.26999998
   13.35305595  132.06500244    4.42999983    2.26999998
   13.35638905  125.15599823    4.42999983    2.26999998
   13.36250019  125.15599823    4.42999983    2.28999996
   13.36666679  135.40499878    4.46999979    2.26999998
   13.36999989  134.19599915    4.46999979    2.28999996
   13.37305546  126.71800232    4.46999979    2.26999998
   13.37638855  136.86999512    4.46999979    2.26999998
   13.37944412  128.47700500    4.44999981    2.28999996
   13.38277817  133.45100403    4.44999981    2.26999998
   13.38555527  133.25399780    4.44999981    2.26999998
   13.38666630  139.55799866    4.44999981    2.26999998
   13.38972187  134.02900696    4.42999983    2.26999998
   13.39305496  143.36999512    4.42999983    2.28999996
   13.39611053  135.90699768    4.40999985    2.28999996
   13.39944458  136.39500427    4.40999985    2.28999996
   13.40527725  136.39500427    4.40999985    2.28999996
   13.40944386  134.77000427    4.38999987    2.28999996
   13.41277695  140.97500610    4.36999989    2.28999996
   13.41611099  121.28900146    4.36999989    2.28999996
   13.41888905  133.64300537    4.36999989    2.26999998
   13.41972256  131.03599548    4.36999989    2.28999996
   13.42277813  140.85600281    4.36999989    2.28999996
   13.42611122  135.40299988    4.36999989    2.28999996
   13.42916679  135.57400513    4.36999989    2.30999994
   13.43249989  130.92799377    4.34999990    2.30999994
   13.43583298  129.29800415    4.34999990    2.28999996
   13.43888855  121.74700165    4.32999992    2.28999996
   13.44222260  132.19000244    4.32999992    2.28999996
   13.44833374  132.19000244    4.30999994    2.30999994
   13.45222187  140.86900330    4.26999998    2.30999994
   13.45555496  122.47599792    4.26000023    2.28999996
   13.45888901  132.90100098    4.23999977    2.30999994
   13.46194458  136.20300293    4.23999977    2.30999994
   13.46527767  128.42999268    4.21999979    2.30999994
   13.46861076  127.71900177    4.21999979    2.32999992
   13.47166634  133.48800659    4.19999981    2.32999992
   13.47499943  124.52600098    4.19999981    2.30999994
   13.47805500  125.13800049    4.19999981    2.30999994
   13.48138809  131.16700745    4.19999981    2.30999994
   13.48472214  118.51100159    4.19999981    2.28999996
   13.48555565  134.56599426    4.19999981    2.30999994
   13.50638866  134.56599426    4.09999990    2.32999992
   13.51055527  118.45200348    4.09999990    2.32999992
   13.51361084  128.87300110    4.09999990    2.30999994
   13.51694393  125.31700134    4.09999990    2.30999994
   13.51888847  131.71200562    4.09999990    2.32999992
   13.52055550  138.78100586    4.07999992    2.30999994
   13.52361107  137.04600525    4.07999992    2.30999994
   13.52694416  136.94599915    4.05999994    2.30999994
   13.53027725  135.59199524    4.00000000    2.32999992
   13.53333378  127.74299622    3.97000003    2.32999992
   13.53666687  129.25599670    3.91000009    2.32999992
   13.53972244  133.65299988    3.86999989    2.32999992
   13.54305553  120.60399628    3.84999990    2.32999992
   13.54888916  120.60399628    3.84999990    2.32999992
   13.55305576  131.47999573    3.84999990    2.32999992
   13.55638885  138.22099304    3.84999990    2.32999992
   13.55972195  130.16200256    3.82999992    2.32999992
   13.56277752  125.43099976    3.82999992    2.34999990
   13.56611156  134.24099731    3.78999996    2.34999990
   13.56944466  143.31300354    3.75000000    2.32999992
   13.57250023  122.87100220    3.75000000    2.34999990
   13.57583332  135.99000549    3.76999998    2.34999990
   13.57888889  127.02600098    3.76999998    2.32999992
   13.58222198  130.82499695    3.76999998    2.34999990
   13.58555508  134.27600098    3.76999998    2.34999990
   13.58611107  135.01600647    3.75000000    2.34999990
   13.59194374  135.01600647    3.76999998    2.32999992
   13.59583282  126.95999908    3.76999998    2.34999990
   13.59916592  132.57400513    3.76999998    2.34999990
   13.60249996  144.83399963    3.75000000    2.34999990
   13.60555553  121.34500122    3.73000002    2.34999990
   13.60888958  138.21000671    3.75000000    2.34999990
   13.61222267  136.72500610    3.75000000    2.32999992
   13.61527824  132.27299500    3.75000000    2.34999990
   13.61861134  130.14999390    3.73000002    2.34999990
   13.61944485  134.25999451    3.73000002    2.34999990
   13.62222195  131.70300293    3.70000005    2.34999990
   13.62555599  136.80799866    3.70000005    2.34999990
   13.62861156  142.97300720    3.70000005    2.34999990
   13.63472176  142.97300720    3.68000007    2.34999990
   13.63888836  136.46099854    3.64000010    2.34999990
   13.64194393  126.31700134    3.64000010    2.36999989
   13.64527798  131.12800598    3.66000009    2.36999989
   13.64861107  130.36300659    3.61999989    2.36999989
   13.65166664  134.00799561    3.59999990    2.36999989
   13.65277767  128.69000244    3.61999989    2.36999989
   13.65527725  125.39499664    3.61999989    2.36999989
   13.65861034  125.64600372    3.64000010    2.34999990
   13.66166592  130.75300598    3.61999989    2.36999989
   13.66499996  136.73100281    3.61999989    2.36999989
   13.66833401  129.36399841    3.55999994    2.34999990
   13.67166710  133.42500305    3.51999998    2.36999989
   13.67750072  133.42500305    3.50000000    2.36999989
   13.68166733  117.99099731    3.53999996    2.36999989
   13.68500042  132.94500732    3.55999994    2.36999989
   13.68611145  125.81400299    3.55999994    2.36999989
   13.68861103  133.26199341    3.55999994    2.36999989
   13.69194412  131.84899902    3.53999996    2.36999989
   13.69499969  137.28599548    3.51999998    2.39000010
   13.69833374  135.26699829    3.50000000    2.36999989
   13.70166683  136.18499756    3.50000000    2.39000010
   13.70472240  134.74499512    3.48000002    2.39000010
   13.70805550  136.76499939    3.48000002    2.39000010
   13.71138859  140.00599670    3.48000002    2.36999989
   13.71444416  131.14100647    3.46000004    2.40000010
   13.72027779  131.14100647    3.30999994    2.36999989
   13.72444439  121.07399750    3.28999996    2.39000010
   13.72777748  127.72799683    3.28999996    2.39000010
   13.73083305  137.73199463    3.28999996    2.39000010
   13.73416710  126.67600250    3.34999990    2.39000010
   13.73750019  128.58399963    3.36999989    2.40000010
   13.74055576  136.33500671    3.36999989    2.39000010
   13.74388885  126.60199738    3.34999990    2.39000010
   13.74722290  134.27299500    3.32999992    2.40000010
   13.75027752  129.75100708    3.34999990    2.39000010
   13.75277805  129.61300659    3.32999992    2.39000010
   13.75388908  127.70400238    3.30999994    2.39000010
   13.75722218  126.94799805    3.28999996    2.39000010
   13.76333332  126.94799805    3.28999996    2.39000010
   13.76722240  123.07199860    3.28999996    2.39000010
   13.77055550  127.30799866    3.28999996    2.39000010
   13.77388859  120.44300079    3.30999994    2.39000010
   13.77694416  121.79199982    3.30999994    2.39000010
   13.78027725  125.14499664    3.30999994    2.39000010
   13.78361130  123.18099976    3.26999998    2.40000010
   13.78611183  131.77299500    3.26999998    2.39000010
   13.78694534  120.06600189    3.26999998    2.39000010
   13.79027843  123.88800049    3.26999998    2.40000010
   13.79333401  126.22499847    3.25000000    2.39000010
   13.79666710  126.14600372    3.28999996    2.40000010
   13.80000019  110.57199860    3.30999994    2.40000010
   13.80611134  110.57199860    3.26999998    2.40000010
   13.81027794  126.90499878    3.26999998    2.40000010
   13.81333351  130.52699280    3.25000000    2.40000010
   13.81666660  110.65000153    3.23000002    2.39000010
   13.81944466  136.97500610    3.25000000    2.40000010
   13.82027817  126.09200287    3.25000000    2.40000010
   13.82361126  120.86199951    3.23000002    2.40000010
   13.82666683  129.93899536    3.23000002    2.40000010
   13.82999992  130.35099792    3.21000004    2.40000010
   13.83333302  128.05900574    3.20000005    2.40000010
   13.83638859  132.61399841    3.18000007    2.40000010
   13.83972168  122.65200043    3.14000010    2.40000010
   13.84305477  121.51000214    3.09999990    2.40000010
   13.84888840  121.51000214    3.07999992    2.40000010
   13.85305595  138.66400146    3.09999990    2.40000010
   13.85638905  121.14900208    3.11999989    2.42000008
   13.85944462  114.08300018    3.16000009    2.42000008
   13.86277771  125.11799622    3.18000007    2.40000010
   13.86583328  121.91100311    3.18000007    2.40000010
   13.86916637  121.36199951    3.18000007    2.40000010
   13.87250042  123.81099701    3.16000009    2.42000008
   13.87555599  121.53700256    3.14000010    2.40000010
   13.87888908  117.03299713    3.14000010    2.40000010
   13.88222218  127.89199829    3.11999989    2.42000008
   13.88527775  127.41999817    3.05999994    2.42000008
   13.88611126  121.97499847    3.05999994    2.42000008
   13.89166641  121.97499847    3.01999998    2.44000006
   13.89583302  123.80000305    3.01999998    2.40000010
   13.89916611  112.09500122    3.03999996    2.42000008
   13.90222168  132.15100098    3.03999996    2.42000008
   13.90555477  115.31099701    3.05999994    2.42000008
   13.90888882  120.89900208    3.09999990    2.42000008
   13.91194439  112.30000305    3.11999989    2.40000010
   13.91527748  127.37300110    3.11999989    2.42000008
   13.91861153  117.77300262    3.11999989    2.40000010
   13.91944504  111.17700195    3.11999989    2.42000008
   13.92194462  120.44100189    3.09999990    2.42000008
   13.92527771  121.89299774    3.07999992    2.42000008
   13.92861176  115.48799896    3.05999994    2.42000008
   13.93472195  115.48799896    3.05999994    2.42000008
   13.93861103  121.78500366    3.03999996    2.42000008
   13.94194412  122.93199921    3.01999998    2.42000008
   13.94527817  127.13600159    3.01999998    2.42000008
   13.94833374  116.57399750    3.01999998    2.40000010
   13.95166683  117.67900085    2.98000002    2.44000006
   13.95277786  115.09200287    2.98000002    2.42000008
   13.95527744  115.74700165    2.94000006    2.44000006
   13.95861053  112.12799835    2.93000007    2.44000006
   13.96194458  108.11799622    2.91000009    2.42000008
   13.96500015  120.31400299    2.89000010    2.44000006
   13.96833324  123.52500153    2.89000010    2.44000006
   13.97138882  114.18399811    2.91000009    2.44000006
   13.97749996  114.18399811    2.96000004    2.42000008
   13.98166656  127.59100342    2.98000002    2.44000006
   13.98472214  120.35800171    2.98000002    2.44000006
   13.98611164  122.20899963    2.98000002    2.44000006
   13.98833370  124.57800293    2.98000002    2.44000006
   13.99166679  118.75700378    2.98000002    2.44000006
   13.99499989  116.06400299    2.98000002    2.44000006
   13.99805546  109.09400177    2.96000004    2.42000008
   14.00138855  110.64900208    2.96000004    2.42000008
   14.00472260  113.73899841    2.96000004    2.44000006
   14.00777817  114.70700073    2.96000004    2.46000004
   14.01111126  114.21399689    2.98000002    2.46000004
   14.01444435  124.00599670    2.96000004    2.44000006
   14.02027798  124.00599670    2.94000006    2.44000006
   14.02444458  113.91500092    2.96000004    2.44000006
   14.02777767  123.43299866    2.98000002    2.44000006
   14.03083324  109.34500122    3.00000000    2.44000006
   14.03416729  115.61399841    3.03999996    2.46000004
   14.03722286  113.95999908    3.05999994    2.44000006
   14.04055595  112.64900208    3.07999992    2.44000006
   14.04388905  110.27400208    3.11999989    2.44000006
   14.04694462  111.27899933    3.14000010    2.44000006
   14.05027771  113.92400360    3.16000009    2.44000006
   14.05277824  124.66100311    3.18000007    2.44000006
   14.05388927  111.18099976    3.20000005    2.42000008
   14.05722237  111.60600281    3.20000005    2.46000004
   14.06305599  111.60600281    3.21000004    2.44000006
   14.06722260  113.22599792    3.21000004    2.44000006
   14.07055569  108.53299713    3.20000005    2.44000006
   14.07361126  119.19200134    3.18000007    2.44000006
   14.07694435  120.36199951    3.20000005    2.46000004
   14.08027744  111.78500366    3.20000005    2.46000004
   14.08333302  124.79299927    3.20000005    2.46000004
   14.08611107  110.60600281    3.20000005    2.42000008
   14.08694458  126.24199677    3.21000004    2.44000006
   14.09027767  121.32900238    3.18000007    2.46000004
   14.09361076  123.06700134    3.18000007    2.44000006
   14.09666634  120.25700378    3.18000007    2.46000004
   14.10000038  121.18199921    3.20000005    2.46000004
   14.10611153  121.18199921    3.18000007    2.46000004
   14.11000061  117.63099670    3.18000007    2.46000004
   14.11333370  118.13200378    3.18000007    2.44000006
   14.11666679  108.90200043    3.18000007    2.46000004
   14.11944485  122.71499634    3.18000007    2.44000006
   14.11999989  107.79599762    3.18000007    2.44000006
   14.12333393  121.17900085    3.16000009    2.46000004
   14.12666702  117.67800140    3.16000009    2.46000004
   14.12972260  119.67500305    3.16000009    2.46000004
   14.13305569  116.88999939    3.14000010    2.44000006
   14.13611126  121.66200256    3.16000009    2.46000004
   14.13944435  124.30899811    3.14000010    2.46000004
   14.14277744  113.41100311    3.14000010    2.46000004
   14.14888859  113.41100311    3.11999989    2.46000004
   14.15305519  126.59700012    3.11999989    2.46000004
   14.15611076  119.73600006    3.11999989    2.46000004
   14.15944386  115.34400177    3.09999990    2.46000004
   14.16277695  118.26200104    3.09999990    2.46000004
   14.16583252  105.40899658    3.09999990    2.46000004
   14.16916656  112.90599823    3.09999990    2.46000004
   14.17222214  119.07099915    3.07999992    2.46000004
   14.17555618  111.81199646    3.09999990    2.46000004
   14.17888927  119.65399933    3.09999990    2.48000002
   14.18194485  109.57199860    3.09999990    2.46000004
   14.18527794  113.18399811    3.09999990    2.46000004
   14.18611145  116.79299927    3.09999990    2.46000004
   14.19166660  116.79299927    3.11999989    2.48000002
   14.19583321  112.80799866    3.11999989    2.46000004
   14.19916630  115.68199921    3.11999989    2.46000004
   14.20222187  113.15200043    3.11999989    2.46000004
   14.20555496  105.22100067    3.09999990    2.46000004
   14.20861053  102.20099640    3.07999992    2.46000004
   14.21194458  106.37899780    3.05999994    2.46000004
   14.21527767  113.33999634    3.03999996    2.46000004
   14.21833324  108.49700165    3.01999998    2.46000004
   14.21944427  111.10700226    3.01999998    2.46000004
   14.22194386  111.39099884    3.00000000    2.48000002
   14.22527695  114.98999786    3.00000000    2.46000004
   14.22861099  108.25199890    3.00000000    2.48000002
   14.23444462  108.25199890    2.96000004    2.48000002
   14.23861122  103.09999847    2.98000002    2.48000002
   14.24194431  104.68699646    3.00000000    2.46000004
   14.24499989  111.60900116    3.01999998    2.46000004
   14.24833393  106.15599823    3.03999996    2.46000004
   14.25166702  112.41400146    3.03999996    2.48000002
   14.25277805  105.96900177    3.03999996    2.46000004
   14.25500011  110.08000183    3.05999994    2.46000004
   14.25833321  113.38600159    3.05999994    2.48000002
   14.26166630  113.31600189    3.05999994    2.46000004
   14.26472187  112.24800110    3.03999996    2.48000002
   14.26805496  115.87699890    3.01999998    2.46000004
   14.27138901  111.75700378    3.01999998    2.46000004
   14.27750015  111.75700378    3.03999996    2.46000004
   14.28138828  105.72799683    3.03999996    2.46000004
   14.28472233  104.28800201    3.03999996    2.46000004
   14.28611183  112.01399994    3.03999996    2.48000002
   14.28833389  111.44899750    3.03999996    2.48000002
   14.29166698  104.90299988    3.03999996    2.48000002
   14.29500008  118.86399841    3.03999996    2.46000004
   14.29805565  115.55500031    3.01999998    2.48000002
   14.30138874  108.43499756    3.03999996    2.48000002
   14.30472279  119.11799622    3.03999996    2.48000002
   14.30777836  113.88300323    3.03999996    2.48000002
   14.31111145  101.51599884    3.03999996    2.48000002
   14.31416702  115.49199677    3.03999996    2.48000002
   14.32027817  115.49199677    3.03999996    2.46000004
   14.32444477  108.20200348    3.03999996    2.46000004
   14.32750034  107.74600220    3.01999998    2.48000002
   14.33083344  111.87899780    3.01999998    2.48000002
   14.33416653  109.83100128    3.03999996    2.48000002
   14.33722210  110.59500122    3.03999996    2.48000002
   14.34055519  103.15000153    3.03999996    2.48000002
   14.34388828  111.03299713    3.01999998    2.48000002
   14.34694386  112.44599915    3.01999998    2.48000002
   14.35027790  117.14900208    3.00000000    2.48000002
   14.35277843  110.68900299    3.00000000    2.50000000
   14.35388947  112.44000244    3.00000000    2.50000000
   14.35694504  100.85399628    3.00000000    2.48000002
   14.36305618  100.85399628    2.98000002    2.50000000
   14.36722279  108.73400116    2.98000002    2.48000002
   14.37055588  108.26699829    2.98000002    2.48000002
   14.37361145  101.82499695    2.96000004    2.48000002
   14.37694454   97.44339752    2.96000004    2.48000002
   14.38000011  107.32599640    2.96000004    2.46000004
   14.38333321  107.55300140    2.94000006    2.48000002
   14.38611126  110.26599884    2.94000006    2.48000002
   14.38722229  105.63099670    2.94000006    2.48000002
   14.39027786  108.07099915    2.93000007    2.48000002
   14.39361095  117.34899902    2.93000007    2.48000002
   14.39666653  109.46199799    2.93000007    2.50000000
   14.39999962  110.56099701    2.93000007    2.50000000
   14.40583324  110.56099701    2.93000007    2.48000002
   14.40999985  106.66000366    2.94000006    2.48000002
   14.41333294  117.13400269    2.93000007    2.50000000
   14.41638851  109.23899841    2.93000007    2.48000002
   14.41944504  106.46800232    2.93000007    2.48000002
   14.42027855  103.85500336    2.94000006    2.50000000
   14.42333412   99.11779785    2.94000006    2.50000000
   14.42666721  105.72000122    2.94000006    2.50000000
   14.42972279  104.90399933    2.94000006    2.50000000
   14.43305588  104.21399689    2.96000004    2.50000000
   14.43638897  101.21399689    2.96000004    2.50000000
   14.43944454  110.15499878    2.94000006    2.50000000
   14.44277763  103.03900146    2.94000006    2.50000000
   14.44888878  103.03900146    2.93000007    2.50000000
   14.45277786  100.19200134    2.91000009    2.48000002
   14.45611095   96.64939880    2.89000010    2.50000000
   14.45944405  101.76599884    2.86999989    2.48000002
   14.46249962   99.16829681    2.84999990    2.50000000
   14.46583271  102.15799713    2.84999990    2.50000000
   14.46916580  104.95099640    2.84999990    2.50000000
   14.47222137   99.65910339    2.86999989    2.50000000
   14.47555542  103.19200134    2.86999989    2.50000000
   14.47861099  101.92700195    2.91000009    2.48000002
   14.48194408   96.63449860    2.93000007    2.50000000
   14.48527813  102.99199677    2.94000006    2.50000000
   14.48611164  118.02200317    2.96000004    2.50000000
   14.49166679  118.02200317    2.98000002    2.50000000
   14.49583340  114.45600128    3.01999998    2.50000000
   14.49888897  110.72299957    3.05999994    2.50000000
   14.50222206  105.87799835    3.05999994    2.50000000
   14.51972198  104.47799683    3.09999990    2.51999998
   14.52222157  107.65499878    3.11999989    2.50000000
   14.52555561   99.27189636    3.14000010    2.50000000
   14.52861118   99.15760040    3.16000009    2.51999998
   14.53472233   99.15760040    3.11999989    2.50000000
   14.53888893  102.13800049    3.09999990    2.50000000
   14.54194450  107.94000244    3.09999990    2.51999998
   14.54527855  102.17700195    3.09999990    2.51999998
   14.54833412  105.32700348    3.07999992    2.53999996
   14.55166721  104.82299805    3.09999990    2.50000000
   14.55305576  111.11699677    3.09999990    2.50000000
   14.55555534   98.97190094    3.07999992    2.50000000
   14.55861092  110.01999664    3.03999996    2.50000000
   14.56194496  100.56099701    3.00000000    2.50000000
   14.56500053  104.83999634    2.98000002    2.50000000
   14.56833363  100.20700073    2.94000006    2.51999998
   14.57166672  107.78500366    2.86999989    2.51999998
   14.57750034  107.78500366    2.78999996    2.51999998
   14.58166695  105.44499969    2.75000000    2.51999998
   14.58472157  106.69699860    2.75000000    2.50000000
   14.58638859  102.41300201    2.73000002    2.51999998
   14.58861065  110.46600342    2.73000002    2.51999998
   14.59166622  105.77600098    2.71000004    2.51999998
   14.59499931  111.09999847    2.71000004    2.50000000
   14.59833336  107.77200317    2.71000004    2.53999996
   14.60138893  106.19300079    2.71000004    2.51999998
   14.60472298  104.22200012    2.73000002    2.51999998
   14.60805607  106.04599762    2.76999998    2.53999996
   14.61111164   99.49189758    2.78999996    2.51999998
   14.61444473  105.91200256    2.78999996    2.51999998
   14.62027836  105.91200256    2.80999994    2.51999998
   14.62444496  100.51300049    2.84999990    2.53999996
   14.62777805  106.83999634    2.84999990    2.50000000
   14.63083363  102.48000336    2.86999989    2.50000000
   14.63416672  105.66999817    2.89000010    2.50000000
   14.63722229  110.00700378    2.89000010    2.50000000
   14.64055538  106.18399811    2.89000010    2.50000000
   14.64388847   94.06490326    2.91000009    2.50000000
   14.64694405  101.53700256    2.89000010    2.51999998
   14.65027714   98.40440369    2.86999989    2.51999998
   14.65305519   98.55780029    2.89000010    2.50000000
   14.65388870  103.47299957    2.86999989    2.50000000
   14.65694427  108.03700256    2.86999989    2.51999998
   14.66305542  108.03700256    2.86999989    2.51999998
   14.66722298  105.22899628    2.84999990    2.51999998
   14.67055607  104.20899963    2.82999992    2.53999996
   14.67416668  105.08899689    2.82999992    2.51999998
   14.67750072   98.92579651    2.80999994    2.53999996
   14.68055630  100.56199646    2.78999996    2.53999996
   14.68388939  102.36000061    2.78999996    2.51999998
   14.68638897   99.87129974    2.78999996    2.51999998
   14.68750000  105.73699951    2.78999996    2.53999996
   14.69083309   97.98580170    2.75000000    2.51999998
   14.69388866  103.41500092    2.75000000    2.51999998
   14.69722271  105.76899719    2.75000000    2.51999998
   14.70027733  102.52899933    2.75000000    2.51999998
   14.70611095  102.52899933    2.75000000    2.53999996
   14.71027756  103.90699768    2.76999998    2.51999998
   14.71333313  101.50700378    2.78999996    2.51999998
   14.71666622   98.24369812    2.80999994    2.51999998
   14.71972179   93.21450043    2.80999994    2.51999998
   14.72027779  101.00399780    2.80999994    2.51999998
   14.72333336   99.78029633    2.82999992    2.51999998
   14.72666645  108.95300293    2.82999992    2.51999998
   14.72999954  105.47200012    2.82999992    2.50000000
   14.73305511  103.63700104    2.82999992    2.53999996
   14.73638916   91.11199951    2.82999992    2.51999998
   14.73944473  103.23899841    2.80999994    2.51999998
   14.74277782   93.40329742    2.78999996    2.53999996
   14.74888897   93.40329742    2.76999998    2.51999998
   14.75305557  100.52600098    2.76999998    2.53999996
   14.75361156  102.77300262    2.76999998    2.53999996
   14.75666714   93.94029999    2.75000000    2.51999998
   14.76000023   95.08129883    2.73000002    2.53999996
   14.76305580   94.09470367    2.71000004    2.51999998
   14.76638889   95.69599915    2.67000008    2.53999996
   14.76972198   92.84040070    2.66000009    2.53999996
   14.77305508   99.64949799    2.61999989    2.53999996
   14.77611065  102.73000336    2.57999992    2.53999996
   14.77944374   99.06349945    2.55999994    2.53999996
   14.78249931   93.20590210    2.53999996    2.51999998
   14.78583336  101.27200317    2.53999996    2.53999996
   14.78638935   96.24539948    2.53999996    2.53999996
   14.79166698   96.24539948    2.51999998    2.53999996
   14.79583359   97.15080261    2.51999998    2.53999996
   14.79916668   85.62280273    2.53999996    2.53999996
   14.80222225   89.92379761    2.51999998    2.53999996
   14.80555534  103.32700348    2.53999996    2.53999996
   14.80861092   97.89900208    2.55999994    2.53999996
   14.81194496   94.97910309    2.59999990    2.55999994
   14.81527805   93.76799774    2.61999989    2.53999996
   14.81833363   97.68810272    2.64000010    2.53999996
   14.81972218  103.80100250    2.64000010    2.53999996
   14.82222176   96.36920166    2.66000009    2.53999996
   14.82527733   97.60449982    2.66000009    2.53999996
   14.82861137   92.61399841    2.66000009    2.53999996
   14.83444405   92.61399841    2.64000010    2.55999994
   14.83861065   88.92189789    2.59999990    2.53999996
   14.84194374  100.07499695    2.59999990    2.53999996
   14.84499931   92.82340240    2.57999992    2.55999994
   14.84833336  100.64399719    2.57999992    2.55999994
   14.85166740   93.76090240    2.59999990    2.53999996
   14.85305595   99.75209808    2.59999990    2.53999996
   14.85527802   95.11679840    2.61999989    2.55999994
   14.85833359   97.87400055    2.59999990    2.53999996
   14.86166668   92.07810211    2.59999990    2.53999996
   14.86500072   98.94770050    2.57999992    2.53999996
   14.86805534  100.85700226    2.55999994    2.53999996
   14.87138939  101.89600372    2.53999996    2.53999996
   14.87750053  101.89600372    2.53999996    2.53999996
   14.88138866   94.56479645    2.50000000    2.53999996
   14.88472176  100.73100281    2.48000002    2.55999994
   14.88638878   94.77780151    2.46000004    2.55999994
   14.88833332   94.35279846    2.46000004    2.53999996
   14.89138889   98.93789673    2.42000008    2.53999996
   14.89472198   93.33910370    2.40000010    2.53999996
   14.89805508  103.27799988    2.36999989    2.53999996
   14.90111065   95.35710144    2.34999990    2.55999994
   14.90444374   97.44300079    2.32999992    2.53999996
   14.90777779   99.49410248    2.30999994    2.53999996
   14.91083336   97.05239868    2.32999992    2.55999994
   14.91416645  103.81400299    2.30999994    2.55999994
   14.92027855  103.81400299    2.28999996    2.55999994
   14.92444515  101.22100067    2.28999996    2.55999994
   14.92750072   95.28459930    2.28999996    2.55999994
   14.93083382   94.61190033    2.26999998    2.53999996
   14.93416691   94.92459869    2.28999996    2.55999994
   14.93722248   92.07340240    2.28999996    2.55999994
   14.94055557   92.20939636    2.26999998    2.55999994
   14.94388866  103.33999634    2.26999998    2.55999994
   14.94694424   92.40889740    2.28999996    2.55999994
   14.95027733   90.12470245    2.28999996    2.55999994
   14.95305538   95.77989960    2.30999994    2.55999994
   14.95388889   89.30650330    2.30999994    2.55999994
   14.95694447   91.36260223    2.28999996    2.55999994
   14.96305561   91.36260223    2.28999996    2.55999994
   14.96722221   99.10970306    2.28999996    2.55999994
   14.97055531   82.27739716    2.26999998    2.55999994
   14.97361088   95.96130371    2.25000000    2.55999994
   14.97694397   93.21199799    2.25000000    2.55999994
   14.97999954   96.38829803    2.23000002    2.55999994
   14.98333359   94.91169739    2.21000004    2.55999994
   14.98638916  102.70500183    2.21000004    2.55999994
   14.98694515   98.75219727    2.19000006    2.55999994
   14.99000072   87.44480133    2.17000008    2.55999994
   14.99333382   87.81890106    2.15000010    2.57999992
   14.99666691   90.52559662    2.11999989    2.55999994
   14.99972248   91.78829956    2.11999989    2.55999994
   15.00583363   91.78829956    2.03999996    2.55999994
   15.01000023   89.59760284    2.01999998    2.55999994
   15.01333332   96.12400055    2.01999998    2.55999994
   15.01638889   94.56510162    2.00000000    2.55999994
   15.01972198   96.27940369    2.00000000    2.57999992
   15.02027798   95.87370300    1.98000002    2.55999994
   15.12666702   -1.00000000   -1.00000000   -1.00000000
   15.22888851   -1.00000000   -1.00000000   -1.00000000
   15.32944393   -1.00000000   -1.00000000   -1.00000000
   15.36999989   99.97170258    2.01999998    2.57999992
   15.37333393   78.42900085    2.01999998    2.59999990
   15.37638855  122.57900238    2.01999998    2.57999992
   15.37972260  133.55400085    2.00000000    2.57999992
   15.38305569  127.50000000    2.00000000    2.59999990
   15.38611126  130.26699829    2.00000000    2.57999992
   15.39027786  130.26699829    2.00000000    2.57999992
   15.39444447  136.27200317    1.98000002    2.57999992
   15.39777756  121.65000153    1.98000002    2.59999990
   15.40083313  124.51000214    2.00000000    2.57999992
   15.40333271  122.43900299    2.00000000    2.59999990
   15.40444374  130.44000244    2.00000000    2.57999992
   15.40777779  122.77300262    1.98000002    2.57999992
   15.41111088  124.94100189    1.98000002    2.57999992
   15.41416645  118.06700134    1.98000002    2.59999990
   15.41750050  119.56199646    2.00000000    2.57999992
   15.42083359  120.63899994    2.00000000    2.57999992
   15.42388916  122.89600372    2.00000000    2.57999992
   15.42722225  120.94999695    2.00000000    2.57999992
   15.43305588  120.94999695    1.98000002    2.57999992
   15.43722248  124.39800262    1.98000002    2.59999990
   15.44055557  127.61100006    1.98000002    2.57999992
   15.44388866  124.27100372    2.00000000    2.57999992
   15.44694424  116.44999695    1.98000002    2.59999990
   15.45027733  123.84700012    2.00000000    2.59999990
   15.45333290  114.84899902    1.98000002    2.59999990
   15.45666695  113.61699677    1.98000002    2.61999989
   15.46000004  110.19999695    1.98000002    2.59999990
   15.46305561  120.00800323    1.98000002    2.59999990
   15.46638870  121.39199829    1.98000002    2.59999990
   15.46972179  121.39299774    1.98000002    2.59999990
   15.46999931  115.90799713    1.98000002    2.59999990
   15.47611046  115.90799713    1.98000002    2.59999990
   15.48027706  117.93299866    1.98000002    2.57999992
   15.48333359  128.14199829    1.98000002    2.57999992
   15.48666668  121.03800201    1.98000002    2.57999992
   15.48972225  114.36699677    2.00000000    2.59999990
   15.49305534  130.15199280    2.01999998    2.59999990
   15.49638939  119.61900330    2.03999996    2.59999990
   15.49944496  119.27500153    2.03999996    2.59999990
   15.50277805  120.27500153    2.07999992    2.57999992
   15.50333309  120.72000122    2.07999992    2.59999990
   15.50638866  122.28199768    2.09999990    2.59999990
   15.50972176  115.70200348    2.17000008    2.57999992
   15.51277733  110.87500000    2.21000004    2.59999990
   15.51888847  110.87500000    2.09999990    2.59999990
   15.52305508  119.21800232    2.11999989    2.57999992
   15.52611065  116.56999969    2.09999990    2.59999990
   15.52944374  113.92099762    2.11999989    2.59999990
   15.53277779  123.12100220    2.13000011    2.61999989
   15.53583336  125.12999725    2.11999989    2.59999990
   15.53666687  119.51100159    2.11999989    2.57999992
   15.53944492  105.05799866    2.11999989    2.59999990
   15.54277802  115.48400116    2.09999990    2.59999990
   15.54583359  111.35800171    2.07999992    2.59999990
   15.54916668  118.67199707    2.09999990    2.59999990
   15.55249977  109.52799988    2.09999990    2.59999990
   15.55555534  121.98699951    2.09999990    2.59999990
   15.56166649  121.98699951    2.07999992    2.59999990
   15.56583309  111.34500122    2.07999992    2.59999990
   15.56916618  122.63999939    2.07999992    2.61999989
   15.56999969  117.18900299    2.07999992    2.57999992
   15.57277775  118.48899841    2.07999992    2.57999992
   15.57611084  115.87500000    2.07999992    2.57999992
   15.57916641  116.64199829    2.07999992    2.59999990
   15.58249950  127.26899719    2.07999992    2.59999990
   15.58583260  116.33699799    2.07999992    2.59999990
   15.58888817  124.55799866    2.07999992    2.59999990
   15.59222221  106.88999939    2.07999992    2.57999992
   15.59555531  111.07700348    2.07999992    2.59999990
   15.59861088  114.66500092    2.07999992    2.59999990
   15.60444450  114.66500092    2.09999990    2.59999990
   15.60861111  125.73799896    2.09999990    2.59999990
   15.61194515  119.77500153    2.09999990    2.59999990
   15.61527824  110.85099792    2.11999989    2.59999990
   15.61833382  121.27300262    2.11999989    2.59999990
   15.62166691  112.66699982    2.11999989    2.59999990
   15.62500000  125.78900146    2.13000011    2.59999990
   15.62805557  115.62999725    2.11999989    2.59999990
   15.63138866  108.82399750    2.13000011    2.59999990
   15.63472176  117.70200348    2.13000011    2.59999990
   15.63694477  108.85700226    2.13000011    2.59999990
   15.63805580  115.26399994    2.13000011    2.59999990
   15.64138889  120.19799805    2.11999989    2.59999990
   15.64750004  120.19799805    2.11999989    2.59999990
   15.65166664  107.56900024    2.11999989    2.59999990
   15.65472221  119.98699951    2.09999990    2.59999990
   15.65805531  130.46099854    2.09999990    2.61999989
   15.66111088  108.94899750    2.07999992    2.59999990
   15.66444397  120.92700195    2.07999992    2.59999990
   15.66777802  119.82299805    2.07999992    2.59999990
   15.67000008  106.46900177    2.07999992    2.59999990
   15.67138958  116.23000336    2.07999992    2.59999990
   15.67472267  112.33300018    2.07999992    2.59999990
   15.67777824  115.63800049    2.09999990    2.59999990
   15.68111134  109.05500031    2.09999990    2.59999990
   15.68444443  109.46299744    2.11999989    2.59999990
   15.69027805  109.46299744    2.11999989    2.59999990
   15.69444466  114.59899902    2.11999989    2.59999990
   15.69750023  112.89099884    2.09999990    2.59999990
   15.70083332  118.32299805    2.09999990    2.59999990
   15.70361137  119.39299774    2.07999992    2.59999990
   15.70444393  113.86699677    2.07999992    2.59999990
   15.70777798  116.02899933    2.05999994    2.59999990
   15.71083355  113.42400360    2.05999994    2.61999989
   15.71416664  114.93900299    2.05999994    2.59999990
   15.71749973  110.25299835    2.05999994    2.57999992
   15.72055531  110.06700134    2.05999994    2.61999989
   15.72388840  121.88899994    2.05999994    2.59999990
   15.72722149  116.51300049    2.05999994    2.59999990
   15.73305511  116.51300049    2.03999996    2.59999990
   15.73722267  103.69200134    2.05999994    2.59999990
   15.74055576  114.30599976    2.03999996    2.61999989
   15.74361134  107.86299896    2.03999996    2.57999992
   15.74694443  111.77999878    2.01999998    2.59999990
   15.75027752  108.23500061    2.01999998    2.59999990
   15.75333309  112.82800293    2.00000000    2.59999990
   15.75666714  110.66000366    2.00000000    2.59999990
   15.75972176  113.96299744    2.00000000    2.59999990
   15.76305580  110.22899628    1.98000002    2.59999990
   15.76638889  114.81900024    1.98000002    2.61999989
   15.76944447  111.67299652    1.98000002    2.57999992
   15.77027798  116.23999786    1.98000002    2.57999992
   15.77583313  116.23999786    1.96000004    2.61999989
   15.77999973  113.11799622    1.94000006    2.59999990
   15.78333378  109.35399628    1.91999996    2.59999990
   15.78666687  111.62899780    1.88000000    2.59999990
   15.78972244  113.71099854    1.88000000    2.59999990
   15.79305553  112.30400085    1.88000000    2.59999990
   15.79611111  109.85600281    1.88000000    2.59999990
   15.79944515  117.43499756    1.88000000    2.61999989
   15.80277824  104.67700195    1.88000000    2.59999990
   15.80361176  106.06600189    1.88000000    2.61999989
   15.80611134  111.07199860    1.88000000    2.61999989
   15.80944443  107.35099792    1.88000000    2.61999989
   15.81277752  112.18800354    1.88000000    2.61999989
   15.81888866  112.18800354    1.88000000    2.61999989
   15.82305527  119.48999786    1.89999998    2.59999990
   15.82611084  114.93000031    1.91999996    2.61999989
   15.82944393   99.16230011    1.94000006    2.61999989
   15.83249950  113.95600128    1.94000006    2.61999989
   15.83583260  111.62999725    1.96000004    2.64000010
   15.83694458  111.07700348    1.96000004    2.64000010
   15.83944416  110.95099640    1.96000004    2.59999990
   15.84277725  119.39700317    1.98000002    2.59999990
   15.84611034  111.48100281    1.98000002    2.59999990
   15.84916592  112.37599945    1.98000002    2.59999990
   15.85249996  106.63899994    2.00000000    2.61999989
   15.85555553  107.39499664    2.00000000    2.61999989
   15.86166668  107.39499664    2.03999996    2.61999989
   15.86583328  101.89800262    2.05999994    2.61999989
   15.86888885  103.95400238    2.03999996    2.61999989
   15.87027836  112.96299744    2.03999996    2.61999989
   15.87250042  107.08699799    2.05999994    2.57999992
   15.87583351  110.15200043    2.05999994    2.61999989
   15.87916660  115.04299927    2.03999996    2.59999990
   15.88222218  104.47599792    2.03999996    2.59999990
   15.88555527  103.39399719    2.03999996    2.64000010
   15.88888836  109.11599731    2.03999996    2.61999989
   15.89194393  110.04599762    2.01999998    2.61999989
   15.89527798  111.33399963    2.01999998    2.59999990
   15.89861107  113.75399780    2.00000000    2.59999990
   15.90444374  113.75399780    1.98000002    2.61999989
   15.90861034  104.16500092    1.98000002    2.59999990
   15.91194439  109.23999786    1.98000002    2.61999989
   15.91499996  111.64099884    1.98000002    2.61999989
   15.91833401  106.27500153    1.96000004    2.61999989
   15.92166710  107.86399841    1.96000004    2.61999989
   15.92472267  109.25299835    1.91999996    2.61999989
   15.92805576  105.06400299    1.91999996    2.61999989
   15.93111134  109.94000244    1.88000000    2.59999990
   15.93444443  117.28700256    1.88000000    2.61999989
   15.93694496  110.84899902    1.88000000    2.59999990
   15.93805599  106.77300262    1.88000000    2.59999990
   15.94138908  117.20999908    1.88000000    2.61999989
   15.94722271  117.20999908    1.85000002    2.61999989
   15.95138836  104.01799774    1.85000002    2.64000010
   15.95472240  102.50000000    1.85000002    2.64000010
   15.95805550  105.56600189    1.83000004    2.59999990
   15.96111107   99.49330139    1.83000004    2.61999989
   15.96444416  105.81199646    1.86000001    2.59999990
   15.96749973  100.90599823    1.85000002    2.61999989
   15.97027779  107.44899750    1.86000001    2.59999990
   15.97111034  100.57399750    1.86000001    2.61999989
   15.97444439  108.33100128    1.88000000    2.61999989
   15.97777748  102.53800201    1.88000000    2.61999989
   15.98083305  101.17400360    1.89999998    2.61999989
   15.98416710  108.37500000    1.89999998    2.61999989
   15.99027824  108.37500000    1.89999998    2.64000010
   15.99444485  103.56700134    1.94000006    2.61999989
   15.99750042  100.23899841    1.94000006    2.61999989
   16.00083351  110.98300171    1.94000006    2.61999989
   16.00361061  109.48000336    1.94000006    2.61999989
   16.00444412   97.31749725    1.94000006    2.61999989
   16.00777817  104.26300049    1.94000006    2.61999989
   16.01111031  105.75599670    1.94000006    2.61999989
   16.01416588  106.01599884    1.94000006    2.61999989
   16.01749992  116.62200165    1.96000004    2.61999989
   16.02055550   94.45420074    1.96000004    2.61999989
   16.02388954  109.35399628    1.96000004    2.59999990
   16.02722168   97.82599640    1.94000006    2.61999989
   16.03305435   97.82599640    1.96000004    2.61999989
   16.03722191  105.00299835    1.94000006    2.61999989
   16.04027748  102.04499817    1.94000006    2.61999989
   16.04361153  102.87699890    1.91999996    2.61999989
   16.04694366  109.98100281    1.91999996    2.61999989
   16.04999924  102.38899994    1.88000000    2.64000010
   16.05333328  100.79599762    1.88000000    2.61999989
   16.05666542  107.73000336    1.86000001    2.59999990
   16.05972099   98.45570374    1.86000001    2.61999989
   16.06305504  110.73100281    1.86000001    2.61999989
   16.06611061   95.71179962    1.86000001    2.61999989
   16.06944466  101.26699829    1.80999994    2.61999989
   16.07027817  104.04599762    1.80999994    2.61999989
   16.07583427  104.04599762    1.76999998    2.64000010
   16.08000183  105.63300323    1.76999998    2.64000010
   16.08333397  111.49500275    1.76999998    2.64000010
   16.08638954  100.06300354    1.75000000    2.61999989
   16.08972359   96.93890381    1.76999998    2.61999989
   16.09305573   96.96440125    1.75000000    2.61999989
   16.09611130  103.70800018    1.75000000    2.61999989
   16.09944534  109.06900024    1.75000000    2.61999989
   16.10250092  107.74700165    1.76999998    2.64000010
   16.10361099   97.16510010    1.76999998    2.61999989
   16.10611153  113.95300293    1.76999998    2.61999989
   16.10944557  112.64399719    1.76999998    2.64000010
   16.11277771  103.96299744    1.76999998    2.64000010
   16.11861038  103.96299744    1.76999998    2.64000010
   16.12277794  106.19799805    1.78999996    2.61999989
   16.12611198  104.46499634    1.78999996    2.64000010
   16.12944412  113.25599670    1.80999994    2.61999989
   16.13249969  101.63200378    1.80999994    2.64000010
   16.13583374  106.00399780    1.78999996    2.61999989
   16.13694382   99.06950378    1.80999994    2.61999989
   16.13916588  124.93000031    1.80999994    2.61999989
   16.14249992  100.38300323    1.80999994    2.61999989
   16.14583397   91.26399994    1.80999994    2.61999989
   16.14888954  107.27100372    1.85000002    2.61999989
   16.15222168  104.09899902    1.88000000    2.64000010
   16.15555573   99.56670380    1.89999998    2.61999989
   16.16166687   99.56670380    1.89999998    2.59999990
   16.16555595  113.73200226    1.91999996    2.61999989
   16.16888809  107.13999939    1.89999998    2.61999989
   16.17027664  100.86499786    1.89999998    2.59999990
   16.17249870  110.08699799    1.89999998    2.64000010
   16.17583275   97.89980316    1.89999998    2.61999989
   16.17916679  102.17600250    1.89999998    2.61999989
   16.18222237  107.06300354    1.88000000    2.64000010
   16.18555450  104.16300201    1.86000001    2.64000010
   16.18861008  109.62799835    1.86000001    2.64000010
   16.19194412  102.85099792    1.86000001    2.61999989
   16.19527626  100.11799622    1.86000001    2.61999989
   16.19833183  117.47399902    1.85000002    2.61999989
   16.20444489  117.47399902    1.85000002    2.64000010
   16.20861244  104.16600037    1.86000001    2.61999989
   16.21166801  107.12500000    1.86000001    2.61999989
   16.21500015  100.06400299    1.86000001    2.64000010
   16.21833420  105.31600189    1.86000001    2.61999989
   16.22138977  105.48799896    1.86000001    2.64000010
   16.22472191  104.94799805    1.86000001    2.64000010
   16.22777748  104.56199646    1.86000001    2.64000010
   16.23111153  102.68599701    1.88000000    2.61999989
   16.23444557  105.39700317    1.89999998    2.61999989
   16.23694420   98.15920258    1.89999998    2.61999989
   16.23777771   95.89849854    1.89999998    2.61999989
   16.24111176   96.78359985    1.89999998    2.61999989
   16.24722290   96.78359985    1.91999996    2.64000010
   16.25138855  100.57199860    1.91999996    2.61999989
   16.25472260  102.40899658    1.91999996    2.61999989
   16.25777817  103.61499786    1.94000006    2.61999989
   16.26111031  100.45899963    1.94000006    2.61999989
   16.26416588  107.33300018    1.91999996    2.61999989
   16.26749992  103.99099731    1.88000000    2.61999989
   16.27027702   92.42600250    1.89999998    2.61999989
   16.27111053  102.97699738    1.89999998    2.61999989
   16.27444458  105.42099762    1.86000001    2.64000010
   16.27777672  104.09799957    1.86000001    2.64000010
   16.28083229  106.31400299    1.83000004    2.61999989
   16.28416634  100.26499939    1.85000002    2.61999989
   16.28999901  100.26499939    1.80999994    2.61999989
   16.29416656  103.02700043    1.78999996    2.61999989
   16.29749870   93.80339813    1.78999996    2.64000010
   16.30055428   97.74970245    1.76999998    2.61999989
   16.30360985   99.06289673    1.75000000    2.61999989
   16.30416679   97.70809937    1.75000000    2.61999989
   16.30749893  103.45400238    1.75000000    2.61999989
   16.31083298   98.29879761    1.75000000    2.61999989
   16.31388855   96.73889923    1.73000002    2.61999989
   16.31722260   97.01309967    1.73000002    2.64000010
   16.32027817  105.66999817    1.75000000    2.64000010
   16.32361221  100.62300110    1.75000000    2.64000010
   16.32694626  106.08599854    1.73000002    2.61999989
   16.33305550  106.08599854    1.73000002    2.64000010
   16.33694458  109.29100037    1.71000004    2.61999989
   16.34027863   98.09739685    1.69000006    2.61999989
   16.34361267  100.41400146    1.69000006    2.64000010
   16.34666824  106.32800293    1.66999996    2.61999989
   16.35000038   98.41179657    1.66999996    2.64000010
   16.35333443  102.10700226    1.66999996    2.64000010
   16.35639000  100.38300323    1.66999996    2.64000010
   16.35972214  100.13400269    1.66999996    2.64000010
   16.36277771  104.83899689    1.64999998    2.61999989
   16.36611176  103.68199921    1.63000000    2.64000010
   16.36944389   95.10590363    1.63000000    2.64000010
   16.37027740  100.84200287    1.63000000    2.64000010
   16.39083290  100.84200287    1.61000001    2.64000010
   16.39500046   97.22270203    1.60000002    2.64000010
   16.39833260   92.41429901    1.60000002    2.61999989
   16.40138817  102.51999664    1.60000002    2.61999989
   16.40361023   95.08149719    1.60000002    2.64000010
   16.40527725   99.25199890    1.60000002    2.64000010
   16.40833282   98.31400299    1.60000002    2.64000010
   16.41166687   89.77570343    1.61000001    2.61999989
   16.41499901   95.53669739    1.61000001    2.61999989
   16.41805458   96.93450165    1.63000000    2.61999989
   16.42138863   98.11930084    1.63000000    2.64000010
   16.42444420  103.33599854    1.63000000    2.64000010
   16.42777634   96.01210022    1.63000000    2.64000010
   16.43361092   96.01210022    1.61000001    2.64000010
   16.43777657   99.95970154    1.63000000    2.64000010
   16.44111061  101.31600189    1.63000000    2.61999989
   16.44416618  102.44799805    1.63000000    2.61999989
   16.44749832  104.41699982    1.64999998    2.61999989
   16.45083427   98.33209991    1.64999998    2.64000010
   16.45388985   97.06759644    1.71000004    2.64000010
   16.45722389   87.25669861    1.69000006    2.61999989
   16.46027946  105.29199982    1.71000004    2.64000010
   16.46361160  107.31900024    1.71000004    2.64000010
   16.46694565  102.56500244    1.69000006    2.64000010
   16.47000122  102.17400360    1.69000006    2.64000010
   16.47055626  105.70500183    1.69000006    2.64000010
   16.47638893  105.70500183    1.69000006    2.64000010
   16.48055649  103.43099976    1.75000000    2.64000010
   16.48388863  107.89900208    1.75000000    2.64000010
   16.48694420   99.31179810    1.75000000    2.64000010
   16.49027824  105.92400360    1.75000000    2.64000010
   16.49361229   99.04409790    1.71000004    2.61999989
   16.49666786   90.26989746    1.69000006    2.64000010
   16.50000000   91.54709625    1.69000006    2.64000010
   16.50333405   95.84600067    1.61000001    2.64000010
   16.50388908  100.01000214    1.61000001    2.61999989
   16.50694466   97.25810242    1.60000002    2.64000010
   16.51000023   98.18650055    1.58000004    2.61999989
   16.51333427   98.85849762    1.55999994    2.64000010
   16.51944351   98.85849762    1.58000004    2.61999989
   16.52333260  107.61499786    1.60000002    2.64000010
   16.52666664   98.59860229    1.60000002    2.61999989
   16.53000069   98.32070160    1.60000002    2.64000010
   16.53305435  109.21800232    1.60000002    2.64000010
   16.53638840  104.82499695    1.58000004    2.64000010
   16.53722191   99.36750031    1.58000004    2.64000010
   16.53999901  103.65799713    1.60000002    2.61999989
   16.54305458  100.67700195    1.58000004    2.64000010
   16.54638863   95.25659943    1.60000002    2.64000010
   16.54972076   97.19509888    1.60000002    2.64000010
   16.55277634  102.36100006    1.60000002    2.64000010
   16.55638885   95.35829926    1.61000001    2.61999989
   16.56222153   95.35829926    1.63000000    2.61999989
   16.56638718   95.00700378    1.64999998    2.61999989
   16.56944466  100.91500092    1.64999998    2.61999989
   16.57055664   95.30760193    1.64999998    2.61999989
   16.57305717   96.62339783    1.64999998    2.61999989
   16.57638931   96.77369690    1.63000000    2.64000010
   16.57944489  103.03399658    1.61000001    2.64000010
   16.58277893  102.16300201    1.61000001    2.61999989
   16.58583450   98.82839966    1.61000001    2.64000010
   16.58916664  102.85900116    1.60000002    2.64000010
   16.59250069   98.46269989    1.63000000    2.64000010
   16.59555626   92.20189667    1.64999998    2.61999989
   16.59889030  102.23300171    1.64999998    2.64000010
   16.60499954  102.23300171    1.64999998    2.61999989
   16.60916710  109.25000000    1.66999996    2.64000010
   16.61222267   99.93389893    1.69000006    2.64000010
   16.61555672  103.79799652    1.69000006    2.61999989
   16.61888885   97.33529663    1.75000000    2.61999989
   16.62194443  100.76399994    1.73000002    2.61999989
   16.62527847   92.43869781    1.75000000    2.64000010
   16.62861061  101.78299713    1.76999998    2.61999989
   16.63166618   96.86710358    1.78999996    2.64000010
   16.63500023  106.55599976    1.78999996    2.61999989
   16.63722229   89.21189880    1.78999996    2.64000010
   16.63861084  102.45300293    1.78999996    2.64000010
   16.64166641   96.42710114    1.80999994    2.64000010
   16.64777756   96.42710114    1.80999994    2.64000010
   16.65194321  101.09100342    1.80999994    2.61999989
   16.65527725   98.59259796    1.86000001    2.64000010
   16.65833282  105.82499695    1.88000000    2.61999989
   16.66166687   94.19039917    1.86000001    2.64000010
   16.66499901  101.45600128    1.86000001    2.64000010
   16.66805458   97.54540253    1.86000001    2.61999989
   16.67055511   87.01409912    1.86000001    2.61999989
   16.67166519   94.68879700    1.83000004    2.61999989
   16.67472076   96.63800049    1.80999994    2.64000010
   16.67805481   99.00090027    1.76999998    2.61999989
   16.68138885   94.71440125    1.75000000    2.64000010
   16.68444443   93.08249664    1.71000004    2.61999989
   16.69083214   93.08249664    1.66999996    2.61999989
   16.69472122   95.58290100    1.66999996    2.64000010
   16.69805527  100.67099762    1.66999996    2.61999989
   16.70138931   93.77490234    1.66999996    2.64000010
   16.70388985   97.54080200    1.66999996    2.64000010
   16.70499992   96.88449860    1.63000000    2.64000010
   16.70805550   96.62650299    1.63000000    2.64000010
   16.71166801   99.23419952    1.63000000    2.64000010
   16.71472359  102.31300354    1.60000002    2.64000010
   16.71805573  103.25399780    1.60000002    2.61999989
   16.72138977  108.18099976    1.60000002    2.61999989
   16.72444534   96.63990021    1.60000002    2.64000010
   16.72777748   94.94879913    1.60000002    2.64000010
   16.73361206   94.94879913    1.63000000    2.61999989
   16.73777771   97.40209961    1.66999996    2.64000010
   16.74083328  101.48500061    1.66999996    2.61999989
   16.74416733  105.36799622    1.69000006    2.64000010
   16.74749947   94.16660309    1.69000006    2.61999989
   16.75055504  105.12799835    1.69000006    2.61999989
   16.75388908  100.12999725    1.69000006    2.66000009
   16.75722313  101.73000336    1.69000006    2.61999989
   16.76027870  103.05799866    1.69000006    2.64000010
   16.76361084  103.68499756    1.71000004    2.61999989
   16.76694489   93.73179626    1.69000006    2.64000010
   16.77000046  104.29100037    1.69000006    2.64000010
   16.77055550  106.42199707    1.69000006    2.64000010
   16.77638817  106.42199707    1.69000006    2.64000010
   16.78055573  109.01100159    1.69000006    2.64000010
   16.78361130  109.39700317    1.66999996    2.64000010
   16.78694344   99.53340149    1.64999998    2.61999989
   16.79027748  106.46600342    1.60000002    2.64000010
   16.79333305   97.80819702    1.50000000    2.64000010
   16.79666710   99.99050140    1.48000002    2.66000009
   16.79999924  103.55999756    1.44000006    2.64000010
   16.80305481  106.87000275    1.44000006    2.64000010
   16.80388832  101.74299622    1.44000006    2.64000010
   16.80666542  108.47200012    1.44000006    2.64000010
   16.80999947  107.23200226    1.44000006    2.64000010
   16.81305504  114.23100281    1.44000006    2.64000010
   16.81916809  114.23100281    1.44000006    2.64000010
   16.82333374  105.13400269    1.44000006    2.64000010
   16.82666779  103.51399994    1.44000006    2.64000010
   16.82972336  107.34899902    1.50000000    2.64000010
   16.83305550  101.56999969    1.51999998    2.64000010
   16.83638954  111.08599854    1.51999998    2.64000010
   16.83722305   91.77549744    1.60000002    2.64000010
   16.84000015  100.65399933    1.61000001    2.64000010
   16.84333420  107.09500122    1.66999996    2.64000010
   16.84638977  109.01200104    1.66999996    2.64000010
   16.84972191  104.66899872    1.73000002    2.61999989
   16.85277748  120.10800171    1.73000002    2.64000010
   16.85611153  109.53900146    1.75000000    2.64000010
   16.86194420  109.53900146    1.71000004    2.64000010
   16.86611176  110.94699860    1.66999996    2.64000010
   16.86944389  110.90200043    1.64999998    2.64000010
   16.87055588  104.85399628    1.64999998    2.64000010
   16.87305641  108.09200287    1.63000000    2.64000010
   16.87638855   99.30339813    1.63000000    2.64000010
   16.87944412  108.68900299    1.61000001    2.64000010
   16.88277817  104.04599762    1.61000001    2.61999989
   16.88583374  101.99500275    1.61000001    2.64000010
   16.88916588  108.70099640    1.61000001    2.64000010
   16.89249992  117.87899780    1.63000000    2.64000010
   16.89555550  112.39499664    1.63000000    2.64000010
   16.89888954  114.22799683    1.63000000    2.61999989
   16.90499878  114.22799683    1.64999998    2.61999989
   16.90916634  105.03900146    1.66999996    2.61999989
   16.91222191   98.92109680    1.69000006    2.64000010
   16.91555595  110.12400055    1.69000006    2.64000010
   16.91860962   88.44499969    1.69000006    2.64000010
   16.92194366  102.58100128    1.71000004    2.61999989
   16.92527771   98.10839844    1.71000004    2.61999989
   16.92833328  108.92199707    1.71000004    2.64000010
   16.93166542  103.59600067    1.71000004    2.61999989
   16.93499947  113.13200378    1.73000002    2.64000010
   16.93722153  100.52500153    1.73000002    2.64000010
   16.93861008  103.80400085    1.73000002    2.64000010
   16.94194412   95.59760284    1.73000002    2.64000010
   16.94777679   95.59760284    1.73000002    2.66000009
   16.95194435   93.81900024    1.73000002    2.64000010
   16.95499992  102.77899933    1.71000004    2.64000010
   16.95833397  104.18099976    1.71000004    2.61999989
   16.96166801  100.08300018    1.71000004    2.64000010
   16.96472359  105.87000275    1.71000004    2.61999989
   16.96805573   99.59600067    1.69000006    2.64000010
   16.97055626  100.79000092    1.69000006    2.61999989
   16.97166634  106.00399780    1.69000006    2.64000010
   16.97500038  102.70200348    1.69000006    2.64000010
   16.97805595  103.98300171    1.69000006    2.64000010
   16.98139000  110.48799896    1.66999996    2.61999989
   16.98444557  105.04699707    1.66999996    2.61999989
   16.99055672  105.04699707    1.64999998    2.64000010
   16.99472237  111.06099701    1.64999998    2.64000010
   16.99805641  118.27700043    1.63000000    2.64000010
   17.00111198   98.55110168    1.63000000    2.64000010
   17.00388908   91.95760345    1.63000000    2.64000010
   17.00472260  101.34400177    1.63000000    2.64000010
   17.00805473  101.14900208    1.64999998    2.64000010
   17.01111031  102.73000336    1.63000000    2.61999989
   17.01444435  102.87899780    1.63000000    2.64000010
   17.01777840  114.71900177    1.63000000    2.64000010
   17.02083397  116.96700287    1.63000000    2.64000010
   17.02416611  116.09200287    1.63000000    2.61999989
   17.02750015  111.76100159    1.64999998    2.64000010
   17.03333282  111.76100159    1.66999996    2.64000010
   17.03750038  104.82299805    1.64999998    2.64000010
   17.04083252  107.64900208    1.64999998    2.64000010
   17.04416656   96.66660309    1.63000000    2.64000010
   17.04722214  101.88400269    1.63000000    2.61999989
   17.05055428  107.01899719    1.61000001    2.64000010
   17.05360985  102.02200317    1.61000001    2.61999989
   17.05694389  103.58100128    1.61000001    2.61999989
   17.06027794  112.60099792    1.60000002    2.64000010
   17.06333351   99.38590240    1.55999994    2.64000010
   17.06666756  111.62699890    1.55999994    2.64000010
   17.07000160  109.76200104    1.53999996    2.64000010
   17.07055664  125.19200134    1.53999996    2.66000009
   17.07638931  125.19200134    1.51999998    2.66000009
   17.08055687  108.64399719    1.50000000    2.64000010
   17.08361244  114.12300110    1.48000002    2.64000010
   17.08694458  115.90000153    1.48000002    2.64000010
   17.09000015  110.49600220    1.44000006    2.64000010
   17.09333420  103.03900146    1.44000006    2.64000010
   17.09666824  104.47899628    1.44000006    2.64000010
   17.10000038  100.12699890    1.46000004    2.64000010
   17.10305595  106.63800049    1.44000006    2.64000010
   17.10388947  110.44899750    1.44000006    2.64000010
   17.10666656  105.07900238    1.44000006    2.66000009
   17.11000061   99.49120331    1.46000004    2.64000010
   17.11305618  113.88899994    1.46000004    2.64000010
   17.11916733  113.88899994    1.46000004    2.64000010
   17.12333298  102.83599854    1.44000006    2.61999989
   17.12638855   97.89890289    1.44000006    2.64000010
   17.12972260  100.43800354    1.41999996    2.64000010
   17.13305473  109.25900269    1.44000006    2.64000010
   17.13611031  104.88800049    1.41999996    2.64000010
   17.13750076   93.16329956    1.41999996    2.64000010
   17.13972282   93.00599670    1.41999996    2.64000010
   17.14305496  106.24400330    1.46000004    2.64000010
   17.14611053  100.39900208    1.48000002    2.64000010
   17.14944458  109.01799774    1.48000002    2.64000010
   17.15277672  100.72200012    1.50000000    2.64000010
   17.15583229   90.69110107    1.50000000    2.61999989
   17.16194344   90.69110107    1.50000000    2.64000010
   17.16611099  105.43499756    1.50000000    2.64000010
   17.16944313  105.29900360    1.50000000    2.64000010
   17.17055511   98.99610138    1.51999998    2.61999989
   17.17305565   83.91259766    1.51999998    2.64000010
   17.17638779  101.83899689    1.53999996    2.64000010
   17.17944336  107.28099823    1.53999996    2.64000010
   17.18277740  106.46499634    1.53999996    2.64000010
   17.18610954  115.69999695    1.55999994    2.59999990
   17.18916512  104.79399872    1.55999994    2.64000010
   17.19249916   94.42739868    1.58000004    2.64000010
   17.19555473   97.69259644    1.55999994    2.64000010
   17.19888878   97.00360107    1.58000004    2.64000010
   17.20472336   97.00360107    1.58000004    2.61999989
   17.20888901  105.91500092    1.58000004    2.64000010
   17.21222305  101.51799774    1.58000004    2.64000010
   17.21555710   98.44020081    1.58000004    2.64000010
   17.21861076  102.39900208    1.53999996    2.61999989
   17.22194481  101.45800018    1.53999996    2.61999989
   17.22500038  104.73600006    1.51999998    2.64000010
   17.22833443  110.25000000    1.50000000    2.64000010
   17.23166656   99.44619751    1.50000000    2.64000010
   17.23472214   97.31809998    1.50000000    2.64000010
   17.23750114  101.69400024    1.48000002    2.64000010
   17.23833275   99.60759735    1.48000002    2.64000010
   17.24166679  103.64700317    1.46000004    2.61999989
   17.24777794  103.64700317    1.44000006    2.64000010
   17.25166702  104.27300262    1.41999996    2.61999989
   17.25499916  115.30699921    1.44000006    2.64000010
   17.25833321  101.36299896    1.41999996    2.64000010
   17.26138878  105.74900055    1.41999996    2.64000010
   17.26472282  111.34200287    1.39999998    2.64000010
   17.26805496  103.75800323    1.38000000    2.61999989
   17.27083397  104.30400085    1.36000001    2.64000010
   17.27166557  101.37200165    1.36000001    2.64000010
   17.27499962  102.32399750    1.36000001    2.64000010
   17.27805519  109.37699890    1.34000003    2.64000010
   17.28138924   98.87490082    1.34000003    2.64000010
   17.28472137   96.70860291    1.30999994    2.64000010
   17.29055595   96.70860291    1.30999994    2.64000010
   17.29472160  105.00199890    1.30999994    2.61999989
   17.29777718   99.17479706    1.28999996    2.66000009
   17.30111122   86.89859772    1.28999996    2.61999989
   17.30416679   99.39849854    1.28999996    2.61999989
   17.30472183   97.58889771    1.28999996    2.64000010
   17.30805397  104.18399811    1.28999996    2.64000010
   17.31110954  101.35800171    1.28999996    2.64000010
   17.31444359   93.38410187    1.30999994    2.64000010
   17.31777954  107.34500122    1.30999994    2.66000009
   17.32083511  103.32399750    1.30999994    2.66000009
   17.32416725  103.31099701    1.30999994    2.64000010
   17.32722282   97.52310181    1.30999994    2.61999989
   17.33333397   97.52310181    1.30999994    2.61999989
   17.33750153  104.97799683    1.28999996    2.64000010
   17.34083366  101.58200073    1.26999998    2.64000010
   17.34388924  111.39600372    1.28999996    2.64000010
   17.34722328  100.86000061    1.28999996    2.64000010
   17.35027885  104.17900085    1.26999998    2.64000010
   17.35361099  106.24500275    1.26999998    2.64000010
   17.35694504   90.40149689    1.26999998    2.61999989
   17.36000061   96.40920258    1.28999996    2.64000010
   17.36333466   90.04599762    1.26999998    2.64000010
   17.36666679   95.54840088    1.25000000    2.64000010
   17.36972237  106.80300140    1.25000000    2.64000010
   17.37083435  101.33100128    1.25000000    2.64000010
   17.37611198  101.33100128    1.26999998    2.61999989
   17.38027763   98.49559784    1.28999996    2.64000010
   17.38361168   98.96690369    1.30999994    2.64000010
   17.38666725   98.14530182    1.28999996    2.64000010
   17.40444374   92.68589783    1.36000001    2.64000010
   17.40694427  101.84400177    1.33000004    2.64000010
   17.40999985   99.10160065    1.30999994    2.64000010
   17.41333389  106.12300110    1.30999994    2.61999989
   17.42333221   -1.00000000    1.33000004    2.64000010
   17.42638779   -1.00000000    1.33000004    2.61999989
   17.42972183   -1.00000000    1.28999996    2.66000009
   17.43305397   -1.00000000    1.26999998    2.64000010
   17.43610954  112.56300354    1.26999998    2.64000010
   17.43750000  108.10500336    1.26999998    2.64000010
   17.43972206  117.74199677    1.26999998    2.64000010
   17.44305420  112.58200073    1.26999998    2.64000010
   17.44610977  113.95700073    1.26999998    2.64000010
   17.44944382  111.90799713    1.26999998    2.64000010
   17.45305634  113.74700165    1.23000002    2.64000010
   17.45639038  118.91200256    1.23000002    2.64000010
   17.46222305  118.91200256    1.25000000    2.64000010
   17.46611214  113.24800110    1.25000000    2.64000010
   17.46944427  107.47499847    1.25000000    2.64000010
   17.47111130  105.84999847    1.25000000    2.64000010
   17.47305679  104.84799957    1.25000000    2.64000010
   17.47638893  115.81199646    1.25000000    2.61999989
   17.47944450  119.55799866    1.25000000    2.64000010
   17.48277855  105.94200134    1.25000000    2.64000010
   17.48611069  114.06300354    1.25000000    2.64000010
   17.48916626  107.75599670    1.25000000    2.64000010
   17.49250031  107.44400024    1.25000000    2.64000010
   17.49583435  108.96700287    1.26999998    2.64000010
   17.49888992  114.79299927    1.26999998    2.61999989
   17.50499916  114.79299927    1.28999996    2.64000010
   17.50916672  117.20999908    1.26999998    2.64000010
   17.51222229  113.87000275    1.26999998    2.64000010
   17.51555634  106.41100311    1.26999998    2.64000010
   17.51861000  109.07599640    1.26999998    2.64000010
   17.52194405  114.72699738    1.26999998    2.64000010
   17.52527809  109.20899963    1.26999998    2.64000010
   17.52833366  109.93699646    1.26999998    2.64000010
   17.53166580  115.27899933    1.26999998    2.64000010
   17.53499985  118.81900024    1.25000000    2.64000010
   17.53750038  118.00199890    1.26999998    2.64000010
   17.53861046  112.65299988    1.26999998    2.64000010
   17.54194450  107.05899811    1.28999996    2.61999989
   17.54777718  107.05899811    1.28999996    2.61999989
   17.55194283  116.05000305    1.28999996    2.64000010
   17.55499840  107.08899689    1.28999996    2.64000010
   17.55833244  107.65000153    1.28999996    2.64000010
   17.56166649  113.76200104    1.26999998    2.64000010
   17.56472206  113.33200073    1.25000000    2.61999989
   17.56805611  120.09799957    1.23000002    2.64000010
   17.57083511  112.88800049    1.23000002    2.64000010
   17.57166672  113.23000336    1.23000002    2.64000010
   17.57500076  118.66300201    1.23000002    2.61999989
   17.57805634  116.73400116    1.23000002    2.61999989
   17.58139038  111.57900238    1.23000002    2.61999989
   17.58472252  107.52400208    1.21000004    2.64000010
   17.59055710  107.52400208    1.19000006    2.64000010
   17.59472275  111.49500275    1.19000006    2.64000010
   17.59805679  120.67600250    1.19000006    2.64000010
   17.60111237  111.03299713    1.13000000    2.64000010
   17.60444450  114.81900024    1.13000000    2.66000009
   17.60472298  120.94300079    1.13000000    2.66000009
   17.60805511  101.82700348    1.13000000    2.66000009
   17.61111069   99.16010284    1.13000000    2.61999989
   17.61444473  113.35199738    1.09000003    2.64000010
   17.61777878   91.54769897    1.07000005    2.64000010
   17.62083435   91.90280151    1.07000005    2.64000010
   17.62416649   95.46579742    1.05999994    2.64000010
   17.62750053  108.08599854    1.07000005    2.64000010
   17.63361168  108.08599854    1.07000005    2.64000010
   17.63750076  102.45700073    1.07000005    2.64000010
   17.64083290  116.05599976    1.09000003    2.64000010
   17.64416695  115.56400299    1.13000000    2.64000010
   17.64722252  114.36699677    1.16999996    2.64000010
   17.65055466  108.70800018    1.19000006    2.64000010
   17.65388870  114.45600128    1.25000000    2.64000010
   17.65694427  112.87699890    1.26999998    2.61999989
   17.66027832  109.07900238    1.33000004    2.61999989
   17.66333389  114.28399658    1.38000000    2.64000010
   17.66666603  115.13999939    1.38000000    2.61999989
   17.67000008  119.16600037    1.39999998    2.61999989
   17.67111015  109.39800262    1.39999998    2.61999989
   17.67638779  109.39800262    1.38000000    2.61999989
   17.68055534  114.02100372    1.38000000    2.64000010
   17.68361092  113.97499847    1.38000000    2.64000010
   17.68694305  115.19300079    1.38000000    2.64000010
   17.68999863  107.59700012    1.38000000    2.64000010
   17.69333267  114.83799744    1.38000000    2.64000010
   17.69666672  109.48699951    1.38000000    2.64000010
   17.69972038  123.53199768    1.36000001    2.64000010
   17.70305634  121.73500061    1.36000001    2.64000010
   17.70444489  108.84700012    1.36000001    2.61999989
   17.70666695  115.80599976    1.36000001    2.64000010
   17.71000099  119.97899628    1.36000001    2.61999989
   17.71333504  113.47399902    1.36000001    2.61999989
   17.71916771  113.47399902    1.36000001    2.61999989
   17.72333336  124.29599762    1.38000000    2.61999989
   17.72666740  110.75299835    1.38000000    2.64000010
   17.72972298  122.31999969    1.38000000    2.61999989
   17.73305511  112.02400208    1.34000003    2.61999989
   17.73611069  127.49800110    1.34000003    2.61999989
   17.73777771  123.80400085    1.34000003    2.61999989
   17.73972321  115.86699677    1.30999994    2.61999989
   17.74305534  115.10299683    1.30999994    2.61999989
   17.74611092  118.35800171    1.28999996    2.61999989
   17.74944496  111.38500214    1.28999996    2.61999989
   17.75277710  114.07399750    1.23000002    2.61999989
   17.75583267  106.37500000    1.25000000    2.64000010
   17.76222229  106.37500000    1.23000002    2.64000010
   17.76638794  108.91699982    1.19000006    2.61999989
   17.76972198  115.07900238    1.25000000    2.61999989
   17.77111053  108.67400360    1.25000000    2.61999989
   17.77333260  103.59899902    1.34000003    2.61999989
   17.77666664  107.10199738    1.36000001    2.61999989
   17.77972221  112.41000366    1.39999998    2.61999989
   17.78305435  113.56999969    1.39999998    2.61999989
   17.78638840  115.34799957    1.39999998    2.61999989
   17.78972244  109.93800354    1.39999998    2.61999989
   17.79277802  109.60700226    1.44000006    2.64000010
   17.79611015  111.23500061    1.46000004    2.64000010
   17.79916573  122.96800232    1.48000002    2.61999989
   17.80499840  122.96800232    1.48000002    2.61999989
   17.80888748  120.83799744    1.48000002    2.61999989
   17.81222153  108.32199860    1.48000002    2.61999989
   17.81555557  111.23799896    1.44000006    2.61999989
   17.81861115  129.91299438    1.41999996    2.61999989
   17.82194519  119.11100006    1.39999998    2.64000010
   17.82527924  115.12599945    1.41999996    2.64000010
   17.82833481  111.18499756    1.41999996    2.64000010
   17.83166695  119.85299683    1.39999998    2.64000010
   17.83472252  128.03199768    1.39999998    2.61999989
   17.83777809  121.36499786    1.39999998    2.61999989
   17.83833313  120.80300140    1.39999998    2.61999989
   17.84166718  108.77799988    1.39999998    2.61999989
   17.84777832  108.77799988    1.38000000    2.61999989
   17.85194397  112.70800018    1.36000001    2.61999989
   17.85499954   95.48760223    1.36000001    2.64000010
   17.85833359  113.66600037    1.36000001    2.61999989
   17.86138916  109.52100372    1.36000001    2.61999989
   17.86472321  116.88099670    1.38000000    2.64000010
   17.86805534  106.43699646    1.38000000    2.61999989
   17.87111092  115.78399658    1.36000001    2.61999989
   17.87166595  100.40399933    1.36000001    2.61999989
   17.87500000  107.45099640    1.36000001    2.64000010
   17.87805557  117.50199890    1.34000003    2.61999989
   17.88138962  107.83799744    1.33000004    2.61999989
   17.88472176  125.91200256    1.33000004    2.61999989
   17.89055634  125.91200256    1.26999998    2.61999989
   17.89472198  108.99900055    1.25000000    2.61999989
   17.89777756  113.70099640    1.25000000    2.64000010
   17.90111160  105.66600037    1.25000000    2.64000010
   17.90444374  111.74199677    1.25000000    2.64000010
   17.90472221  103.93099976    1.26999998    2.64000010
   17.90805435  115.28199768    1.26999998    2.61999989
   17.91110992  117.10700226    1.30999994    2.61999989
   17.91444397  102.26499939    1.30999994    2.61999989
   17.91777802  113.48500061    1.30999994    2.61999989
   17.92083359  112.87100220    1.30999994    2.61999989
   17.92416573  105.00199890    1.33000004    2.61999989
   17.92749977  111.18800354    1.34000003    2.61999989
   17.93333244  111.18800354    1.33000004    2.61999989
   17.93750000  110.91100311    1.33000004    2.61999989
   17.93805504  112.70400238    1.33000004    2.61999989
   17.94138718  111.57399750    1.34000003    2.61999989
   17.94444275  112.28700256    1.36000001    2.61999989
   17.94777679  109.44799805    1.36000001    2.61999989
   17.95111275  106.38899994    1.34000003    2.61999989
   17.95416832  103.80999756    1.36000001    2.61999989
   17.95750046  116.70800018    1.34000003    2.61999989
   17.96083450  113.57700348    1.33000004    2.61999989
   17.96389008  114.98000336    1.33000004    2.61999989
   17.96722221  110.12799835    1.33000004    2.61999989
   17.97027779  117.27899933    1.33000004    2.61999989
   17.97138977  106.67500305    1.33000004    2.61999989
   17.97611237  106.67500305    1.34000003    2.61999989
   17.98027802  107.37200165    1.36000001    2.59999990
   17.98361206  114.52200317    1.34000003    2.61999989
   17.98694420  113.42700195    1.36000001    2.61999989
   17.98999977  107.93399811    1.36000001    2.61999989
   17.99333382  120.38099670    1.36000001    2.61999989
   17.99638939  106.86699677    1.36000001    2.61999989
   17.99972153  108.54100037    1.38000000    2.61999989
   18.00305557  103.39700317    1.39999998    2.64000010
   18.00472260  109.69499969    1.38000000    2.61999989
   18.00666618  109.65000153    1.38000000    2.61999989
   18.00972176  101.51999664    1.38000000    2.59999990
   18.01305580  114.24900055    1.38000000    2.64000010
   18.01916695  114.24900055    1.41999996    2.61999989
   18.02333260  108.60199738    1.41999996    2.61999989
   18.02638817  107.78800201    1.41999996    2.61999989
   18.02972221  115.16699982    1.44000006    2.61999989
   18.03277779  103.05899811    1.41999996    2.61999989
   18.03610992  115.11499786    1.41999996    2.61999989
   18.03805542  103.08300018    1.41999996    2.61999989
   18.03999901  106.77700043    1.41999996    2.59999990
   18.04305458  108.30000305    1.41999996    2.61999989
   18.04638863  102.24700165    1.41999996    2.59999990
   18.04972076   99.63210297    1.41999996    2.59999990
   18.05277634  106.94699860    1.41999996    2.59999990
   18.05611038  104.95400238    1.41999996    2.59999990
   18.06194305  104.95400238    1.41999996    2.61999989
   18.06611061  107.65799713    1.41999996    2.61999989
   18.06916809  105.33200073    1.39999998    2.59999990
   18.07139015  107.78299713    1.39999998    2.61999989
   18.07305717  101.66500092    1.39999998    2.61999989
   18.07611275  100.22699738    1.39999998    2.59999990
   18.07944489  119.00599670    1.39999998    2.61999989
   18.08277893  102.89199829    1.39999998    2.61999989
   18.08583450  109.41000366    1.39999998    2.61999989
   18.08916664  109.83399963    1.39999998    2.61999989
   18.09222221  112.31500244    1.38000000    2.61999989
   18.09555626  112.30200195    1.38000000    2.61999989
   18.09889030  112.99299622    1.39999998    2.59999990
   18.10472298  112.99299622    1.38000000    2.61999989
   18.10888863  110.08499908    1.39999998    2.59999990
   18.11222267  112.17099762    1.39999998    2.59999990
   18.11527824  109.61299896    1.39999998    2.61999989
   18.11861038  104.94400024    1.39999998    2.61999989
   18.12166595  107.46399689    1.44000006    2.59999990
   18.12500000  122.89099884    1.44000006    2.59999990
   18.12833405  114.56500244    1.41999996    2.61999989
   18.13166618  122.29799652    1.41999996    2.61999989
   18.13472176  114.36399841    1.41999996    2.61999989
   18.13805580  112.75499725    1.41999996    2.61999989
   18.13861084  113.09300232    1.41999996    2.61999989
   18.14166641  103.96700287    1.44000006    2.61999989
   18.14749908  103.96700287    1.46000004    2.61999989
   18.15166664  111.62999725    1.46000004    2.59999990
   18.15499878  104.41600037    1.46000004    2.59999990
   18.15805435  113.91600037    1.48000002    2.59999990
   18.16138840  111.12200165    1.48000002    2.59999990
   18.16472244  109.98400116    1.48000002    2.59999990
   18.16777802  108.01499939    1.50000000    2.59999990
   18.17111015  107.43800354    1.50000000    2.59999990
   18.17194366  106.70400238    1.50000000    2.59999990
   18.17499924  119.35199738    1.48000002    2.59999990
   18.17805481  106.01499939    1.51999998    2.61999989
   18.18138885  111.24800110    1.51999998    2.59999990
   18.18444443  112.12899780    1.51999998    2.59999990
   18.19055557  112.12899780    1.53999996    2.59999990
   18.19444275  110.49500275    1.55999994    2.59999990
   18.19777679  107.30200195    1.55999994    2.59999990
   18.20111275  105.33499908    1.55999994    2.59999990
   18.20416832  109.97699738    1.55999994    2.59999990
   18.20527840  105.25199890    1.55999994    2.61999989
   18.20777893  107.91300201    1.55999994    2.59999990
   18.21111107  107.24900055    1.55999994    2.59999990
   18.21444511  104.51799774    1.58000004    2.59999990
   18.21750069  109.35199738    1.58000004    2.59999990
   18.22083473  118.49299622    1.60000002    2.59999990
   18.22416687  112.02300262    1.60000002    2.57999992
   18.22722244  115.61799622    1.60000002    2.59999990
   18.23333359  115.61799622    1.60000002    2.59999990
   18.23750114  104.01799774    1.60000002    2.59999990
   18.23861122  101.16200256    1.60000002    2.59999990
   18.24111176  111.51899719    1.60000002    2.59999990
   18.24416733  103.25800323    1.60000002    2.61999989
   18.24749947  103.68699646    1.60000002    2.59999990
   18.25055504  109.32499695    1.58000004    2.61999989
   18.25388908  111.94000244    1.58000004    2.59999990
   18.25722313  103.45400238    1.53999996    2.59999990
   18.26027870  107.14900208    1.53999996    2.59999990
   18.26361084  106.69499969    1.51999998    2.59999990
   18.26694489  104.88600159    1.53999996    2.59999990
   18.27000046  108.80300140    1.51999998    2.59999990
   18.27194405  101.02600098    1.53999996    2.59999990
   18.27611160  101.02600098    1.51999998    2.59999990
   18.28027725  116.17299652    1.53999996    2.59999990
   18.28361130  102.21499634    1.51999998    2.61999989
   18.28666687  111.64700317    1.55999994    2.59999990
   18.28999901  109.48500061    1.53999996    2.59999990
   18.29305458  107.29599762    1.53999996    2.59999990
   18.29638863  107.40599823    1.53999996    2.59999990
   18.29972076  113.21700287    1.51999998    2.59999990
   18.30305481  106.77700043    1.50000000    2.59999990
   18.30527687  110.44499969    1.50000000    2.59999990
   18.30694389  114.12500000    1.50000000    2.59999990
   18.30999947  106.04799652    1.51999998    2.59999990
   18.31333351  105.08100128    1.50000000    2.59999990
   18.31888962  105.08100128    1.50000000    2.59999990
   18.32305717   99.48169708    1.51999998    2.57999992
   18.32638931   98.54280090    1.51999998    2.61999989
   18.32944489  110.26999664    1.51999998    2.57999992
   18.33277893  111.78500366    1.51999998    2.57999992
   18.33611107  110.40799713    1.51999998    2.59999990
   18.33861160  108.01599884    1.51999998    2.59999990
   18.33944511  111.32299805    1.51999998    2.57999992
   18.34277916  112.09999847    1.51999998    2.59999990
   18.34611130  114.56999969    1.50000000    2.59999990
   18.34916687  115.51200104    1.48000002    2.59999990
   18.35250092  110.89099884    1.48000002    2.59999990
   18.35583305  111.93499756    1.48000002    2.59999990
   18.36194420  111.93499756    1.46000004    2.59999990
   18.36583328  111.83799744    1.44000006    2.57999992
   18.36916733  106.60900116    1.44000006    2.57999992
   18.37194443  113.27600098    1.44000006    2.59999990
   18.37361145  135.94299316    1.44000006    2.59999990
   18.37666702   -1.00000000    1.44000006    2.59999990
   18.38000107   -1.00000000    1.44000006    2.59999990
   18.38333321   -1.00000000    1.48000002    2.59999990
   18.38638878   -1.00000000    1.48000002    2.59999990
   18.38972282   -1.00000000    1.48000002    2.57999992
   18.39277840  115.38999939    1.48000002    2.59999990
   18.39611053  119.77999878    1.48000002    2.57999992
   18.39944458  126.58399963    1.46000004    2.59999990
   18.40472221  126.58399963    1.48000002    2.57999992
   18.42305565  103.30999756    1.50000000    2.59999990
   18.42638779  104.84300232    1.51999998    2.57999992
   18.42944336  107.35500336    1.53999996    2.57999992
   18.43277740  110.83999634    1.53999996    2.57999992
   18.43610954  106.64499664    1.53999996    2.57999992
   18.43916512  106.77400208    1.53999996    2.57999992
   18.44249916  109.47699738    1.55999994    2.57999992
   18.44777679  109.47699738    1.55999994    2.57999992
   18.45194435  111.56800079    1.53999996    2.57999992
   18.45527840  116.48999786    1.51999998    2.59999990
   18.45611191  113.76999664    1.51999998    2.57999992
   18.45888901  109.42400360    1.51999998    2.57999992
   18.46194458  109.63700104    1.51999998    2.57999992
   18.46527863  118.26599884    1.53999996    2.57999992
   18.46861076  115.23400116    1.53999996    2.57999992
   18.47166634  108.27600098    1.55999994    2.57999992
   18.47500038  116.93699646    1.58000004    2.57999992
   18.47805595  116.57900238    1.60000002    2.57999992
   18.48139000  113.40699768    1.60000002    2.57999992
   18.48472214  116.16000366    1.58000004    2.57999992
   18.49055672  116.16000366    1.58000004    2.57999992
   18.49472237  108.41000366    1.58000004    2.59999990
   18.49805641  120.37400055    1.60000002    2.57999992
   18.50111198  111.83200073    1.60000002    2.57999992
   18.50444412  117.47799683    1.61000001    2.57999992
   18.50777817  117.25900269    1.61000001    2.57999992
   18.51083374  116.48200226    1.61000001    2.57999992
   18.51416588  115.38400269    1.63000000    2.57999992
   18.51722145  120.75199890    1.63000000    2.57999992
   18.52055550  108.47499847    1.61000001    2.55999994
   18.52277756  109.23000336    1.61000001    2.55999994
   18.52444458  108.32099915    1.61000001    2.57999992
   18.52750015  113.57399750    1.63000000    2.55999994
   18.53333282  113.57399750    1.63000000    2.57999992
   18.53750038  113.68900299    1.63000000    2.57999992
   18.54111099  112.50499725    1.63000000    2.57999992
   18.54416656  110.65799713    1.64999998    2.57999992
   18.54749870  115.19499969    1.64999998    2.55999994
   18.55055428  110.21900177    1.66999996    2.55999994
   18.55388832  112.90499878    1.66999996    2.59999990
   18.55611038  118.20899963    1.66999996    2.55999994
   18.55749893  117.70200348    1.66999996    2.55999994
   18.56055450  113.58699799    1.66999996    2.55999994
   18.56388855  113.51499939    1.66999996    2.57999992
   18.56722260  112.97799683    1.69000006    2.57999992
   18.57027817  105.09400177    1.71000004    2.53999996
   18.57638931  105.09400177    1.73000002    2.55999994
   18.58055687  109.66200256    1.73000002    2.55999994
   18.58361244  111.75000000    1.73000002    2.57999992
   18.58694458  116.85299683    1.73000002    2.55999994
   18.58944511  108.06600189    1.73000002    2.55999994
   18.59055710  101.93599701    1.73000002    2.55999994
   18.59361267  110.05699921    1.75000000    2.55999994
   18.59694481  118.76100159    1.73000002    2.55999994
   18.60027885  110.48300171    1.73000002    2.55999994
   18.60333443  120.53800201    1.75000000    2.55999994
   18.60666656  113.48100281    1.73000002    2.55999994
   18.61000061  114.96900177    1.75000000    2.55999994
   18.61305618  112.50599670    1.75000000    2.57999992
   18.61916733  112.50599670    1.75000000    2.55999994
   18.62333298  108.36799622    1.75000000    2.55999994
   18.62638855  118.69499969    1.75000000    2.55999994
   18.62972260  119.56900024    1.76999998    2.55999994
   18.63305473  113.95200348    1.76999998    2.55999994
   18.63611031  108.15699768    1.78999996    2.55999994
   18.63944435  117.47000122    1.76999998    2.55999994
   18.64277840  117.23999786    1.76999998    2.55999994
   18.64583397  122.71299744    1.76999998    2.55999994
   18.64916611  118.50299835    1.76999998    2.55999994
   18.65222168  114.37599945    1.78999996    2.55999994
   18.65555573  116.70300293    1.76999998    2.55999994
   18.65611076  119.37599945    1.76999998    2.55999994
   18.66194344  119.37599945    1.75000000    2.55999994
   18.66611099  120.75599670    1.76999998    2.55999994
   18.66944313  112.76799774    1.75000000    2.55999994
   18.67249870  117.89700317    1.75000000    2.55999994
   18.67583275  117.05699921    1.73000002    2.55999994
   18.67916679  110.73899841    1.73000002    2.55999994
   18.68222237  115.40399933    1.73000002    2.53999996
   18.68555450  110.54399872    1.73000002    2.55999994
   18.68888855  115.43900299    1.73000002    2.53999996
   18.68944359  120.05100250    1.73000002    2.53999996
   18.69249916  107.86100006    1.73000002    2.53999996
   18.69555473  115.67299652    1.73000002    2.55999994
   18.69888878  119.00399780    1.75000000    2.55999994
   18.70472336  119.00399780    1.76999998    2.53999996
   18.70888901  113.22699738    1.78999996    2.53999996
   18.71222305  117.67500305    1.78999996    2.55999994
   18.71555710  114.11399841    1.80999994    2.53999996
   18.71861076  123.70700073    1.80999994    2.55999994
   18.72194481  103.41600037    1.80999994    2.55999994
   18.72277832  104.34999847    1.80999994    2.55999994
   18.72555542  108.97899628    1.83000004    2.55999994
   18.72861099  113.55400085    1.80999994    2.55999994
   18.73194504  121.65499878    1.83000004    2.55999994
   18.73527718  122.12599945    1.83000004    2.53999996
   18.73833275  113.07700348    1.85000002    2.53999996
   18.74166679  126.35600281    1.83000004    2.53999996
   18.74777794  126.35600281    1.85000002    2.53999996
   18.75194359  120.10900116    1.85000002    2.53999996
   18.75499916  116.11900330    1.85000002    2.53999996
   18.75611115  107.64700317    1.86000001    2.53999996
   18.75888824  109.38800049    1.88000000    2.55999994
   18.76194382  116.49199677    1.86000001    2.55999994
   18.76527786  116.03299713    1.88000000    2.53999996
   18.76861000  115.30400085    1.88000000    2.53999996
   18.77166557  127.91999817    1.88000000    2.53999996
   18.77499962  116.24700165    1.88000000    2.53999996
   18.77833366  108.84500122    1.88000000    2.53999996
   18.78138924  122.36799622    1.89999998    2.53999996
   18.78472137  118.78600311    1.89999998    2.53999996
   18.79055595  118.78600311    1.91999996    2.53999996
   18.79472160  120.04000092    1.91999996    2.53999996
   18.79777718  116.03900146    1.94000006    2.53999996
   18.80111122  112.20899963    1.91999996    2.53999996
   18.80444336  117.24299622    1.94000006    2.53999996
   18.80749893  117.60900116    1.94000006    2.53999996
   18.81083298  113.88300323    1.94000006    2.53999996
   18.81416512  119.58799744    1.96000004    2.53999996
   18.81722260  122.87899780    1.96000004    2.53999996
   18.82055664  114.73400116    1.96000004    2.53999996
   18.82277870  113.88099670    1.96000004    2.53999996
   18.82416725  116.82499695    1.96000004    2.53999996
   18.82750130  115.33000183    1.98000002    2.53999996
   18.83333397  115.33000183    1.98000002    2.53999996
   18.83750153  131.02600098    1.98000002    2.53999996
   18.84083366  118.86499786    1.98000002    2.55999994
   18.84388924  110.91600037    1.98000002    2.53999996
   18.84722328  113.72699738    2.00000000    2.51999998
   18.85055542  117.48500061    2.00000000    2.53999996
   18.85361099  127.86000061    2.00000000    2.51999998
   18.85611153  119.27999878    2.00000000    2.51999998
   18.85750008  116.63400269    2.00000000    2.51999998
   18.86083412  115.86599731    2.01999998    2.53999996
   18.86388969  106.87200165    2.01999998    2.53999996
   18.86722183  107.41300201    2.01999998    2.53999996
   18.87027740  121.54100037    2.01999998    2.53999996
   18.87611198  121.54100037    2.01999998    2.53999996
   18.88027763  118.73999786    2.01999998    2.53999996
   18.88361168  122.60900116    2.01999998    2.51999998
   18.88666725  121.35399628    2.01999998    2.51999998
   18.88944435  115.04699707    2.01999998    2.51999998
   18.89055634  113.73699951    2.01999998    2.53999996
   18.89361191  122.20500183    2.01999998    2.53999996
   18.89694405  109.29399872    2.03999996    2.53999996
   18.90027809  116.23799896    2.03999996    2.53999996
   18.90333366  118.42199707    2.05999994    2.51999998
   18.90666580  113.00900269    2.05999994    2.53999996
   18.90999985  111.09300232    2.05999994    2.51999998
   18.91305542  115.81199646    2.05999994    2.51999998
   18.91916656  115.81199646    2.05999994    2.53999996
   18.92305565  109.11599731    2.05999994    2.51999998
   18.92638779  114.62999725    2.05999994    2.51999998
   18.92972183  119.85800171    2.05999994    2.51999998
   18.93277740  117.38099670    2.05999994    2.51999998
   18.93610954  111.55599976    2.03999996    2.51999998
   18.93944359  111.32800293    2.03999996    2.51999998
   18.94249916  116.05999756    2.03999996    2.51999998
   18.94583321  114.36299896    2.03999996    2.51999998
   18.94916534  120.19799805    2.03999996    2.51999998
   18.95222282  113.28399658    2.03999996    2.51999998
   18.95555687  126.05000305    2.05999994    2.51999998
   18.95611191  111.20300293    2.05999994    2.51999998
   18.96194458  111.20300293    2.05999994    2.51999998
   18.96611214  115.69899750    2.05999994    2.51999998
   18.96916771  114.65499878    2.07999992    2.51999998
   18.97249985  120.77799988    2.09999990    2.51999998
   18.97583389  120.59100342    2.09999990    2.50000000
   18.97888947  120.31600189    2.09999990    2.53999996
   18.98222351  128.60499573    2.09999990    2.51999998
   18.98527718  117.96600342    2.11999989    2.53999996
   18.98861122  111.26499939    2.11999989    2.51999998
   18.98944473  101.97100067    2.11999989    2.51999998
   18.99222183  115.06300354    2.11999989    2.50000000
   18.99555588  137.96699524    2.13000011    2.51999998
   18.99861145  113.88899994    2.13000011    2.51999998
   19.00472260  113.88899994    2.13000011    2.50000000
   19.00888824  119.26899719    2.13000011    2.51999998
   19.01222229  116.83699799    2.15000010    2.50000000
   19.01527786  127.80599976    2.15000010    2.51999998
   19.01861000  117.38899994    2.15000010    2.51999998
   19.02166557  103.79100037    2.15000010    2.51999998
   19.02277756  116.75099945    2.15000010    2.50000000
   19.02555466  119.59500122    2.15000010    2.50000000
   19.02888870  117.88800049    2.15000010    2.51999998
   19.03194427  119.95200348    2.17000008    2.51999998
   19.03527641  118.52999878    2.15000010    2.51999998
   19.03833199  125.89199829    2.17000008    2.50000000
   19.04166603  125.67800140    2.17000008    2.50000000
   19.04749870  125.67800140    2.17000008    2.50000000
   19.05166626  116.51999664    2.17000008    2.50000000
   19.05499840  125.54499817    2.17000008    2.50000000
   19.05611038  124.81800079    2.19000006    2.50000000
   19.05861092  118.74099731    2.19000006    2.50000000
   19.06194305  120.04299927    2.19000006    2.50000000
   19.06499863  112.01499939    2.19000006    2.51999998
   19.06833458  118.23600006    2.19000006    2.50000000
   19.07139015  109.30599976    2.19000006    2.51999998
   19.07472229  115.92800140    2.19000006    2.51999998
   19.07805634  123.11199951    2.21000004    2.50000000
   19.08111191  121.99800110    2.19000006    2.50000000
   19.08444595  115.65100098    2.19000006    2.50000000
   19.09055710  115.65100098    2.21000004    2.50000000
   19.09444427  114.34400177    2.19000006    2.51999998
   19.09777832  111.11499786    2.19000006    2.51999998
   19.10111237  122.44100189    2.19000006    2.50000000
   19.10416794  107.35199738    2.19000006    2.50000000
   19.10750008  115.93399811    2.19000006    2.51999998
   19.11083412  116.99199677    2.19000006    2.50000000
   19.11388969  112.31400299    2.19000006    2.50000000
   19.11722183  127.23699951    2.19000006    2.50000000
   19.12027740  110.66699982    2.19000006    2.48000002
   19.12277794  111.76399994    2.19000006    2.50000000
   19.12416649  116.67700195    2.19000006    2.50000000
   19.12750053  119.33999634    2.19000006    2.50000000
   19.13333321  119.33999634    2.21000004    2.48000002
   19.13750076  116.67199707    2.21000004    2.50000000
   19.14055634  123.32299805    2.21000004    2.48000002
   19.14388847  115.41100311    2.21000004    2.50000000
   19.14722252  127.50000000    2.21000004    2.50000000
   19.15027809  122.57700348    2.21000004    2.50000000
   19.15361023  115.11599731    2.21000004    2.50000000
   19.15611076  114.33200073    2.23000002    2.50000000
   19.15722275  122.66500092    2.21000004    2.48000002
   19.16055489  125.11000061    2.23000002    2.50000000
   19.16361046  117.24600220    2.23000002    2.50000000
   19.16694450  118.97000122    2.23000002    2.50000000
   19.17000008  117.82599640    2.23000002    2.50000000
   19.17611122  117.82599640    2.21000004    2.50000000
   19.18027687  113.15100098    2.21000004    2.50000000
   19.18361092  115.39199829    2.21000004    2.48000002
   19.18666649  115.36000061    2.21000004    2.48000002
   19.18944359  116.44200134    2.21000004    2.50000000
   19.19027710  115.41100311    2.21000004    2.50000000
   19.19361115  113.04699707    2.21000004    2.48000002
   19.19666672  121.49900055    2.21000004    2.48000002
   19.20000076  118.77700043    2.19000006    2.50000000
   19.20333481  126.91200256    2.19000006    2.48000002
   19.20639038  123.54100037    2.21000004    2.50000000
   19.20972252  119.64299774    2.21000004    2.48000002
   19.21277809  113.02600098    2.21000004    2.48000002
   19.21888924  113.02600098    2.19000006    2.48000002
   19.22305679  115.50099945    2.19000006    2.48000002
   19.22638893  111.86000061    2.19000006    2.48000002
   19.22944450  119.21399689    2.19000006    2.48000002
   19.23277855  124.34700012    2.19000006    2.48000002
   19.23611069  110.30799866    2.19000006    2.48000002
   19.23916626  118.94000244    2.19000006    2.48000002
   19.24250031  120.18199921    2.19000006    2.48000002
   19.24583435  124.19499969    2.19000006    2.48000002
   19.24888992  120.33000183    2.19000006    2.48000002
   19.25222206  114.56400299    2.19000006    2.48000002
   19.25527763  117.53500366    2.19000006    2.48000002
   19.25611115  101.56900024    2.19000006    2.48000002
   19.26194382  101.56900024    2.19000006    2.50000000
   19.26583290  110.22699738    2.19000006    2.48000002
   19.26916695  122.28700256    2.19000006    2.48000002
   19.27249908  110.08599854    2.19000006    2.48000002
   19.27555466  114.95800018    2.21000004    2.48000002
   19.27888870  114.31600189    2.23000002    2.48000002
   19.28222275  115.75599670    2.23000002    2.46000004
   19.28527641  123.88099670    2.21000004    2.46000004
   19.28861046  103.68900299    2.21000004    2.48000002
   19.28944397  109.49299622    2.21000004    2.48000002
   19.29222107  111.50399780    2.23000002    2.48000002
   19.29555511  117.69100189    2.23000002    2.46000004
   19.29861069  115.18800354    2.23000002    2.48000002
   19.30472183  115.18800354    2.23000002    2.48000002
   19.30888748  119.23000336    2.23000002    2.48000002
   19.31194305  121.25800323    2.21000004    2.48000002
   19.31527710  121.73500061    2.21000004    2.50000000
   19.31861115  115.10600281    2.19000006    2.48000002
   19.32166672  117.84500122    2.19000006    2.46000004
   19.32277870  113.83599854    2.19000006    2.48000002
   19.32527924  120.65799713    2.19000006    2.46000004
   19.32861137  123.60099792    2.19000006    2.48000002
   19.33166695  122.84899902    2.17000008    2.46000004
   19.33500099  116.22100067    2.17000008    2.48000002
   19.33805656  119.01699829    2.17000008    2.48000002
   19.34138870  127.34999847    2.17000008    2.48000002
   19.34749985  127.34999847    2.17000008    2.48000002
   19.35166740  124.93499756    2.17000008    2.48000002
   19.35499954  116.47899628    2.17000008    2.46000004
   19.35611153  118.14199829    2.17000008    2.46000004
   19.35861206  124.16100311    2.17000008    2.46000004
   19.36194420  121.82399750    2.19000006    2.46000004
   19.36499977  125.92900085    2.19000006    2.48000002
   19.36833382  118.90399933    2.21000004    2.46000004
   19.37166595  131.63000488    2.21000004    2.48000002
   19.37472153  123.78500366    2.23000002    2.48000002
   19.37805557  118.10399628    2.25000000    2.48000002
   19.38111115  108.02899933    2.25000000    2.48000002
   19.38444519  100.98899841    2.25000000    2.46000004
   19.39027786  100.98899841    2.26999998    2.46000004
   19.39444351  112.91500092    2.26999998    2.46000004
   19.39777756  139.23199463    2.26999998    2.46000004
   19.40083313  113.95300293    2.26999998    2.46000004
   19.40416718  113.88300323    2.26999998    2.46000004
   19.40749931  117.88600159    2.26999998    2.46000004
   19.41055489  127.49299622    2.26999998    2.46000004
   19.41388893  114.51699829    2.26999998    2.46000004
   19.41694450  123.88800049    2.26999998    2.46000004
   19.42027664  126.19999695    2.26999998    2.46000004
   19.42277718  119.60500336    2.25000000    2.46000004
   19.44361115  119.60500336    2.23000002    2.48000002
   19.44777679  124.11599731    2.21000004    2.46000004
   19.45083427  118.07199860    2.21000004    2.46000004
   19.45416832  114.87799835    2.21000004    2.46000004
   19.45611191  116.69300079    2.21000004    2.46000004
   19.45777893  123.56400299    2.19000006    2.46000004
   19.46111107  122.21600342    2.19000006    2.46000004
   19.46416664  127.80000305    2.19000006    2.46000004
   19.46750069  115.70700073    2.19000006    2.46000004
   19.47083473  113.37799835    2.17000008    2.46000004
   19.47389030  111.33000183    2.19000006    2.46000004
   19.47722244  124.17800140    2.19000006    2.46000004
   19.48055649  115.37100220    2.19000006    2.44000006
   19.48638916  115.37100220    2.21000004    2.46000004
   19.49027824  121.28900146    2.23000002    2.44000006
   19.49361229  117.13099670    2.25000000    2.46000004
   19.49694443  114.02200317    2.25000000    2.46000004
   19.50000000  126.34100342    2.26999998    2.46000004
   19.50333405  120.59100342    2.28999996    2.44000006
   19.50666618  118.24400330    2.28999996    2.42000008
   19.50972176  119.96800232    2.30999994    2.44000006
   19.51305580  121.27899933    2.32999992    2.44000006
   19.51611137  116.57900238    2.34999990    2.44000006
   19.51944351  124.59200287    2.36999989    2.42000008
   19.52277756  122.48300171    2.39000010    2.42000008
   19.52333260  116.58999634    2.36999989    2.44000006
   19.52916718  116.58999634    2.39000010    2.44000006
   19.53333282  114.04399872    2.39000010    2.46000004
   19.53638840  113.80000305    2.39000010    2.44000006
   19.53972244  109.24199677    2.39000010    2.42000008
   19.54305458  120.48500061    2.39000010    2.44000006
   19.54611015  126.05699921    2.39000010    2.44000006
   19.54944420  114.58699799    2.39000010    2.44000006
   19.55249977  115.39600372    2.39000010    2.44000006
   19.55583191  116.01200104    2.39000010    2.44000006
   19.55666542  119.99199677    2.39000010    2.44000006
   19.55944443  121.83399963    2.39000010    2.44000006
   19.56277657  116.35700226    2.36999989    2.44000006
   19.56611061  116.66000366    2.39000010    2.44000006
   19.57194519  116.66000366    2.39000010    2.42000008
   19.57611275  132.51600647    2.39000010    2.44000006
   19.57916832  125.21399689    2.39000010    2.42000008
   19.58250046  112.82499695    2.39000010    2.44000006
   19.58583450  112.05999756    2.39000010    2.44000006
   19.58889008  114.79399872    2.39000010    2.42000008
   19.59000015  118.19999695    2.39000010    2.44000006
   19.59250069  115.11699677    2.40000010    2.42000008
   19.59583473  103.33399963    2.40000010    2.42000008
   19.59916687  124.41699982    2.40000010    2.42000008
   19.60222244  119.14700317    2.42000008    2.42000008
   19.60555649  118.97899628    2.42000008    2.44000006
   19.60861206  117.32599640    2.42000008    2.42000008
   19.61472321  117.32599640    2.44000006    2.44000006
   19.61888885  123.09400177    2.46000004    2.42000008
   19.62222290  120.35500336    2.46000004    2.42000008
   19.62333298  118.68599701    2.46000004    2.42000008
   19.62583351  112.88600159    2.48000002    2.44000006
   19.62916756  132.04899597    2.50000000    2.42000008
   19.63249969  121.63500214    2.50000000    2.42000008
   19.63555527  118.91999817    2.50000000    2.40000010
   19.63888931  121.03099823    2.51999998    2.40000010
   19.64194489  113.42500305    2.53999996    2.42000008
   19.64527702  124.11100006    2.53999996    2.40000010
   19.64861107  116.78600311    2.55999994    2.42000008
   19.65166664  116.87100220    2.55999994    2.40000010
   19.65777779  116.87100220    2.57999992    2.42000008
   19.66166687  118.19200134    2.57999992    2.42000008
   19.66499901  121.28800201    2.57999992    2.40000010
   19.66833305  123.35500336    2.57999992    2.40000010
   19.67138863  123.52100372    2.57999992    2.40000010
   19.67472076  127.29299927    2.59999990    2.40000010
   19.67805481  115.30400085    2.59999990    2.40000010
   19.68111038  123.15499878    2.57999992    2.40000010
   19.68444443  138.71099854    2.57999992    2.40000010
   19.68750000  122.23100281    2.57999992    2.40000010
   19.68999863  122.54000092    2.57999992    2.40000010
   19.69111061  123.75499725    2.57999992    2.40000010
   19.69444275  114.79499817    2.57999992    2.40000010
   19.70055580  114.79499817    2.57999992    2.40000010
   19.70472336  119.58699799    2.55999994    2.40000010
   19.70777893  122.75700378    2.55999994    2.39000010
   19.71111107  121.45999908    2.55999994    2.39000010
   19.71416664  120.95400238    2.55999994    2.40000010
   19.71750069  121.31999969    2.53999996    2.40000010
   19.72083473  118.00299835    2.53999996    2.40000010
   19.72333336  118.11299896    2.53999996    2.40000010
   19.72416687  116.94899750    2.53999996    2.40000010
   19.72750092  124.61299896    2.53999996    2.39000010
   19.73083305  120.59200287    2.51999998    2.40000010
   19.73388863  120.96399689    2.51999998    2.40000010
   19.73722267  119.48500061    2.51999998    2.39000010
   19.74333382  119.48500061    2.53999996    2.40000010
   19.74749947  122.62699890    2.53999996    2.40000010
   19.75055504  127.23500061    2.53999996    2.40000010
   19.75388908  112.08699799    2.53999996    2.39000010
   19.75666618  116.99700165    2.53999996    2.39000010
   19.75749969  121.87599945    2.53999996    2.40000010
   19.76083374  109.94000244    2.53999996    2.40000010
   19.76416588  115.65000153    2.55999994    2.40000010
   19.76722145  109.76399994    2.55999994    2.39000010
   19.77055550  187.86599731    2.57999992    2.39000010
   19.77361107  148.13900757    2.57999992    2.39000010
   19.77694511  230.51100159    2.57999992    2.39000010
   19.78027725  378.98199463    2.59999990    2.40000010
   19.78222275  143.24499512    2.59999990    2.39000010
   19.78222275  112.08699799    2.53999996    2.39000010
   19.78249931  121.87599945    2.53999996    2.40000010
   19.78249931  109.94000244    2.53999996    2.40000010
   19.78249931  115.65000153    2.55999994    2.40000010
   19.78277779  109.76399994    2.55999994    2.39000010
   19.78277779  187.86599731    2.57999992    2.39000010
   19.78277779  148.13900757    2.57999992    2.39000010
   19.78305435  230.51100159    2.57999992    2.39000010
   19.78305435  378.98199463    2.59999990    2.40000010
   19.78722191  378.98199463    2.59999990    2.39000010
   19.79138756   -1.00000000    2.66000009    2.39000010
   19.79472160   -1.00000000    2.71000004    2.39000010
   19.79777718   -1.00000000    2.75000000    2.36999989
   19.80111122   -1.00000000    2.76999998    2.39000010
   19.80444336   -1.00000000    2.73000002    2.39000010
   19.80749893   -1.00000000    2.69000006    2.36999989
   19.81083298   -1.00000000    2.67000008    2.39000010
   19.81416512   -1.00000000    2.66000009    2.39000010
   19.81750107   -1.00000000    2.66000009    2.39000010
   19.82083511   -1.00000000    2.64000010    2.39000010
   19.82389069   -1.00000000    2.64000010    2.36999989
   19.83416748   -1.00000000    2.59999990    2.39000010
   19.83722305   -1.00000000    2.59999990    2.39000010
   19.84055710   -1.00000000    2.59999990    2.39000010
   19.84388924   -1.00000000    2.59999990    2.39000010
   19.84694481   -1.00000000    2.59999990    2.36999989
   19.85055542   -1.00000000    2.59999990    2.39000010
   19.85388947   -1.00000000    2.57999992    2.39000010
   19.85694504   -1.00000000    2.57999992    2.36999989
   19.86027908   -1.00000000    2.57999992    2.39000010
   19.86361122   -1.00000000    2.57999992    2.36999989
   19.86666679   -1.00000000    2.57999992    2.39000010
   19.87694550   -1.00000000    2.57999992    2.36999989
   19.88027763   -1.00000000    2.57999992    2.36999989
   19.88361168   -1.00000000    2.57999992    2.36999989
   19.88694382   -1.00000000    2.57999992    2.36999989
   19.88999939   -1.00000000    2.57999992    2.36999989
   19.89333344   -1.00000000    2.57999992    2.36999989
   19.89666748   -1.00000000    2.59999990    2.36999989
   19.89972115   -1.00000000    2.57999992    2.36999989
   19.90305519   -1.00000000    2.57999992    2.36999989
   19.90638924   -1.00000000    2.57999992    2.36999989
   19.90944481   -1.00000000    2.57999992    2.36999989
   19.91972160   -1.00000000    2.57999992    2.34999990
   19.92305565   -1.00000000    2.57999992    2.36999989
   19.92611122   -1.00000000    2.57999992    2.34999990
   19.92944336   -1.00000000    2.55999994    2.34999990
   19.93277740   -1.00000000    2.57999992    2.36999989
   19.93583298   -1.00000000    2.57999992    2.36999989
   19.93916512   -1.00000000    2.57999992    2.34999990
   19.94249916   -1.00000000    2.59999990    2.34999990
   19.94555473   -1.00000000    2.59999990    2.34999990
   19.94888878   -1.00000000    2.61999989    2.34999990
   19.95250130   -1.00000000    2.61999989    2.34999990
   19.96250153   -1.00000000    2.64000010    2.34999990
   19.96583366   -1.00000000    2.66000009    2.34999990
   19.96916771   -1.00000000    2.66000009    2.34999990
   19.97222328   -1.00000000    2.66000009    2.34999990
   19.97555542   -1.00000000    2.67000008    2.34999990
   19.97888947   -1.00000000    2.67000008    2.34999990
   19.98194504   -1.00000000    2.69000006    2.34999990
   19.98555565   -1.00000000    2.67000008    2.34999990
   19.98861122   -1.00000000    2.69000006    2.32999992
   19.99194527   -1.00000000    2.71000004    2.32999992
   19.99527740   -1.00000000    2.71000004    2.32999992
   20.00555611   -1.00000000    2.71000004    2.32999992
   20.00861168   -1.00000000    2.73000002    2.32999992
   20.01194382   -1.00000000    2.73000002    2.34999990
   20.01527786   -1.00000000    2.73000002    2.32999992
   20.01888847   -1.00000000    2.73000002    2.32999992
   20.02194405   -1.00000000    2.73000002    2.32999992
   20.02527809   -1.00000000    2.71000004    2.32999992
   20.02833366   -1.00000000    2.73000002    2.32999992
   20.03166580   -1.00000000    2.71000004    2.32999992
   20.03499985   -1.00000000    2.71000004    2.32999992
   20.03805542   -1.00000000    2.71000004    2.32999992
   20.04833221   -1.00000000    2.73000002    2.30999994
   20.05194283   -1.00000000    2.73000002    2.32999992
   20.05499840   -1.00000000    2.73000002    2.32999992
   20.05833244   -1.00000000    2.73000002    2.32999992
   20.06138802   -1.00000000    2.75000000    2.30999994
   20.06472206   -1.00000000    2.75000000    2.32999992
   20.06805611   -1.00000000    2.75000000    2.32999992
   20.07111168   -1.00000000    2.75000000    2.32999992
   20.07444572   -1.00000000    2.75000000    2.30999994
   20.07777786   -1.00000000    2.76999998    2.30999994
   20.08083344   -1.00000000    2.76999998    2.30999994
   20.09111214   -1.00000000    2.78999996    2.30999994
   20.09444427   -1.00000000    2.78999996    2.30999994
   20.09749985   -1.00000000    2.78999996    2.30999994
   20.10083389   -1.00000000    2.78999996    2.30999994
   20.10416794   -1.00000000    2.78999996    2.30999994
   20.10722351   -1.00000000    2.80999994    2.30999994
   20.11055565   -1.00000000    2.80999994    2.30999994
   20.11388969   -1.00000000    2.80999994    2.30999994
   20.11694527   -1.00000000    2.80999994    2.28999996
   20.12055588   -1.00000000    2.82999992    2.30999994
   20.12388992   -1.00000000    2.82999992    2.28999996
   20.13388824   -1.00000000    2.84999990    2.30999994
   20.13722229   -1.00000000    2.84999990    2.30999994
   20.14055634   -1.00000000    2.84999990    2.30999994
   20.14361191   -1.00000000    2.84999990    2.28999996
   20.14694405   -1.00000000    2.84999990    2.28999996
   20.15027809   -1.00000000    2.84999990    2.28999996
   20.15361023   -1.00000000    2.84999990    2.28999996
   20.15694427   -1.00000000    2.84999990    2.28999996
   20.16027832   -1.00000000    2.86999989    2.28999996
   20.16333389   -1.00000000    2.86999989    2.28999996
   20.16666603   -1.00000000    2.86999989    2.28999996
   20.17694473   -1.00000000    2.86999989    2.28999996
   20.18000031   -1.00000000    2.86999989    2.26999998
   20.18333244   -1.00000000    2.86999989    2.28999996
   20.18694305   -1.00000000    2.89000010    2.26999998
   20.19027710   -1.00000000    2.89000010    2.28999996
   20.19333267   -1.00000000    2.89000010    2.26999998
   20.19666672   -1.00000000    2.89000010    2.26999998
   20.19972038   -1.00000000    2.89000010    2.28999996
   20.20305634   -1.00000000    2.89000010    2.26999998
   20.20639038   -1.00000000    2.89000010    2.26999998
   20.20944595   -1.00000000    2.89000010    2.26999998
   20.21972275   -1.00000000    2.91000009    2.26999998
   20.22305679   -1.00000000    2.91000009    2.26999998
   20.22611237   -1.00000000    2.93000007    2.26999998
   20.22944450   -1.00000000    2.94000006    2.26999998
   20.23277855   -1.00000000    2.94000006    2.26999998
   20.23583412   -1.00000000    2.96000004    2.26999998
   20.23916626   -1.00000000    2.96000004    2.25000000
   20.24222183   -1.00000000    2.96000004    2.26999998
   20.24555588   -1.00000000    2.96000004    2.25000000
   20.24888992   -1.00000000    2.96000004    2.25000000
   20.25222206   -1.00000000    2.96000004    2.25000000
   20.26250076   -1.00000000    3.00000000    2.23000002
   20.26583290   -1.00000000    3.01999998    2.25000000
   20.26916695   -1.00000000    3.03999996    2.25000000
   20.27222252   -1.00000000    3.03999996    2.25000000
   20.27555466   -1.00000000    3.03999996    2.25000000
   20.27861023   -1.00000000    3.05999994    2.25000000
   20.28194427   -1.00000000    3.05999994    2.25000000
   20.28555489   -1.00000000    3.05999994    2.25000000
   20.28888893   -1.00000000    3.05999994    2.23000002
   20.29194450   -1.00000000    3.05999994    2.23000002
   20.29527664   -1.00000000    3.05999994    2.23000002
   20.30555534   -1.00000000    3.09999990    2.23000002
   20.30861092   -1.00000000    3.09999990    2.23000002
   20.31194305   -1.00000000    3.11999989    2.25000000
   20.31499863   -1.00000000    3.14000010    2.23000002
   20.31861115   -1.00000000    3.18000007    2.23000002
   20.32194519   -1.00000000    3.18000007    2.23000002
   20.32500076   -1.00000000    3.20000005    2.21000004
   20.32833481   -1.00000000    3.21000004    2.23000002
   20.33139038   -1.00000000    3.21000004    2.21000004
   20.33472252   -1.00000000    3.21000004    2.23000002
   20.33805656   -1.00000000    3.21000004    2.21000004
   20.34833336   -1.00000000    3.23000002    2.23000002
   20.35194397   -1.00000000    3.23000002    2.21000004
   20.35527802   -1.00000000    3.23000002    2.21000004
   20.35833359   -1.00000000    3.23000002    2.21000004
   20.36166763   -1.00000000    3.23000002    2.21000004
   20.36472321   -1.00000000    3.23000002    2.21000004
   20.36805534   -1.00000000    3.23000002    2.21000004
   20.37138939   -1.00000000    3.23000002    2.21000004
   20.37444496   -1.00000000    3.25000000    2.19000006
   20.37777710   -1.00000000    3.25000000    2.21000004
   20.38111115   -1.00000000    3.26999998    2.21000004
   20.39111137   -1.00000000    3.28999996    2.19000006
   20.39444351   -1.00000000    3.30999994    2.19000006
   20.39749908   -1.00000000    3.28999996    2.19000006
   20.40083313   -1.00000000    3.30999994    2.19000006
   20.40416718   -1.00000000    3.30999994    2.19000006
   20.40722275   -1.00000000    3.32999992    2.19000006
   20.41055489   -1.00000000    3.32999992    2.19000006
   20.41361046   -1.00000000    3.32999992    2.17000008
   20.41694450   -1.00000000    3.32999992    2.19000006
   20.42055511   -1.00000000    3.32999992    2.17000008
   20.42388916   -1.00000000    3.30999994    2.17000008
   20.43388748   -1.00000000    3.30999994    2.17000008
   20.43722153   -1.00000000    3.32999992    2.17000008
   20.45666695   -1.00000000    3.34999990    2.17000008
   20.46055603   -1.00000000    3.34999990    2.15000010
   20.46361160   -1.00000000    3.34999990    2.15000010
   20.46694565   -1.00000000    3.34999990    2.15000010
   20.47694588   -1.00000000    3.34999990    2.15000010
   20.48000145   -1.00000000    3.34999990    2.15000010
   20.48333359   -1.00000000    3.34999990    2.15000010
   20.48666763   -1.00000000    3.36999989    2.15000010
   20.48972321   -1.00000000    3.36999989    2.13000011
   20.49333382   -1.00000000    3.39000010    2.15000010
   20.49638939   -1.00000000    3.39000010    2.15000010
   20.49972153   -1.00000000    3.39000010    2.15000010
   20.50305557   -1.00000000    3.41000009    2.15000010
   20.50611115   -1.00000000    3.41000009    2.13000011
   20.50944519   -1.00000000    3.41000009    2.13000011
   20.51972198   -1.00000000    0.17000000    0.19000000
   20.52305603   -1.00000000    0.17000000    0.19000000
   20.52666664   -1.00000000    0.17000000    0.19000000
