    HOUR (UT)   FLARE FACTOR    SKY TESTER    SUN TESTER
   12.51333332   -1.00000000   -1.00000000   -1.00000000
   12.54583359  136.69000244    1.94000006    2.07999992
   12.54916668   89.73809814    1.91999996    2.07999992
   12.55222225   91.69029999    1.89999998    2.07999992
   12.55555534   94.47660065    1.88000000    2.07999992
   12.55888939   90.74299622    1.86000001    2.09999990
   12.56194496   86.08180237    1.86000001    2.09999990
   12.56611156   86.08180237    1.83000004    2.09999990
   12.57027817   86.63050079    1.78999996    2.11999989
   12.57361126   86.06569672    1.78999996    2.11999989
   12.57666683   84.93160248    1.76999998    2.11999989
   12.57916641   86.92819977    1.73000002    2.11999989
   12.58055592   87.71440125    1.71000004    2.11999989
   12.58361053   85.54290009    1.69000006    2.11999989
   12.58694458   86.61450195    1.64999998    2.13000011
   12.59027767   90.23010254    1.63000000    2.09999990
   12.59333324   95.67739868    1.60000002    2.11999989
   12.59666634   90.73619843    1.55999994    2.13000011
   12.59972191   81.18260193    1.53999996    2.13000011
   12.60305595   93.36440277    1.51999998    2.13000011
   12.60888958   93.36440277    1.46000004    2.13000011
   12.61305618   94.42720032    1.44000006    2.13000011
   12.61638927   95.06349945    1.39999998    2.13000011
   12.61972237   86.11080170    1.38000000    2.15000010
   12.62277794   82.55169678    1.36000001    2.15000010
   12.62611103   85.14430237    1.34000003    2.13000011
   12.62916660   94.19760132    1.33000004    2.13000011
   12.63249969   88.16419983    1.33000004    2.17000008
   12.63583279   83.60479736    1.30999994    2.15000010
   12.63888836   86.03119659    1.28999996    2.15000010
   12.64222240   83.56639862    1.26999998    2.15000010
   12.64555550   87.03900146    1.25000000    2.15000010
   12.64583302   83.67009735    1.25000000    2.15000010
   12.65194416   83.67009735    1.21000004    2.15000010
   12.65611076   84.24099731    1.19000006    2.17000008
   12.65916634   86.46019745    1.16999996    2.17000008
   12.66249943   85.49770355    1.14999998    2.17000008
   12.66555500   84.53459930    1.14999998    2.17000008
   12.66888905   89.04109955    1.21000004    2.19000006
   12.67222214   91.12799835    1.48000002    2.17000008
   12.67527771   81.56900024    4.90999985    2.11999989
   12.67861176   86.33660126    4.90999985    2.11999989
   12.67916679   88.03569794    4.90999985    2.11999989
   12.68222237   84.35579681    1.60000002    2.09999990
   12.68555546   91.54579926    1.60000002    2.09999990
   12.68861103   90.86959839    1.60000002    2.09999990
   12.69472218   90.86959839    1.61000001    2.09999990
   12.69888878   83.41680145    1.60000002    2.11999989
   12.70194435   86.32209778    1.61000001    2.11999989
   12.70527744   92.31909943    1.61000001    2.11999989
   12.70861053   89.46659851    1.58000004    2.11999989
   12.71166611   95.74829865    1.61000001    2.11999989
   12.71249962   90.86599731    1.61000001    2.11999989
   12.71527767   91.40560150    1.60000002    2.11999989
   12.71861076  100.54799652    1.58000004    2.11999989
   12.72166634   92.82009888    1.53999996    2.13000011
   12.72499943   95.07399750    1.51999998    2.11999989
   12.72833252   90.00180054    1.51999998    2.13000011
   12.73138809  100.69300079    1.50000000    2.13000011
   12.73750019  100.69300079    1.50000000    2.13000011
   12.74166679   97.02469635    1.50000000    2.13000011
   12.74499989   90.48200226    1.48000002    2.13000011
   12.74611092   90.03220367    1.48000002    2.13000011
   12.74861145  109.04199982    1.48000002    2.13000011
   12.75194454   99.48780060    1.48000002    2.13000011
   12.75500011   94.69180298    1.48000002    2.13000011
   12.75833321  106.28600311    1.46000004    2.13000011
   12.76166630   93.92299652    1.46000004    2.13000011
   12.76472187   92.08769989    1.46000004    2.15000010
   12.76805496  101.26999664    1.41999996    2.15000010
   12.77138901   99.79910278    1.41999996    2.15000010
   12.77444458  101.62500000    1.41999996    2.15000010
   12.78027725  101.62500000    1.41999996    2.15000010
   12.78444481   92.06870270    1.39999998    2.17000008
   12.78777790   88.88300323    1.39999998    2.17000008
   12.79111195   92.40110016    1.39999998    2.15000010
   12.79416752   88.51830292    1.38000000    2.17000008
   12.79750061   92.99749756    1.38000000    2.17000008
   12.80055618   85.48139954    1.38000000    2.17000008
   12.80388927   84.48699951    1.36000001    2.17000008
   12.80722237   99.60379791    1.36000001    2.17000008
   12.81027794  100.63600159    1.36000001    2.15000010
   12.81277752   94.54730225    1.36000001    2.17000008
   12.81388950   89.67590332    1.36000001    2.17000008
   12.81722260   92.34999847    1.36000001    2.17000008
   12.82333374   92.34999847    1.34000003    2.19000006
   12.82750034   95.85350037    1.34000003    2.17000008
   12.83055592  103.76399994    1.36000001    2.17000008
   12.83388901   95.44159698    1.36000001    2.19000006
   12.83694458   98.96690369    1.36000001    2.19000006
   12.84027767   98.07029724    1.36000001    2.19000006
   12.84361076   95.19740295    1.34000003    2.19000006
   12.84611034   96.77110291    1.34000003    2.19000006
   12.84722233   86.24469757    1.34000003    2.19000006
   12.85055637   92.77059937    1.34000003    2.19000006
   12.85361195  100.55400085    1.34000003    2.19000006
   12.85694504   96.37750244    1.34000003    2.19000006
   12.86027813   99.72239685    1.34000003    2.19000006
   12.86611176   99.72239685    1.33000004    2.21000004
   12.87027836  102.76599884    1.33000004    2.21000004
   12.87333393  109.24500275    1.33000004    2.21000004
   12.87666702  100.69899750    1.33000004    2.21000004
   12.87944412  103.68900299    1.30999994    2.19000006
   12.88027763   98.96749878    1.30999994    2.21000004
   12.88361073  100.12500000    1.30999994    2.21000004
   12.88666630  108.48300171    1.30999994    2.21000004
   12.89000034   97.91960144    1.30999994    2.21000004
   12.89333344  101.88800049    1.30999994    2.21000004
   12.89638901  105.93900299    1.30999994    2.21000004
   12.89972210  114.60900116    1.30999994    2.21000004
   12.90305519  105.02200317    1.30999994    2.21000004
   12.90888882  105.02200317    1.30999994    2.23000002
   12.91305542   97.52359772    1.30999994    2.21000004
   12.91638851   95.35530090    1.30999994    2.21000004
   12.91944504  106.33200073    1.30999994    2.23000002
   12.92277813  100.36599731    1.30999994    2.23000002
   12.92611122   97.79080200    1.30999994    2.23000002
   12.92916679   90.63230133    1.30999994    2.23000002
   12.93249989   90.34970093    1.30999994    2.23000002
   12.93555546   94.09770203    1.30999994    2.23000002
   12.93888855  101.21399689    1.30999994    2.23000002
   12.94222260   97.14399719    1.30999994    2.23000002
   12.94527817   89.65769958    1.30999994    2.23000002
   12.94611073   93.89330292    1.30999994    2.23000002
   12.95166683   93.89330292    1.30999994    2.23000002
   12.95583344  112.69200134    1.30999994    2.23000002
   12.95916653  106.83300018    1.28999996    2.25000000
   12.96249962  110.86299896    1.28999996    2.25000000
   12.96555519  100.87899780    1.28999996    2.25000000
   12.96888828  109.08399963    1.28999996    2.25000000
   12.97222137   92.92089844    1.28999996    2.25000000
   12.97527695  106.24700165    1.26999998    2.25000000
   12.97861099  102.53500366    1.28999996    2.25000000
   12.97944355  111.83399963    1.28999996    2.25000000
   12.98222160  102.57700348    1.26999998    2.25000000
   12.98555565  110.36000061    1.26999998    2.25000000
   12.98888874  100.36299896    1.28999996    2.25000000
   12.99472237  100.36299896    1.26999998    2.25000000
   12.99888897  102.28099823    1.26999998    2.25000000
   13.00194454  104.45600128    1.26999998    2.26999998
   13.00527763  103.80400085    1.26999998    2.26999998
   13.00833321   94.71489716    1.26999998    2.26999998
   13.01166630   99.86630249    1.26999998    2.26999998
   13.01277733   93.12560272    1.26999998    2.26999998
   13.01527786  107.93499756    1.26999998    2.26999998
   13.01861095   92.25959778    1.25000000    2.25000000
   13.02194405   86.54570007    1.25000000    2.26999998
   13.02499962   95.22170258    1.25000000    2.26999998
   13.02833271   85.24130249    1.25000000    2.25000000
   13.03138828   96.90070343    1.25000000    2.26999998
   13.03750038   96.90070343    1.23000002    2.26999998
   13.04166698   94.17620087    1.25000000    2.28999996
   13.04472256   98.80500031    1.25000000    2.28999996
   13.04611111   99.92960358    1.23000002    2.26999998
   13.04833412   99.00409698    1.23000002    2.28999996
   13.05166721  100.04100037    1.23000002    2.28999996
   13.05500031  100.37500000    1.23000002    2.28999996
   13.05805588   98.67310333    1.23000002    2.26999998
   13.06138897   99.75109863    1.23000002    2.28999996
   13.06444454  105.05000305    1.23000002    2.28999996
   13.06777763   95.58370209    1.23000002    2.28999996
   13.07111073   90.94249725    1.23000002    2.28999996
   13.07416630   96.06210327    1.23000002    2.28999996
   13.08027744   96.06210327    1.23000002    2.28999996
   13.08444405  109.33799744    1.21000004    2.28999996
   13.08777714  102.75599670    1.21000004    2.28999996
   13.09083271   98.73229980    1.21000004    2.28999996
   13.09416676   94.72399902    1.21000004    2.28999996
   13.09749985   94.50569916    1.21000004    2.28999996
   13.10055637  107.46800232    1.21000004    2.28999996
   13.10388947  108.08300018    1.21000004    2.28999996
   13.10694504   97.55500031    1.21000004    2.30999994
   13.11027813   94.37300110    1.21000004    2.28999996
   13.11277771  101.89099884    1.21000004    2.30999994
   13.11388969   95.24590302    1.21000004    2.30999994
   13.11722279   93.55829620    1.21000004    2.30999994
   13.12305546   93.55829620    1.21000004    2.30999994
   13.12722206  104.66200256    1.21000004    2.30999994
   13.13055611  104.05300140    1.21000004    2.30999994
   13.13388920  111.81600189    1.21000004    2.30999994
   13.13694477  111.96499634    1.19000006    2.30999994
   13.14027786  117.55200195    1.19000006    2.30999994
   13.14333344  111.58899689    1.19000006    2.30999994
   13.14611053  107.59300232    1.19000006    2.32999992
   13.14694405  116.94200134    1.19000006    2.32999992
   13.15027714  118.91200256    1.19000006    2.30999994
   13.15361118  115.24500275    1.19000006    2.30999994
   13.15666676  119.90100098    1.16999996    2.32999992
   13.15999985  110.82700348    1.16999996    2.32999992
   13.16611099  110.82700348    1.16999996    2.32999992
   13.17027855  105.96600342    1.16999996    2.32999992
   13.17333412  103.90599823    1.16999996    2.32999992
   13.17666721  110.89299774    1.16999996    2.32999992
   13.17944431  104.52100372    1.16999996    2.32999992
   13.18027782   99.29900360    1.16999996    2.32999992
   13.18361092  104.82399750    1.16999996    2.32999992
   13.18694496  109.60800171    1.19000006    2.32999992
   13.19000053  103.98600006    1.19000006    2.32999992
   13.19333363  104.43099976    1.19000006    2.32999992
   13.19666672  120.40100098    1.16999996    2.32999992
   13.19972229  116.79699707    1.14999998    2.32999992
   13.20305538  118.76499939    1.14999998    2.32999992
   13.20888901  118.76499939    1.16999996    2.34999990
   13.21305561  107.98300171    1.16999996    2.34999990
   13.21611118  116.60800171    1.16999996    2.34999990
   13.21944427  124.54399872    1.16999996    2.34999990
   13.22277737   93.68949890    1.16999996    2.32999992
   13.22583294  103.25900269    1.16999996    2.34999990
   13.22916603  109.88200378    1.16999996    2.32999992
   13.23249912  111.07700348    1.16999996    2.32999992
   13.23555565  104.35199738    1.16999996    2.32999992
   13.23888874  107.21900177    1.16999996    2.34999990
   13.24194431  115.24700165    1.16999996    2.34999990
   13.24527836  120.44499969    1.16999996    2.34999990
   13.24611092  135.74899292    1.16999996    2.34999990
   13.25166702  135.74899292    1.16999996    2.34999990
   13.25583363   98.26640320    1.16999996    2.34999990
   13.25916672  106.14299774    1.16999996    2.34999990
   13.26222229  106.18099976    1.14999998    2.34999990
   13.26555538   93.14040375    1.14999998    2.34999990
   13.26888847  118.82800293    1.14999998    2.36999989
   13.27194405  125.94100189    1.14999998    2.36999989
   13.27527714  114.24800110    1.14999998    2.34999990
   13.27833271  100.68399811    1.13000000    2.34999990
   13.27944374  122.45700073    1.13000000    2.34999990
   13.28194427  106.23899841    1.13000000    2.36999989
   13.28527832  126.26399994    1.13000000    2.36999989
   13.28861141  106.98300171    1.13000000    2.36999989
   13.29444504  106.98300171    1.11000001    2.34999990
   13.29861164  101.43099976    1.13000000    2.36999989
   13.30194473  112.63500214    1.11000001    2.36999989
   13.30527782  108.55699921    1.11000001    2.36999989
   13.30833340  102.44400024    1.11000001    2.36999989
   13.31166649  111.44000244    1.11000001    2.36999989
   13.31277752   89.24980164    1.11000001    2.36999989
   13.31527805   99.83370209    1.11000001    2.39000010
   13.31861115  112.69899750    1.11000001    2.39000010
   13.32194424  109.63200378    1.09000003    2.36999989
   13.32499981  106.17099762    1.09000003    2.36999989
   13.32833290  108.83100128    1.09000003    2.36999989
   13.33166695  105.75399780    1.07000005    2.36999989
   13.33749962  105.75399780    1.07000005    2.39000010
   13.34138870  117.13200378    1.09000003    2.39000010
   13.34472179   96.13089752    1.07000005    2.39000010
   13.34611034  109.28600311    1.07000005    2.39000010
   13.34833336  105.42800140    1.07000005    2.39000010
   13.35166740  116.28099823    1.09000003    2.39000010
   13.35500050  105.32299805    1.09000003    2.39000010
   13.35805607   92.57730103    1.07000005    2.39000010
   13.36138916  115.46299744    1.07000005    2.39000010
   13.36472225  104.50099945    1.07000005    2.39000010
   13.36777782  114.73100281    1.07000005    2.39000010
   13.37111092  111.82800293    1.07000005    2.39000010
   13.37416649  102.79499817    1.07000005    2.40000010
   13.38027763  102.79499817    1.07000005    2.40000010
   13.38444424  105.84999847    1.07000005    2.40000010
   13.38749981  110.83100128    1.07000005    2.40000010
   13.39083290  100.07299805    1.07000005    2.40000010
   13.39416695  103.31999969    1.07000005    2.40000010
   13.39722252  104.13200378    1.07000005    2.40000010
   13.40055561  102.01300049    1.07000005    2.40000010
   13.40361118  111.50800323    1.05999994    2.39000010
   13.40694427   94.82299805    1.05999994    2.40000010
   13.41027737   89.72869873    1.07000005    2.40000010
   13.41277695  106.94599915    1.07000005    2.40000010
   13.41361046  107.89800262    1.07000005    2.40000010
   13.41694450   95.43080139    1.05999994    2.40000010
   13.42305565   95.43080139    1.05999994    2.40000010
   13.42722225   96.18609619    1.05999994    2.40000010
   13.43055630   97.26860046    1.05999994    2.39000010
   13.43361092   93.32289886    1.05999994    2.40000010
   13.43694496   99.79149628    1.03999996    2.40000010
   13.44000053   95.77210236    1.03999996    2.40000010
   13.44333363  101.14499664    1.03999996    2.40000010
   13.44611073   92.94139862    1.03999996    2.42000008
   13.44722271  108.77600098    1.01999998    2.40000010
   13.45027733  105.53199768    1.01999998    2.40000010
   13.45361137   96.12310028    1.01999998    2.40000010
   13.45666695  113.24900055    1.01999998    2.42000008
   13.46000004   99.14029694    1.01999998    2.40000010
   13.46583271   99.14029694    1.01999998    2.40000010
   13.46999931   94.61779785    1.01999998    2.40000010
   13.47333336   87.27819824    1.01999998    2.40000010
   13.47638798   97.60600281    1.01999998    2.42000008
   13.47944355   96.20580292    1.03999996    2.40000010
   13.48027706  103.94200134    1.03999996    2.40000010
   13.48333359   96.01190186    1.01999998    2.42000008
   13.48666668  102.79799652    1.01999998    2.42000008
   13.48972225  103.74500275    1.01999998    2.42000008
   13.49305534   95.77899933    1.01999998    2.42000008
   13.49638939   93.01679993    1.01999998    2.42000008
   13.49944496   99.67900085    1.01999998    2.42000008
   13.50277805   92.84960175    1.01999998    2.40000010
   13.50888920   92.84960175    1.01999998    2.42000008
   13.51277733   87.91480255    1.00000000    2.42000008
   13.51611137   98.55049896    1.00000000    2.44000006
   13.51944447   87.50930023    1.00000000    2.42000008
   13.52250004  100.72399902    1.00000000    2.42000008
   13.52583313   94.79129791    1.00000000    2.42000008
   13.52916622   99.18769836    1.00000000    2.44000006
   13.53222179   92.35420227    1.00000000    2.44000006
   13.53555584   90.43499756    1.00000000    2.42000008
   13.53861141   89.25939941    1.00000000    2.42000008
   13.54194450   91.02200317    1.00000000    2.44000006
   13.54527855   92.71040344    1.00000000    2.44000006
   13.54611111   98.58119965    1.00000000    2.44000006
   13.56666660   98.58119965    1.00000000    2.44000006
   13.57083321   85.83100128    0.98000002    2.44000006
   13.57416630   99.50890350    0.98000002    2.44000006
   13.57750034   93.18830109    0.98000002    2.44000006
   13.57944393   94.32949829    0.98000002    2.44000006
   13.58111095   93.04540253    0.98000002    2.44000006
   13.58416653   91.80599976    0.95999998    2.44000006
   13.58749962   90.45839691    0.95999998    2.44000006
   13.59083271   89.32289886    0.98000002    2.46000004
   13.59388828   88.96900177    0.95999998    2.44000006
   13.59722233   95.58129883    0.94000000    2.44000006
   13.60027790   88.87429810    0.94000000    2.44000006
   13.60361195   87.72949982    0.94000000    2.44000006
   13.60944462   87.72949982    0.92000002    2.44000006
   13.61361122   87.70770264    0.92000002    2.44000006
   13.61694431   90.35030365    0.94000000    2.44000006
   13.62027836   90.97570038    0.92000002    2.46000004
   13.62333393   86.87580109    0.92000002    2.44000006
   13.62666702   81.56089783    0.92000002    2.44000006
   13.62972260   82.00650024    0.92000002    2.44000006
   13.63305569   81.58080292    0.89999998    2.44000006
   13.63638878   84.69249725    0.89999998    2.44000006
   13.63944435   76.81300354    0.89999998    2.46000004
   13.64277744   75.78720093    0.88000000    2.46000004
   13.64611053   78.98819733    0.86000001    2.44000006
   13.64638901   78.71450043    0.86000001    2.44000006
   13.65249920   78.71450043    0.83999997    2.46000004
   13.65666676   83.53250122    0.86000001    2.46000004
   13.65972137   82.54519653    0.86000001    2.46000004
   13.66305542   75.44419861    0.86000001    2.46000004
   13.66611099   87.17839813    0.86000001    2.44000006
   13.66944504   84.68859863    0.88000000    2.46000004
   13.67277813   86.75550079    0.88000000    2.46000004
   13.67583370   93.45929718    0.89999998    2.46000004
   13.67916679   90.15270233    0.92000002    2.46000004
   13.67972279   96.39099884    0.92000002    2.46000004
   13.68277836   93.47239685    0.92000002    2.46000004
   13.68611145   95.50900269    0.94000000    2.46000004
   13.68916702   83.84909821    0.94000000    2.46000004
   13.69527817   83.84909821    0.89999998    2.46000004
   13.69944477   95.89800262    0.88000000    2.48000002
   13.70249939   91.44190216    0.83999997    2.46000004
   13.70583344   92.82489777    0.80000001    2.46000004
   13.70916653   89.08229828    0.79000002    2.48000002
   13.71222210   88.09839630    0.80000001    2.48000002
   13.71305561   90.01830292    0.80000001    2.48000002
   13.71583271   95.82669830    0.79000002    2.46000004
   13.71916580   88.31719971    2.73000002    2.50000000
   13.72222137   92.26409912    2.86999989    2.50000000
   13.72555542   94.81909943    0.73000002    2.48000002
   13.72888851   96.62419891    4.90999985    2.55999994
   13.73194408   91.61840057    4.90999985    2.55999994
   13.73805618   91.61840057    4.90999985    2.55999994
   13.74222279   93.72239685    4.90999985    2.53999996
   13.74527836   95.15979767    4.90999985    2.55999994
   13.74638939   88.94819641    4.90999985    2.55999994
   13.74888897   96.52899933    4.90999985    2.55999994
   13.75222206   88.35230255    4.90999985    2.55999994
   13.75527763   89.41649628    4.90999985    2.55999994
   13.75861073   89.54370117    4.90999985    2.55999994
   13.76194477   91.50969696    4.90999985    2.55999994
   13.76500034   90.84030151    4.90999985    2.55999994
   13.76833344   89.48459625    4.90999985    2.57999992
   13.77138901   91.38110352    4.90999985    2.55999994
   13.77472210   85.57360077    0.67000002    2.48000002
   13.78083324   85.57360077    0.67000002    2.48000002
   13.78500080   96.56449890    0.67000002    2.48000002
   13.78833389   92.95079803    0.67000002    2.46000004
   13.79138947   93.63269806    0.69000000    2.48000002
   13.79472256   94.52310181    0.69000000    2.48000002
   13.79777813  101.20700073    0.70999998    2.48000002
   13.80111122   91.06069946    0.73000002    2.48000002
   13.80444431   97.82129669    0.75000000    2.48000002
   13.80749989  100.12699890    0.75000000    2.48000002
   13.81083393   94.26930237    0.76999998    2.48000002
   13.81305599  100.09400177    0.76999998    2.48000002
   13.81444454   99.81479645    0.76999998    2.48000002
   13.81777763   89.85299683    0.76999998    2.48000002
   13.82388878   89.85299683    0.75000000    2.50000000
   13.82777786  102.55999756    0.75000000    2.50000000
   13.83111095   98.31369781    0.75000000    2.50000000
   13.83444405   98.12770081    0.75000000    2.50000000
   13.83749962   94.82479858    0.75000000    2.48000002
   13.84083271  105.72499847    0.75000000    2.48000002
   13.84388828  105.12400055    0.75000000    2.48000002
   13.84666634   93.92469788    0.76999998    2.50000000
   13.84749985   98.14659882    0.76999998    2.50000000
   13.85083389   94.85549927    0.76999998    2.48000002
   13.85388947   98.84549713    0.76999998    2.48000002
   13.85722256   93.52239990    0.76999998    2.50000000
   13.86055565   84.34030151    0.76999998    2.48000002
   13.86666679   84.34030151    0.76999998    2.50000000
   13.87083340   86.44069672    0.76999998    2.50000000
   13.87388897   87.94750214    0.76999998    2.48000002
   13.87722206   92.12619781    0.76999998    2.50000000
   13.88000011   86.65830231    0.76999998    2.50000000
   13.88083363   89.85810089    0.76999998    2.48000002
   13.88416672   88.23570251    0.76999998    2.50000000
   13.88722229   88.36019897    0.79000002    2.48000002
   13.89055538   91.56950378    0.79000002    2.48000002
   13.89388847   88.12449646    0.79000002    2.50000000
   13.89694405   87.49050140    0.79000002    2.50000000
   13.90027714   94.34439850    0.79000002    2.50000000
   13.90361118   91.52030182    0.79000002    2.50000000
   13.90944386   91.52030182    0.79000002    2.50000000
   13.91361046   92.96160126    0.79000002    2.50000000
   13.91666698   90.25029755    0.79000002    2.51999998
   13.92000008   97.51830292    0.76999998    2.50000000
   13.92333412   93.21250153    0.83999997    2.50000000
   13.92638874   90.78489685    0.80000001    2.50000000
   13.92972279  100.21399689    0.76999998    2.51999998
   13.93305588   93.75630188    0.75000000    2.51999998
   13.93611145  105.46099854    0.75000000    2.51999998
   13.93944454   96.75450134    0.75000000    2.51999998
   13.94250011   96.60240173    0.75000000    2.50000000
   13.94583321   88.10389709    0.76999998    2.50000000
   13.94666672   89.74960327    0.76999998    2.50000000
   13.95222187   89.74960327    0.76999998    2.51999998
   13.95638847   93.12449646    0.79000002    2.51999998
   13.95972157   89.66320038    0.79000002    2.50000000
   13.96277714   91.12280273    0.79000002    2.51999998
   13.96611118  100.36499786    0.79000002    2.51999998
   13.96944427   97.62290192    0.79000002    2.51999998
   13.97249985   91.24120331    0.76999998    2.51999998
   13.97583294   85.10959625    0.76999998    2.51999998
   13.97888851   90.65399933    0.76999998    2.51999998
   13.97999954   95.67050171    0.76999998    2.51999998
   13.98277760   90.71279907    0.76999998    2.51999998
   13.98583317   90.73480225    0.75000000    2.51999998
   13.98916721   87.73239899    0.75000000    2.51999998
   13.99527836   87.73239899    0.75000000    2.50000000
   13.99916649   91.79019928    0.75000000    2.51999998
   14.00249958   94.81430054    0.75000000    2.51999998
   14.00583363   91.18930054    0.75000000    2.51999998
   14.00888920   99.27600098    0.75000000    2.51999998
   14.01222229   94.61679840    0.75000000    2.51999998
   14.01333332   95.84750366    0.75000000    2.51999998
   14.01583290   93.52950287    0.75000000    2.51999998
   14.01916599   96.03939819    0.75000000    2.51999998
   14.02222157   98.41380310    0.75000000    2.51999998
   14.02555561   99.87539673    0.75000000    2.51999998
   14.02888870   91.48079681    0.75000000    2.51999998
   14.03194427   98.63819885    0.75000000    2.51999998
   14.03805637   98.63819885    0.75000000    2.51999998
   14.04222298   89.24559784    0.75000000    2.51999998
   14.04527855   89.74629974    0.73000002    2.51999998
   14.04666710   97.13169861    0.73000002    2.51999998
   14.04888916   91.40589905    0.73000002    2.51999998
   14.05222225   97.54810333    0.73000002    2.51999998
   14.05527782   90.24649811    0.73000002    2.51999998
   14.05861092   93.98699951    0.73000002    2.51999998
   14.06194496   91.40650177    0.73000002    2.53999996
   14.06500053   88.79000092    0.73000002    2.53999996
   14.06833363   88.46769714    0.73000002    2.51999998
   14.07166672   91.33969879    0.73000002    2.51999998
   14.07472229   93.29669952    0.73000002    2.51999998
   14.08083344   93.29669952    0.73000002    2.53999996
   14.08500004   98.45159912    0.75000000    2.51999998
   14.08805561   97.16349792    0.75000000    2.51999998
   14.09138870   89.08380127    0.75000000    2.51999998
   14.09472179   93.38580322    0.76999998    2.53999996
   14.09777737  100.36799622    0.76999998    2.53999996
   14.10111141  102.94300079    0.76999998    2.53999996
   14.10444450   90.12270355    0.76999998    2.53999996
   14.10750008   96.99060059    0.79000002    2.51999998
   14.11083412   91.68730164    0.76999998    2.53999996
   14.11333370   92.92980194    0.76999998    2.51999998
   14.11444473   86.43319702    0.76999998    2.51999998
   14.11777782   94.90599823    0.75000000    2.51999998
   14.12361145   94.90599823    0.75000000    2.51999998
   14.12777805   90.58979797    0.70999998    2.51999998
   14.13111115   94.48950195    0.70999998    2.53999996
   14.13416672  104.03299713    0.73000002    2.53999996
   14.13749981   99.66100311    0.70999998    2.53999996
   14.14083290   97.37349701    0.73000002    2.53999996
   14.14388847   93.97969818    0.73000002    2.53999996
   14.14666653   88.66120148    0.73000002    2.53999996
   14.14750004   90.75810242    0.73000002    2.53999996
   14.15083313   91.84030151    0.75000000    2.53999996
   14.15416622   91.60040283    0.75000000    2.53999996
   14.15722179   90.38700104    0.75000000    2.53999996
   14.16055489  103.38200378    0.75000000    2.53999996
   14.16666698  103.38200378    0.75000000    2.53999996
   14.17055607   91.14299774    0.75000000    2.55999994
   14.17388916   91.06479645    0.75000000    2.53999996
   14.17722225   97.42849731    0.75000000    2.53999996
   14.18000031   90.48040009    0.75000000    2.53999996
   14.18055630   88.43530273    0.79000002    2.55999994
   14.18388939   90.21309662    0.83999997    2.53999996
   14.18722248   92.08229828    0.88000000    2.53999996
   14.19027805   94.55470276    1.26999998    2.55999994
   14.19361115   92.94270325    1.30999994    2.55999994
   14.19666672   92.10240173    1.53999996    2.55999994
   14.19999981   90.92790222    1.71000004    2.55999994
   14.20333290   98.42520142    2.44000006    2.55999994
   14.20944405   98.42520142    2.61999989    2.53999996
   14.21361065   97.61450195    2.46000004    2.51999998
   14.21666622   94.39980316    2.91000009    2.50000000
   14.21999931   97.12370300    3.46000004    2.48000002
   14.22305489   96.40000153    4.90999985    2.48000002
   14.22638798   96.11430359    4.90999985    2.50000000
   14.22972202   95.22730255    4.90999985    2.51999998
   14.23277760   95.00050354    4.03999996    2.51999998
   14.23611164   95.23960114    3.07999992    2.53999996
   14.23944473   93.75949860    3.70000005    2.51999998
   14.24250031   93.14489746    4.67999983    2.51999998
   14.24583340   92.41940308    4.90999985    2.48000002
   14.24666691   94.08370209    4.90999985    2.48000002
   14.25222206   94.08370209    4.90999985    2.42000008
   14.25638866   90.70819855    4.90999985    2.50000000
   14.25944424  101.38099670    4.90999985    2.51999998
   14.26277733   92.88719940    4.90999985    2.51999998
   14.26611137   92.89630127    4.90999985    2.48000002
   14.26916599  114.07099915    4.90999985    2.46000004
   14.27250004   93.94339752    4.90999985    2.40000010
   14.27583313   99.27839661    4.90999985    2.42000008
   14.27888870   92.75099945    4.90999985    2.44000006
   14.27999973   98.94650269    4.90999985    2.46000004
   14.28249931   92.11579895    4.90999985    2.46000004
   14.28583336   94.11779785    4.90999985    2.36999989
   14.28916740   97.13130188    4.90999985    2.48000002
   14.29500008   97.13130188    4.90999985    2.51999998
   14.29916668   88.81569672    4.90999985    2.50000000
   14.30249977  105.87999725    4.90999985    2.46000004
   14.30555534   91.90190125    4.90999985    2.39000010
   14.30888939  103.69599915    4.90999985    2.36999989
   14.31222248  106.25499725    4.90999985    2.44000006
   14.31333351  123.43199921    4.90999985    2.36999989
   14.31555557  113.08200073    4.90999985    2.34999990
   14.31888866  129.33700562    4.90999985    2.40000010
   14.32222176  106.83000183    4.90999985    2.36999989
   14.32527733  104.54599762    4.90999985    2.48000002
   14.32861137   98.69760132    4.90999985    2.51999998
   14.33166695  103.23300171    4.90999985    2.53999996
   14.33777714  103.23300171    3.91000009    2.55999994
   14.34194374  108.15699768    4.90999985    2.46000004
   14.34527779  105.28900146    4.90999985    2.32999992
   14.34666634  120.47100067    4.90999985    2.40000010
   14.34888840  113.69200134    4.90999985    2.30999994
   14.35222244  125.67900085    4.90999985    2.36999989
   14.35555553  157.23800659    4.90999985    2.32999992
   14.35861111  112.82099915    4.90999985    2.26999998
   14.36194515  121.63200378    4.90999985    2.36999989
   14.36527824  128.20100403    4.90999985    2.25000000
   14.36833382  128.82800293    4.90999985    2.39000010
   14.37166691  128.01199341    4.90999985    2.36999989
   14.37472248  138.77600098    4.90999985    2.26999998
   14.38083363  138.77600098    4.90999985    2.44000006
   14.38500023  120.76899719    4.90999985    2.34999990
   14.38805580  100.82700348    4.90999985    2.39000010
   14.39138889  111.29399872    4.90999985    2.44000006
   14.39444447   90.50689697    4.90999985    2.48000002
   14.39777756   96.25160217    4.90999985    2.51999998
   14.40111065   95.13069916    4.90999985    2.51999998
   14.40416622   97.78720093    4.90999985    2.53999996
   14.40749931   98.18659973    3.57999992    2.55999994
   14.41083336   93.32070160    2.86999989    2.55999994
   14.41333294  100.79299927    2.42000008    2.55999994
   14.41416645   98.94280243    1.96000004    2.55999994
   14.41750050   91.08409882    1.38000000    2.57999992
   14.42361164   91.08409882    1.13000000    2.55999994
   14.42777824   95.24870300    1.14999998    2.55999994
   14.43083382  101.53299713    1.34000003    2.57999992
   14.43416691  100.95400238    1.38000000    2.55999994
   14.43750000   90.07879639    1.26999998    2.57999992
   14.44055557   98.67369843    1.21000004    2.57999992
   14.44388866   94.95390320    1.03999996    2.55999994
   14.44666672   95.84410095    1.03999996    2.55999994
   14.44750023   96.15139771    1.03999996    2.57999992
   14.45083332  105.24800110    1.01999998    2.57999992
   14.45416641  106.04299927    1.01999998    2.57999992
   14.45722198   97.14800262    1.01999998    2.57999992
   14.46055508   99.90370178    4.90999985    2.51999998
   14.46638870   99.90370178    0.86000001    2.57999992
   14.47055531   90.34539795    0.83999997    2.57999992
   14.47388840  103.28900146    0.94000000    2.55999994
   14.47694397  111.72200012    1.01999998    2.55999994
   14.47999954  111.01699829    1.21000004    2.57999992
   14.48055553  102.64299774    1.38000000    2.57999992
   14.48388958  110.70200348    3.82999992    2.53999996
   14.48722267  107.39299774    4.76000023    2.55999994
   14.49027824   95.21630096    2.34999990    2.53999996
   14.49361134  107.57099915    1.46000004    2.55999994
   14.49694443  102.52700043    0.83999997    2.57999992
   14.50000000  104.49800110    1.09000003    2.55999994
   14.50333309  105.25499725    1.09000003    2.55999994
   14.50916672  105.25499725    0.75000000    2.57999992
   14.51333332   95.50279999    0.75000000    2.57999992
   14.51666641   93.83989716    0.79000002    2.57999992
   14.51999950   95.80220032    0.80000001    2.57999992
   14.52305508   96.19770050    0.88000000    2.57999992
   14.52638817   94.57620239    0.89999998    2.57999992
   14.52944374   99.96440125    2.11999989    2.53999996
   14.53277779   95.56179810    2.21000004    2.55999994
   14.53611183   96.61900330    1.89999998    2.57999992
   14.53916740  101.27400208    0.98000002    2.57999992
   14.54250050   92.90149689    0.92000002    2.57999992
   14.54583359   94.87500000    0.89999998    2.57999992
   14.54666710   88.54550171    0.89999998    2.57999992
   14.55222225   88.54550171    0.89999998    2.57999992
   14.55638885   91.16979980    0.88000000    2.57999992
   14.55944443   93.00270081    1.14999998    2.57999992
   14.56277752   97.74199677    0.98000002    2.57999992
   14.58027744   94.19509888    0.86000001    2.57999992
   14.58277798   97.95919800    0.95999998    2.57999992
   14.58583260  102.68699646    1.53999996    2.57999992
   14.58916664  104.86699677    2.55999994    2.55999994
   14.59527779  104.86699677    2.19000006    2.57999992
   14.59916592  102.74099731    0.88000000    2.57999992
   14.60249996   98.33989716    0.88000000    2.57999992
   14.60583401   95.55979919    0.94000000    2.59999990
   14.60888958  100.46399689    1.36000001    2.57999992
   14.61222267   95.13999939    1.36000001    2.57999992
   14.61361122   89.92400360    1.39999998    2.57999992
   14.61583328   90.95800018    1.05999994    2.59999990
   14.61916637   94.61109924    1.01999998    2.59999990
   14.62250042  103.50000000    1.00000000    2.57999992
   14.62555599   95.06079865    1.00000000    2.57999992
   14.62888908   93.18160248    0.98000002    2.59999990
   14.63222218   86.18470001    0.95999998    2.57999992
   14.63805580   86.18470001    1.07000005    2.57999992
   14.64222240   89.36620331    0.94000000    2.59999990
   14.64527798   90.01180267    0.92000002    2.57999992
   14.64694405   91.77539825    0.92000002    2.57999992
   14.64916611   94.00569916    0.89999998    2.57999992
   14.65222168   94.60600281    0.89999998    2.59999990
   14.65555477   90.62030029    0.89999998    2.59999990
   14.65861034   89.59529877    0.89999998    2.59999990
   14.66194439   94.89430237    0.88000000    2.57999992
   14.66527748  113.44899750    1.25000000    2.59999990
   14.66833401   97.16629791    0.95999998    2.59999990
   14.67166710   89.04170227    0.88000000    2.59999990
   14.67500019   94.98580170    0.88000000    2.59999990
   14.68111134   94.98580170    1.07000005    2.59999990
   14.68500042   96.39620209    1.07000005    2.59999990
   14.68833351   97.99500275    2.98000002    2.51999998
   14.69166660  103.15599823    4.90999985    2.53999996
   14.69472218   91.21939850    4.36999989    2.53999996
   14.69805527   89.77130127    3.91000009    2.57999992
   14.70138836   95.17949677    1.85000002    2.57999992
   14.70444393   93.87249756    1.21000004    2.59999990
   14.70777798   95.77639771    1.34000003    2.59999990
   14.71083355   92.20330048    1.76999998    2.59999990
   14.71361065  105.57399750    1.85000002    2.57999992
   14.71472168   97.66300201    1.76999998    2.57999992
   14.71777725   94.79060364    1.78999996    2.59999990
   14.72361088   94.79060364    1.85000002    2.57999992
   14.72777748   95.81559753    0.95999998    2.57999992
   14.73111057   96.43900299    0.92000002    2.59999990
   14.73416710   91.54479980    0.95999998    2.59999990
   14.73750019   93.14689636    1.01999998    2.59999990
   14.74083328   88.83290100    0.92000002    2.59999990
   14.74388885   91.96089935    0.92000002    2.59999990
   14.74694443   94.73020172    1.75000000    2.59999990
   14.74777794   90.71730042    1.75000000    2.59999990
   14.75083351   90.91739655    3.09999990    2.53999996
   14.75416660   92.83329773    4.36999989    2.53999996
   14.75722218   94.98200226    4.63999987    2.55999994
   14.76055527   91.35079956    4.90999985    2.53999996
   14.76666641   91.35079956    3.23000002    2.59999990
   14.77055550   90.01370239    2.64000010    2.55999994
   14.77388859   90.00530243    2.23000002    2.59999990
   14.77722168   89.65390015    2.78999996    2.57999992
   14.78027725   95.19840240    3.03999996    2.57999992
   14.78083324   90.60980225    3.03999996    2.57999992
   14.78388977   92.88710022    2.80999994    2.57999992
   14.78722286   93.84380341    2.64000010    2.57999992
   14.79027843   97.23439789    2.21000004    2.57999992
   14.79361153  101.42500305    1.76999998    2.59999990
   14.79694462   98.79530334    1.63000000    2.57999992
   14.80000019   96.92710114    1.66999996    2.59999990
   14.80333328   97.18389893    1.69000006    2.57999992
   14.80944443   97.18389893    1.76999998    2.59999990
   14.81361103  101.46199799    1.76999998    2.59999990
   14.81416702   98.58319855    1.76999998    2.59999990
   14.81722260   96.99240112    1.80999994    2.59999990
   14.82055569   96.23259735    1.80999994    2.59999990
   14.82361126   94.29850006    1.80999994    2.59999990
   14.82694435   96.28160095    1.66999996    2.59999990
   14.83027744   96.28209686    1.64999998    2.57999992
   14.83333302   99.08200073    1.64999998    2.59999990
   14.83666611   96.76629639    1.64999998    2.59999990
   14.84000015   92.04429626    1.50000000    2.59999990
   14.84305477  100.15699768    1.48000002    2.59999990
   14.84638882   89.67109680    1.48000002    2.59999990
   14.84694386   92.73989868    1.48000002    2.59999990
   14.85222244   92.73989868    1.48000002    2.59999990
   14.85638905   93.18350220    1.48000002    2.59999990
   14.85944462   88.91049957    1.50000000    2.59999990
   14.86277771   91.50270081    1.48000002    2.59999990
   14.86611176   93.60700226    1.39999998    2.59999990
   14.86916637   86.74050140    1.34000003    2.59999990
   14.87250042   95.60959625    1.33000004    2.59999990
   14.87583351   95.01450348    1.33000004    2.59999990
   14.87888908   99.15470123    1.33000004    2.59999990
   14.88027763   88.27919769    1.33000004    2.59999990
   14.88277817   89.97879791    1.33000004    2.59999990
   14.88583279  100.36399841    1.33000004    2.59999990
   14.88916683   97.63999939    1.14999998    2.59999990
   14.89499950   97.63999939    1.14999998    2.59999990
   14.89916611  101.04699707    1.14999998    2.59999990
   14.90249920   93.75879669    1.09000003    2.59999990
   14.90555477   88.82129669    1.09000003    2.59999990
   15.00166702   -1.00000000   -1.00000000   -1.00000000
   15.15416622   -1.00000000   -1.00000000   -1.00000000
   15.28222179   -1.00000000   -1.00000000   -1.00000000
   15.30527782   -1.00000000    4.90999985    0.63000000
   15.30833340   -1.00000000    4.90999985    0.56999999
   15.31166649  165.32899475    4.90999985    1.16999996
   15.31500053   -1.00000000    4.90999985    1.86000001
   15.31805515   -1.00000000    4.90999985    0.79000002
   15.32638836  109.21800232    4.90999985    2.15000010
   15.32972240  346.84201050    4.90999985    2.28999996
   15.33166695   -1.00000000    4.90999985    0.63000000
   15.33166695   -1.00000000    4.90999985    0.56999999
   15.33194447  165.32899475    4.90999985    1.16999996
   15.33194447   -1.00000000    4.90999985    1.86000001
   15.33194447   -1.00000000    4.90999985    0.79000002
   15.33222198  109.21800232    4.90999985    2.15000010
   15.33222198  346.84201050    4.90999985    2.28999996
   15.33416653   -1.00000000    4.90999985    0.81999999
   15.33749962   -1.00000000    4.90999985    0.63000000
   15.34055519   -1.00000000    4.90999985    0.75000000
   15.34388828   -1.00000000    4.90999985    0.76999998
   15.34722233   -1.00000000    4.90999985    0.89999998
   15.35249996   -1.00000000    4.90999985    1.13000000
   15.35638905   89.41239929    4.90999985    1.66999996
   15.35972214   93.46800232    4.90999985    1.85000002
   15.36305618  100.37100220    4.90999985    2.40000010
   15.36555576  100.70400238    4.90999985    2.50000000
   15.36666679   95.53549957    4.90999985    2.50000000
   15.36999989   96.85639954    3.86999989    2.59999990
   15.37333393  101.07199860    3.43000007    2.61999989
   15.37638855   99.83529663    4.07999992    2.57999992
   15.37972260  107.00299835    2.46000004    2.61999989
   15.38277817   99.67939758    1.38000000    2.64000010
   15.38611126  100.34200287    1.25000000    2.61999989
   15.38944435   91.17929840    1.11000001    2.64000010
   15.39527798   91.17929840    1.09000003    2.64000010
   15.39944458   95.14720154    1.09000003    2.61999989
   15.40249920  100.62599945    0.98000002    2.64000010
   15.40583324  113.17700195    0.98000002    2.64000010
   15.40916634   91.87519836    0.95999998    2.64000010
   15.41249943   94.40820313    0.95999998    2.64000010
   15.41583252   95.20549774    0.95999998    2.64000010
   15.41888905   84.60600281    0.89999998    2.64000010
   15.42222214   95.35240173    0.89999998    2.64000010
   15.42527771  101.11399841    0.89999998    2.64000010
   15.42861176   93.23829651    0.89999998    2.64000010
   15.43194485   99.05169678    0.92000002    2.64000010
   15.43249989   96.11810303    0.92000002    2.64000010
   15.43805599   96.11810303    0.92000002    2.64000010
   15.44222260   91.80220032    0.92000002    2.64000010
   15.44555569   88.42189789    0.92000002    2.64000010
   15.44861126   95.75389862    0.92000002    2.64000010
   15.45194435   94.34490204    1.07000005    2.64000010
   15.45527744   91.63059998    1.19000006    2.64000010
   15.45833302  103.87699890    1.53999996    2.64000010
   15.46166611   87.99909973    1.64999998    2.66000009
   15.46472168   90.32830048    1.64999998    2.64000010
   15.46583271   98.61869812    1.96000004    2.64000010
   15.46833324   91.38580322    2.30999994    2.64000010
   15.47166634  119.17299652    4.90999985    2.61999989
   15.47499943  103.43599701    4.90999985    2.13000011
   15.48083305  103.43599701    4.90999985    2.53999996
   15.48500061   91.83860016    4.90999985    2.59999990
   15.48833370  100.97699738    4.90999985    2.53999996
   15.49166679   95.15709686    4.90999985    2.48000002
   15.49472237   99.42859650    2.32999992    2.61999989
   15.49805546   88.83920288    1.51999998    2.64000010
   15.49916649   93.95230103    1.51999998    2.64000010
   15.50166702   95.47740173    1.46000004    2.61999989
   15.50500011   94.35769653    1.38000000    2.61999989
   15.50833321   90.97200012    1.36000001    2.64000010
   15.51138878   97.57910156    1.26999998    2.64000010
   15.51472187   92.01159668    1.21000004    2.64000010
   15.51777744   95.17859650    1.61000001    2.61999989
   15.52388859   95.17859650    2.11999989    2.59999990
   15.52777767   94.28890228    4.90999985    2.46000004
   15.53111076   87.47070313    4.90999985    2.42000008
   15.53249931   89.11080170    4.90999985    2.40000010
   15.53472233   95.94319916    4.90999985    2.53999996
   15.53805637   82.44360352    3.68000007    2.59999990
   15.54138947   80.36569977    3.05999994    2.59999990
   15.54444504   85.04319763    3.07999992    2.59999990
   15.54777813   84.64230347    2.98000002    2.59999990
   15.55083370   88.04419708    2.98000002    2.55999994
   15.55416679   88.08170319    2.69000006    2.59999990
   15.55749989   83.64730072    2.09999990    2.61999989
   15.56055546   79.26480103    1.85000002    2.61999989
   15.56666660   79.26480103    1.85000002    2.61999989
   15.57083321   90.97170258    1.89999998    2.61999989
   15.57388878   89.07569885    1.85000002    2.61999989
   15.57722187   88.19879913    1.51999998    2.64000010
   15.58055592   84.23819733    1.30999994    2.64000010
   15.58361053   82.34809875    1.07000005    2.64000010
   15.58694458   82.08489990    1.07000005    2.64000010
   15.59027767   89.49749756    1.05999994    2.64000010
   15.59333324   90.71530151    1.01999998    2.66000009
   15.59666634   90.63919830    1.01999998    2.64000010
   15.59916592   86.31020355    1.01999998    2.64000010
   15.60027790   87.15180206    1.01999998    2.66000009
   15.60361195   92.98709869    0.95999998    2.64000010
   15.60944462   92.98709869    0.89999998    2.64000010
   15.61361122   92.19580078    1.00000000    2.66000009
   15.61694431   92.95279694    1.13000000    2.64000010
   15.61999989   95.67759705    1.53999996    2.64000010
   15.62333393   91.45079803    1.46000004    2.64000010
   15.62638855   91.62370300    1.44000006    2.64000010
   15.62972260   87.35060120    1.39999998    2.64000010
   15.63249969   82.92189789    1.13000000    2.64000010
   15.63333321   86.55460358    1.00000000    2.64000010
   15.63666630   82.36930084    1.00000000    2.64000010
   15.64000034   85.40529633    0.98000002    2.64000010
   15.64305496   92.06710052    0.98000002    2.64000010
   15.64638901   85.40170288    1.00000000    2.64000010
   15.65222168   85.40170288    1.00000000    2.64000010
   15.65638828   86.71980286    0.81999999    2.64000010
   15.65972137   89.95089722    0.80000001    2.66000009
   15.66277695   86.91500092    0.79000002    2.64000010
   15.66583252   90.91929626    0.79000002    2.64000010
   15.66638851   91.28420258    0.79000002    2.64000010
   15.66972256   92.71820068    0.79000002    2.66000009
   15.67305565   91.70860291    0.76999998    2.64000010
   15.67611122   93.37609863    0.75000000    2.64000010
   15.67944431   94.75260162    0.75000000    2.64000010
   15.68249989   92.41770172    0.75000000    2.64000010
   15.68583298   89.21549988    0.75000000    2.64000010
   15.68916702   94.52539825    0.83999997    2.64000010
   15.69527817   94.52539825    1.16999996    2.66000009
   15.69916630   87.63629913    3.14000010    2.55999994
   15.70249939   94.83910370    3.99000001    2.57999992
   15.70583344   90.88030243    2.94000006    2.59999990
   15.70888901   91.02429962    2.48000002    2.61999989
   15.71222210   92.31649780    2.07999992    2.64000010
   15.71555519   88.71869659    1.66999996    2.61999989
   15.71861076   84.06400299    1.63000000    2.64000010
   15.72194386   88.89499664    1.76999998    2.64000010
   15.72499943   89.48300171    1.34000003    2.64000010
   15.72833252   89.96990204    1.09000003    2.64000010
   15.73166656   87.23500061    1.05999994    2.64000010
   15.73249912   88.84079742    1.07000005    2.64000010
   15.73805618   88.84079742    1.53999996    2.64000010
   15.74222279   86.05850220    1.63000000    2.64000010
   15.74527836   89.54470062    1.55999994    2.64000010
   15.74861145   87.80210114    1.63000000    2.66000009
   15.75194454   85.49649811    1.71000004    2.64000010
   15.75500011   93.32849884    1.58000004    2.61999989
   15.75833321   87.71289825    1.50000000    2.64000010
   15.76138878   93.17939758    1.36000001    2.64000010
   15.76472187   90.73380280    1.34000003    2.64000010
   15.76583290   91.00070190    1.34000003    2.64000010
   15.76833344   93.55940247    1.30999994    2.64000010
   15.77166653   92.42970276    1.23000002    2.64000010
   15.77499962   94.87930298    1.30999994    2.64000010
   15.78083324   94.87930298    1.33000004    2.64000010
   15.78500080   92.26830292    2.26999998    2.61999989
   15.78833389   90.91860199    2.57999992    2.64000010
   15.79138947   95.27539825    1.50000000    2.61999989
   15.79472256   87.07959747    1.38000000    2.64000010
   15.79777813   88.06929779    1.11000001    2.66000009
   15.79916668   88.81529999    1.11000001    2.66000009
   15.80138874   91.50099945    1.98000002    2.64000010
   15.80472279   91.56330109    2.03999996    2.61999989
   15.80805588   90.79869843    1.86000001    2.61999989
   15.81111145   85.80549622    1.16999996    2.64000010
   15.81444454   88.51580048    1.05999994    2.64000010
   15.81777763   92.12760162    0.98000002    2.64000010
   15.82361126   92.12760162    0.92000002    2.64000010
   15.82777786   87.13860321    0.89999998    2.66000009
   15.83111095   90.89900208    0.89999998    2.66000009
   15.83249950   89.74320221    0.92000002    2.66000009
   15.83444405   86.20369720    1.19000006    2.66000009
   15.83777714   92.56359863    1.16999996    2.66000009
   15.84111118   88.15470123    1.00000000    2.67000008
   15.84444427   91.34480286    0.94000000    2.64000010
   15.84777737   91.93080139    0.94000000    2.64000010
   15.85083389   84.85420227    0.94000000    2.64000010
   15.85416698   83.42250061    0.86000001    2.66000009
   15.85750008   83.71440125    0.83999997    2.64000010
   15.86055565   84.69570160    0.88000000    2.66000009
   15.86666679   84.69570160    0.76999998    2.66000009
   15.87055588   95.49720001    0.80000001    2.66000009
   15.87388897   90.97109985    0.80000001    2.66000009
   15.87722206   86.95240021    0.81999999    2.64000010
   15.88027763   84.38449860    0.86000001    2.66000009
   15.88361073   90.90740204    0.95999998    2.64000010
   15.88694477   91.27639771    0.98000002    2.67000008
   15.89000034   88.62640381    0.88000000    2.67000008
   15.89333344   88.24320221    0.88000000    2.67000008
   15.89638901   83.12539673    0.88000000    2.66000009
   15.89916611   90.12699890    0.88000000    2.67000008
   15.89999962   89.89119720    0.88000000    2.67000008
   15.90333271   86.63150024    0.89999998    2.67000008
   15.90944386   86.63150024    0.89999998    2.66000009
   15.91361046   84.54229736    1.05999994    2.64000010
   15.91666698   91.87190247    1.09000003    2.64000010
   15.92000008   94.21520233    1.03999996    2.66000009
   15.92333412   94.11859894    0.89999998    2.66000009
   15.92638874   95.21620178    1.11000001    2.64000010
   15.92972279   87.47740173    2.55999994    2.64000010
   15.93249989   88.04959869    2.93000007    2.61999989
   15.93333340   87.63120270    3.11999989    2.59999990
   15.93666649   89.90599823    3.21000004    2.59999990
   15.94000053   84.00930023    4.11999989    2.57999992
   15.94305515   89.65640259    4.30999994    2.59999990
   15.94638920   90.88860321    4.26000023    2.55999994
   15.95222187   90.88860321    2.94000006    2.53999996
   15.95638847   82.33899689    2.48000002    2.59999990
   15.95972157   83.58219910    2.59999990    2.61999989
   15.96277714   80.44259644    2.51999998    2.64000010
   15.96583271   81.71320343    3.20000005    2.64000010
   15.96638870   81.56569672    3.20000005    2.64000010
   15.96972179   85.84980011    1.60000002    2.66000009
   15.97305489   79.16230011    1.30999994    2.64000010
   15.97611046   86.88330078    1.13000000    2.64000010
   15.97944355   90.56439972    1.03999996    2.66000009
   15.98277760   85.68399811    1.07000005    2.66000009
   15.98583317   88.94519806    0.98000002    2.67000008
   15.98916721   91.19550323    1.13000000    2.67000008
   15.99499989   91.19550323    2.46000004    2.66000009
   15.99916649   89.89510345    2.13000011    2.66000009
   16.00250053   90.87840271    1.73000002    2.64000010
   16.00555611   79.34490204    2.26999998    2.64000010
   16.00888824   85.49189758    2.07999992    2.64000010
   16.01222229   82.26419830    1.78999996    2.64000010
   16.01527786   90.40019989    1.23000002    2.64000010
   16.01861000   88.28369904    1.25000000    2.66000009
   16.02194405   88.77680206    4.13999987    2.57999992
   16.02499962   84.84459686    4.90999985    2.32999992
   16.02833366   85.09010315    4.90999985    2.48000002
   16.03138924   82.25579834    4.90999985    2.55999994
   16.03249931   86.40650177    4.63999987    2.57999992
   16.03805542   86.40650177    2.57999992    2.66000009
   16.04194450   83.72509766    2.42000008    2.66000009
   16.04527664   88.31400299    3.61999989    2.67000008
   16.04861069   75.58750153    4.30999994    2.64000010
   16.05166626   97.44719696    4.90999985    2.59999990
   16.05499840   82.18630219    4.65999985    2.57999992
   16.05833244   92.90640259    4.90999985    2.50000000
   16.06138802   92.44589996    4.90999985    2.59999990
   16.06472206   91.86119843    3.70000005    2.61999989
   16.06583214   93.45570374    3.01999998    2.66000009
   16.06833458   90.05139923    3.05999994    2.67000008
   16.07139015   84.95800018    2.61999989    2.67000008
   16.07472229   90.03350067    2.21000004    2.67000008
   16.08083344   90.03350067    1.16999996    2.67000008
   16.08500099   78.92250061    0.83999997    2.67000008
   16.08805656   81.79750061    1.66999996    2.66000009
   16.09138870   83.13729858    0.75000000    2.67000008
   16.09472275   81.46929932    0.83999997    2.67000008
   16.09777832   83.28790283    1.01999998    2.67000008
   16.09916687   87.06269836    1.21000004    2.67000008
   16.10166740   86.00879669    1.21000004    2.67000008
   16.10472298   81.11630249    4.53999996    2.59999990
   16.10805511   82.62760162    4.44999981    2.67000008
   16.11111069   82.22489929    3.99000001    2.67000008
   16.11444473   85.81020355    2.98000002    2.67000008
   16.11777878   84.04149628    2.39000010    2.67000008
   16.12361145   84.04149628    4.90999985    2.53999996
   16.12777710  118.98500061    4.90999985    2.00000000
   16.13111115  108.92299652    4.90999985    2.23000002
   16.13249969  168.27699280    4.90999985    2.21000004
   16.13472176  138.34199524    4.90999985    2.09999990
   16.13777733  173.47900391    4.90999985    1.96000004
   16.14111137  107.63500214    4.90999985    1.94000006
   16.14416695  100.65200043    4.90999985    2.15000010
   16.14749908   87.89050293    4.90999985    2.42000008
   16.15083313   88.40940094    4.90999985    2.64000010
   16.15388870   84.45770264    4.90999985    2.64000010
   16.15722275   96.21109772    4.90999985    2.57999992
   16.16055489   81.20220184    4.90999985    2.67000008
   16.16638756   81.20220184    4.90999985    1.71000004
   16.17055511   86.98629761    4.90999985    2.69000006
   16.17388916   91.69480133    4.90999985    2.55999994
   16.17694473   87.11090088    4.90999985    2.64000010
   16.18027687  260.67401123    4.90999985    2.30999994
   16.18361092  110.89299774    4.90999985    1.89999998
   16.18666649   80.94429779    4.90999985    2.32999992
   16.18999863   96.54730225    4.90999985    2.59999990
   16.19333267   84.18260193    4.90999985    2.48000002
   16.19638824   99.97699738    4.90999985    2.40000010
   16.19916534  358.24499512    4.90999985    2.23000002
   16.20027924   -1.00000000    4.90999985    2.26999998
   16.20333481  107.36900330    4.90999985    1.44000006
   16.20916748  107.36900330    4.90999985    2.61999989
   16.21333504   91.21800232    4.51000023    2.59999990
   16.21666718   86.58239746    1.94000006    2.67000008
   16.22000122   80.61560059    1.01999998    2.66000009
   16.22305679   86.98770142    0.76999998    2.66000009
   16.22638893   78.13430023    0.73000002    2.66000009
   16.22972298   79.19539642    0.67000002    2.66000009
   16.23250008   83.33989716    0.64999998    2.66000009
   16.23333359   85.06610107    0.67000002    2.66000009
   16.23638916   76.74169922    0.64999998    2.67000008
   16.23972321   82.80950165    0.63000000    2.66000009
   16.24305534   88.01909637    0.67000002    2.67000008
   16.24611092   90.68820190    0.67000002    2.66000009
   16.25222206   90.68820190    0.81999999    2.67000008
   16.25638962   83.00700378    0.75000000    2.67000008
   16.25944519   84.43399811    0.67000002    2.67000008
   16.26277733   86.99890137    0.69000000    2.66000009
   16.26583290   76.68679810    0.70999998    2.67000008
   16.26638794   80.01609802    0.70999998    2.67000008
   16.26944351   90.22969818    0.70999998    2.67000008
   16.27277756   84.56430054    0.51999998    2.67000008
   16.27611160   83.97119904    0.51999998    2.67000008
   16.27916718   84.12300110    0.52999997    2.67000008
   16.28249931   77.30239868    0.52999997    2.67000008
   16.28555489   83.46820068    0.64999998    2.67000008
   16.28888893   85.07980347    0.67000002    2.67000008
   16.29500008   85.07980347    0.95999998    2.66000009
   16.29916573   82.89140320    0.75000000    2.67000008
   16.29972076   84.67839813    0.75000000    2.67000008
   16.31916809   85.50070190    0.56999999    2.67000008
   16.32250023   90.05079651    0.58999997    2.67000008
   16.32555580   89.50810242    0.58999997    2.67000008
   16.32888985   82.01249695    0.58999997    2.67000008
   16.33222389   83.86470032    1.00000000    2.67000008
   16.33277893   81.20159912    1.28999996    2.67000008
   16.33805656   81.20159912    1.34000003    2.67000008
   16.34222221   85.16480255    1.28999996    2.67000008
   16.34555626   84.37830353    1.25000000    2.67000008
   16.34861183   83.99420166    1.05999994    2.67000008
   16.35194397   84.72409821    1.26999998    2.67000008
   16.35527802   80.73609924    1.30999994    2.66000009
   16.35833359   78.82389832    1.23000002    2.66000009
   16.36166763   84.38549805    1.36000001    2.66000009
   16.36472321   83.82599640    1.39999998    2.66000009
   16.36611176   79.56349945    1.39999998    2.66000009
   16.36833382   82.41619873    1.48000002    2.66000009
   16.37166595   85.48439789    1.83000004    2.66000009
   16.37500000   85.44789886    1.80999994    2.64000010
   16.38083267   85.44789886    2.09999990    2.66000009
   16.38500023   77.07330322    2.96000004    2.59999990
   16.38833237   94.66020203    4.84999990    2.51999998
   16.39166641   95.24880219    4.90999985    2.55999994
   16.39472198   85.82440186    4.90999985    2.53999996
   16.39805603   79.97059631    4.90999985    2.53999996
   16.39944458   79.65550232    4.90999985    2.53999996
   16.40166664   79.45240021    4.90999985    2.55999994
   16.40499878   82.99710083    4.90999985    2.61999989
   16.40833282   90.80780029    4.38999987    2.61999989
   16.41138840   90.98329926    4.90999985    2.55999994
   16.41472244   82.84970093    4.90999985    2.48000002
   16.41777802   86.29949951    4.90999985    2.51999998
   16.42388916   86.29949951    4.90999985    2.55999994
   16.42805481   88.81379700    4.90999985    2.53999996
   16.43111038   93.56289673    4.90999985    2.46000004
   16.43277740   91.05789948    4.90999985    2.44000006
   16.43472099  104.48000336    4.90999985    2.44000006
   16.43805504   89.33270264    4.90999985    2.28999996
   16.44138718   92.26609802    4.90999985    2.44000006
   16.44444275   93.79879761    4.90999985    2.30999994
   16.44777679  153.85400391    4.90999985    2.13000011
   16.45083427  136.02299500    4.90999985    2.01999998
   16.45416832  207.10800171    4.90999985    1.83000004
   16.45750046  150.35899353    4.90999985    1.76999998
   16.46055603  104.12999725    4.90999985    2.00000000
   16.46666718  104.12999725    4.90999985    2.30999994
   16.47083473  109.81999969    4.90999985    2.28999996
   16.47389030  114.29699707    4.90999985    2.26999998
   16.47722244  116.65799713    4.90999985    2.05999994
   16.48055649  217.29899597    4.90999985    1.94000006
   16.48361206  123.60900116    4.90999985    1.96000004
   16.48694420  213.74000549    4.90999985    2.15000010
   16.49027824  181.79499817    4.90999985    1.89999998
   16.49333382  141.46000671    4.90999985    1.83000004
   16.49666786  112.37899780    4.90999985    1.94000006
   16.49944496  108.40000153    4.90999985    2.19000006
   16.50027847  104.00299835    4.90999985    2.23000002
   16.50361061   90.65720367    4.90999985    2.36999989
   16.50944519   90.65720367    4.90999985    2.59999990
   16.51361084   94.35140228    4.86999989    2.59999990
   16.51694489   92.61270142    4.48999977    2.59999990
   16.52000046   94.90350342    4.90999985    2.55999994
   16.52333260  120.94899750    4.90999985    2.21000004
   16.52638817  221.40299988    4.90999985    1.73000002
   16.52972221  116.80599976    4.90999985    1.25000000
   16.53277779   90.76059723    4.90999985    2.26999998
   16.53333282   87.58799744    4.90999985    2.32999992
   16.53666687   93.09140015    4.90999985    2.36999989
   16.53999901   97.71720123    4.90999985    2.40000010
   16.54305458   89.43820190    4.90999985    2.51999998
   16.54638863   92.35040283    4.90999985    2.53999996
   16.55222130   92.35040283    4.90999985    2.51999998
   16.55638885   79.94930267    4.90999985    2.51999998
   16.55972099   90.38690186    4.90999985    2.32999992
   16.56277657  103.79199982    4.90999985    2.21000004
   16.56611061   94.87069702    4.90999985    2.01999998
   16.56638718   82.44899750    4.90999985    2.23000002
   16.56972313  102.66600037    4.90999985    2.32999992
   16.57305717   98.30799866    4.90999985    2.40000010
   16.57611275   92.40299988    4.90999985    2.44000006
   16.57944489   90.79959869    4.90999985    2.46000004
   16.58250046   92.88210297    4.90999985    2.44000006
   16.58583450   84.54599762    4.90999985    2.40000010
   16.58916664   85.53279877    4.90999985    2.30999994
   16.59527779   85.53279877    4.90999985    2.28999996
   16.59944534   85.68350220    4.90999985    2.39000010
   16.59972191   93.69270325    4.90999985    2.44000006
   16.60305595   86.63269806    4.90999985    2.51999998
   16.60639000   88.54750061    4.90999985    2.55999994
   16.60944557   92.96640015    4.46999979    2.57999992
   16.61277771   89.89600372    4.88999987    2.59999990
   16.61611176   82.38539886    4.90999985    2.50000000
   16.61916733   81.05999756    4.90999985    2.44000006
   16.62249947   98.77760315    4.90999985    2.51999998
   16.62555504   90.86460114    4.90999985    2.40000010
   16.62888908   -1.00000000    4.90999985    2.01999998
   16.63222313   86.45590210    4.90999985    1.64999998
   16.63277817   86.35659790    4.90999985    2.01999998
   16.63805580   86.35659790    4.82999992    2.61999989
   16.64222145   95.45169830    4.90999985    2.61999989
   16.64527702   82.47360229    4.90999985    2.55999994
   16.64861107   95.96910095    4.90999985    2.57999992
   16.65194321   89.75039673    4.90999985    2.57999992
   16.65499878   84.66809845    4.90999985    2.48000002
   16.65833282   89.76000214    4.90999985    2.44000006
   16.66138840   82.97859955    4.90999985    2.44000006
   16.66472244   92.29080200    4.90999985    2.53999996
   16.66611099   89.85489655    4.90999985    2.51999998
   16.66833305   88.88939667    4.80999994    2.64000010
   16.67166519   81.03500366    3.93000007    2.61999989
   16.67499924   90.40249634    4.90999985    2.51999998
   16.68083191   90.40249634    4.90999985    2.42000008
   16.68499947   91.23960114    4.90999985    2.39000010
   16.68833160  126.95099640    4.90999985    2.00000000
   16.69138718   86.58599854    4.90999985    2.05999994
   16.69472122   81.24109650    4.90999985    2.48000002
   16.69805527   82.18470001    4.88999987    2.57999992
   16.69944382   83.56770325    4.80000019    2.55999994
   16.70138931   87.90100098    3.86999989    2.59999990
   16.70472336   82.04679871    1.94000006    2.66000009
   16.70805550   77.04250336    1.71000004    2.66000009
   16.71111107   80.35220337    1.48000002    2.67000008
   16.71444511   85.29250336    1.75000000    2.67000008
   16.71777916   87.74469757    2.09999990    2.66000009
   16.72361183   87.74469757    2.86999989    2.66000009
   16.72777748   81.06860352    4.26000023    2.53999996
   16.73111153   99.45339966    4.90999985    2.46000004
   16.73277855   85.49169922    4.90999985    2.46000004
   16.73444557   82.73680115    4.90999985    2.48000002
   16.73777771   97.00440216    3.95000005    2.59999990
   16.74111176  109.17600250    4.88999987    2.59999990
   16.74416733  113.61299896    4.90999985    2.48000002
   16.74749947  134.95100403    4.90999985    2.25000000
   16.75083351  111.63899994    4.90999985    1.86000001
   16.75388908  271.71701050    4.90999985    1.86000001
   16.75722313  214.78199768    4.90999985    2.09999990
   16.76027870   98.51589966    4.90999985    1.98000002
   16.76666641   98.51589966    4.90999985    2.55999994
   16.77055550   81.38430023    4.90999985    2.55999994
   16.77388954   74.97840118    4.90999985    2.55999994
   16.77722168   96.30090332    4.90999985    2.55999994
   16.78027725   85.76789856    4.90999985    2.57999992
   16.78361130   86.39730072    4.11999989    2.59999990
   16.78694344   83.66999817    4.26000023    2.51999998
   16.78999901   89.88590240    4.90999985    2.55999994
   16.79333305   83.76439667    4.90999985    2.51999998
   16.79638863   42.59600067    4.90999985    2.32999992
   16.79944420  164.16600037    4.90999985    1.50000000
   16.79999924  189.47799683    4.90999985    1.55999994
   16.80333328  113.26200104    4.90999985    2.01999998
   16.80944443  113.26200104    4.90999985    2.46000004
   16.81361008   99.06990051    4.90999985    2.50000000
   16.81666756   92.88729858    4.48999977    2.57999992
   16.82000160   98.75920105    4.90999985    2.59999990
   16.82305717   83.91079712    4.90999985    2.42000008
   16.82638931  156.47599792    4.90999985    1.80999994
   16.82972336   88.91110229    4.90999985    2.05999994
   16.83277893   82.90910339    4.90999985    2.59999990
   16.83305550   95.89630127    4.76000023    2.64000010
   16.83638954   82.96929932    4.32999992    2.66000009
   16.83972359   92.30010223    1.64999998    2.67000008
   16.84277916   89.22859955    1.11000001    2.66000009
   16.84611130   89.49340057    0.92000002    2.66000009
   16.85222244   89.49340057    0.88000000    2.66000009
   16.85639000   80.06610107    0.79000002    2.66000009
   16.85972214   89.96340179    0.76999998    2.67000008
   16.86277771   90.65149689    1.16999996    2.66000009
   16.86611176   80.69059753    1.23000002    2.66000009
   16.86638832   84.94210052    1.23000002    2.66000009
   16.86972237   77.29029846    1.58000004    2.66000009
   16.87305641   80.00900269    2.28999996    2.66000009
   16.87611198   85.12850189    2.32999992    2.67000008
   16.87944412   85.13770294    2.51999998    2.67000008
   16.88277817   82.09940338    1.60000002    2.67000008
   16.88583374   80.02300262    1.23000002    2.67000008
   16.88916588   85.64830017    1.25000000    2.66000009
   16.89500046   85.64830017    1.88000000    2.66000009
   16.89916611   82.27709961    4.90999985    2.55999994
   16.89972115   90.82949829    4.90999985    2.55999994
   16.90305519   89.10269928    4.76000023    2.53999996
   16.90638924   91.75820160    4.13999987    2.59999990
   16.90944481   84.81670380    4.05999994    2.61999989
   16.91277695   82.30590057    1.75000000    2.66000009
   16.91583252   85.04060364    1.53999996    2.66000009
   16.91916656   88.22799683    1.91999996    2.66000009
   16.92249870   79.86440277    2.21000004    2.61999989
   16.92555428   91.33959961    3.61999989    2.55999994
   16.92888832   84.36129761    3.32999992    2.55999994
   16.93222237   81.03119659    3.32999992    2.55999994
   16.93305397   75.25430298    2.71000004    2.64000010
   16.93805504   75.25430298    0.92000002    2.67000008
   16.94194412   76.91419983    0.88000000    2.66000009
   16.94527626   86.47280121    0.86000001    2.66000009
   16.94861031   78.64859772    0.86000001    2.66000009
   16.95166779   84.01239777    0.86000001    2.66000009
   16.95499992   79.67050171    0.80000001    2.66000009
   16.95833397   88.58719635    0.95999998    2.67000008
   16.96138954   84.87760162    0.95999998    2.67000008
   16.96472359   83.29609680    1.16999996    2.66000009
   16.96638870   83.20770264    1.30999994    2.66000009
   16.96833420   85.00489807    0.92000002    2.66000009
   16.97166634   83.46070099    0.88000000    2.67000008
   16.97472191   77.52189636    0.88000000    2.67000008
   16.98083305   77.52189636    0.52999997    2.67000008
   16.98500061   76.06880188    0.52999997    2.67000008
   16.98805618   87.55560303    0.50000000    2.67000008
   16.99138832   85.61540222    0.50000000    2.67000008
   16.99472237   87.66249847    0.50000000    2.66000009
   16.99777794   86.11840057    0.50000000    2.67000008
   16.99972153   80.76909637    0.50000000    2.67000008
   17.00138855   79.19000244    0.47999999    2.67000008
   17.00472260   76.97920227    0.50000000    2.67000008
   17.00777817   80.99669647    0.52999997    2.67000008
   17.01111031   88.08920288    0.47999999    2.67000008
   17.01416588   86.30950165    0.50000000    2.67000008
   17.01749992   74.04900360    0.51999998    2.67000008
   17.02361107   74.04900360    0.52999997    2.67000008
   17.02777672   82.11039734    0.51999998    2.67000008
   17.03111076   83.65329742    0.51999998    2.67000008
   17.03305435   80.98490143    0.50000000    2.67000008
   17.03472137   81.37020111    0.50000000    2.67000008
   17.03805542   86.59149933    0.50000000    2.67000008
   17.04111099   85.87619781    0.50000000    2.67000008
   17.04444313   84.04370117    0.50000000    2.67000008
   17.04749870   86.69830322    0.50000000    2.67000008
   17.05083275   81.87110138    0.47999999    2.67000008
   17.05416679   84.64569855    0.47999999    2.67000008
   17.05722237   75.53600311    0.46000001    2.66000009
   17.06055450   86.02420044    0.46000001    2.66000009
   17.06638718   86.02420044    0.46000001    2.67000008
   17.07055664   79.87519836    0.46000001    2.67000008
   17.07389069   84.77480316    0.46000001    2.66000009
   17.07694626   81.16100311    0.46000001    2.66000009
   17.08027840   85.71150208    0.47999999    2.67000008
   17.08361244   84.29519653    0.47999999    2.66000009
   17.08666801   82.48349762    0.47999999    2.66000009
   17.09000015   81.15090179    0.47999999    2.67000008
   17.09333420   78.78500366    0.50000000    2.67000008
   17.09638977   87.93109894    0.50000000    2.66000009
   17.09972191   79.95120239    0.50000000    2.67000008
   17.10027885   83.42960358    0.50000000    2.67000008
   17.10333443   80.83229828    0.51999998    2.66000009
   17.10944557   80.83229828    0.51999998    2.67000008
   17.11333466   84.62760162    0.56999999    2.67000008
   17.11694527   82.59790039    0.52999997    2.67000008
   17.12000084   84.65720367    0.47999999    2.67000008
   17.12333298   82.39759827    0.47999999    2.67000008
   17.12666702   81.09570313    0.44000000    2.67000008
   17.12972260   83.70130157    0.44000000    2.67000008
   17.13305473   87.62680054    0.46000001    2.66000009
   17.13361168   85.02390289    0.46000001    2.66000009
   17.13666725   74.51629639    0.47999999    2.67000008
   17.13972282   79.89019775    0.46000001    2.67000008
   17.14305496   79.24749756    0.47999999    2.67000008
   17.14638901   82.63439941    0.46000001    2.67000008
   17.15222168   82.63439941    0.46000001    2.67000008
   17.15638924   76.38099670    0.44000000    2.67000008
   17.15944481   82.57869720    0.44000000    2.67000008
   17.16277695   85.89959717    0.44000000    2.67000008
   17.16583252   83.45359802    0.44000000    2.67000008
   17.16694450   76.42410278    0.44000000    2.66000009
   17.16972160   78.26719666    0.44000000    2.66000009
   17.17277718   75.70330048    0.46000001    2.67000008
   17.17611122   88.67579651    0.46000001    2.66000009
   17.17944336   83.94170380    0.47999999    2.67000008
   17.18249893   83.66989899    0.51999998    2.67000008
   17.18583298   83.83090210    0.55000001    2.67000008
   17.18888855   78.59290314    0.56999999    2.66000009
   17.19499969   78.59290314    0.52999997    2.67000008
   17.19916534   79.85169983    0.52999997    2.67000008
   17.20027924   80.47460175    0.56999999    2.66000009
   17.20277786   81.64920044    0.55000001    2.66000009
   17.20583344   80.87400055    0.52999997    2.66000009
   17.20916748   82.42269897    0.52999997    2.67000008
   17.21250153   78.09570313    0.52999997    2.67000008
   17.21555710   83.37899780    0.52999997    2.67000008
   17.21888924   81.58489990    0.58999997    2.67000008
   17.22194481   79.51200104    0.55000001    2.66000009
   17.22527885   84.13960266    0.52999997    2.66000009
   17.22861099   85.94809723    0.55000001    2.67000008
   17.23166656   79.51029968    0.56999999    2.67000008
   17.23361206   77.60160065    0.52999997    2.67000008
   17.23777771   77.60160065    0.51999998    2.66000009
   17.24194527   79.72640228    0.51999998    2.66000009
   17.24527740   81.40910339    0.51999998    2.66000009
   17.24833298   76.67209625    0.51999998    2.66000009
   17.25166702   79.45749664    0.52999997    2.67000008
   17.25499916   76.95030212    0.61000001    2.66000009
   17.25805473   74.83969879    0.70999998    2.66000009
   17.26138878   81.83820343    0.70999998    2.67000008
   17.26444435   76.77349854    0.70999998    2.67000008
   17.26694489   76.63870239    0.70999998    2.66000009
   17.26833344   82.00969696    0.69000000    2.67000008
   17.27138901   79.50520325    0.70999998    2.67000008
   17.27472115   78.36009979    0.67000002    2.66000009
   17.28055573   78.36009979    0.75000000    2.67000008
   17.28472137   76.38240051    0.70999998    2.66000009
   17.28805542   77.33860016    0.73000002    2.66000009
   17.29138756   77.53469849    0.94000000    2.64000010
   17.29444313   85.40570068    0.98000002    2.67000008
   17.29777718   80.98639679    1.13000000    2.66000009
   17.30027771   77.25939941    1.19000006    2.67000008
   17.30138779   80.02660370    1.16999996    2.66000009
   17.30444336   75.95130157    1.14999998    2.66000009
   17.30777740   73.87899780    1.14999998    2.67000008
   17.31083298   79.64440155    1.05999994    2.66000009
   17.31416512   77.05249786    1.05999994    2.66000009
   17.31750107   83.62229919    0.86000001    2.66000009
   17.34000015   83.62229919    1.39999998    2.64000010
   17.34416771   82.15219879    1.61000001    2.64000010
   17.34722328   81.99490356    1.53999996    2.64000010
   17.35055542   83.23139954    1.69000006    2.64000010
   17.35388947   86.54599762    2.17000008    2.64000010
   17.35694504   85.40779877    2.28999996    2.64000010
   17.36027908   80.81900024    2.69000006    2.64000010
   17.36333466   83.48210144    2.71000004    2.64000010
   17.36666679   83.02030182    4.03999996    2.61999989
   17.37000084   78.85630035    2.96000004    2.64000010
   17.37083435   87.68299866    3.48000002    2.61999989
   17.37333298   87.95970154    3.30999994    2.64000010
   17.37666702   90.52519989    3.45000005    2.64000010
   17.38277817   90.52519989    4.78000021    2.59999990
   17.38694382   82.98860168    4.80999994    2.59999990
   17.38999939   79.14409637    4.90999985    2.59999990
   17.39333344   79.06349945    4.90999985    2.57999992
   17.39666748   -1.00000000    4.90999985    2.59999990
   17.39972115   -1.00000000    3.97000003    2.61999989
   17.40305519   88.40740204    4.86999989    2.59999990
   17.40416718   90.37490082    4.28999996    2.61999989
   17.40666580   88.66680145    4.19999981    2.61999989
   17.40972137   88.21569824    4.90999985    2.59999990
   17.41305542   86.83809662    4.26999998    2.59999990
   17.41611099   92.94750214    3.99000001    2.61999989
   17.41944313   83.93530273    4.05999994    2.61999989
   17.42555428   83.93530273    3.64000010    2.61999989
   17.42972183   86.39230347    4.73999977    2.59999990
   17.43277740   87.32150269    4.13999987    2.61999989
   17.43610954   79.18250275    4.80999994    2.59999990
   17.43777657   83.11219788    4.61999989    2.59999990
   17.43972206   80.97270203    4.80000019    2.61999989
   17.44305420   87.81449890    4.90999985    2.59999990
   17.44610977   -1.00000000    4.67999983    2.59999990
   17.44944382   -1.00000000    4.90999985    2.59999990
   17.45277786   83.53690338    4.55999994    2.59999990
   17.45583344   89.09140015    4.57999992    2.59999990
   17.45916748   89.73500061    4.44999981    2.59999990
   17.46250153   85.36869812    4.57999992    2.59999990
   17.46833420   85.36869812    4.90999985    2.59999990
   17.47249985   82.90609741    4.90999985    2.59999990
   17.47583389   75.23930359    4.90999985    2.57999992
   17.47888947   73.88970184    4.90999985    2.59999990
   17.48222351   72.26529694    4.90999985    2.57999992
   17.48555565   78.50319672    3.28999996    2.61999989
   17.48861122   78.84369659    4.03999996    2.61999989
   17.49194527   76.48979950    4.00000000    2.61999989
   17.49527740   -1.00000000    3.34999990    2.64000010
   17.49833298   -1.00000000    4.05999994    2.61999989
   17.50166702   85.57309723    4.15999985    2.59999990
   17.50444412   88.53540039    4.90999985    2.59999990
   17.50527763   83.37570190    4.53999996    2.59999990
   17.51138878   83.37570190    3.78999996    2.61999989
   17.51527786   87.13169861    4.28999996    2.61999989
   17.51861000   87.75830078    4.53999996    2.59999990
   17.52194405   73.80770111    4.36999989    2.61999989
   17.52499962   76.09670258    4.67999983    2.59999990
   17.52833366   86.99030304    4.90999985    2.57999992
   17.53138924   88.25640106    4.90999985    2.59999990
   17.53472137   80.90219879    3.43000007    2.61999989
   17.53777695   79.77629852    2.26999998    2.64000010
   17.53833199   80.48069763    1.83000004    2.64000010
   17.54166603   81.66230011    1.64999998    2.64000010
   17.54472160   -1.00000000    1.41999996    2.64000010
   17.54805565   -1.00000000    1.01999998    2.64000010
   17.55416679   -1.00000000    1.36000001    2.64000010
   17.55833244   87.44869995    1.25000000    2.64000010
   17.56138802   82.89070129    1.83000004    2.64000010
   17.56472206   80.93180084    2.05999994    2.64000010
   17.56777954   86.68419647    1.89999998    2.64000010
   17.57111168   86.76119995    1.94000006    2.64000010
   17.57139015   83.62139893    1.94000006    2.64000010
   17.57472229   79.86699677    1.98000002    2.64000010
   17.57777786   82.03040314    1.89999998    2.64000010
   17.58111191   80.69270325    1.88000000    2.64000010
   17.58444595   86.25029755    1.60000002    2.66000009
   17.58777809   80.02839661    2.17000008    2.64000010
   17.59083366   83.39839935    2.32999992    2.64000010
   17.60111237   -1.00000000    1.89999998    2.64000010
   17.60416794   87.93160248    2.13000011    2.64000010
   17.60472298   87.39839935    2.11999989    2.64000010
   17.60805511   81.52960205    2.42000008    2.64000010
   17.61111069   84.98919678    2.28999996    2.64000010
   17.61444473   82.20880127    2.40000010    2.64000010
   17.61777878   82.49520111    2.21000004    2.64000010
   17.62083435   79.84230042    2.36999989    2.61999989
   17.62416649   88.82800293    2.25000000    2.64000010
   17.62750053   81.91609955    2.48000002    2.64000010
   17.63055611   79.88030243    2.61999989    2.61999989
   17.63388824   87.08149719    2.32999992    2.64000010
   17.63972282   87.08149719    1.89999998    2.64000010
   17.64388847   -1.00000000    2.23000002    2.64000010
   17.64722252   -1.00000000    2.34999990    2.64000010
   17.65027809   -1.00000000    2.48000002    2.64000010
   17.65361023   86.65039825    2.66000009    2.64000010
   17.65694427   75.01760101    2.69000006    2.64000010
   17.65999985   81.59359741    2.84999990    2.61999989
   17.66333389   81.34320068    3.23000002    2.61999989
   17.66638756   83.15409851    3.39000010    2.61999989
   17.66972160   76.41339874    2.64000010    2.64000010
   17.67138863   74.56349945    2.26999998    2.64000010
   17.67333221   72.85739899    2.25000000    2.64000010
   17.67638779   81.21800232    2.57999992    2.61999989
   17.68249893   81.21800232    3.16000009    2.61999989
   17.68666649   85.26740265    3.03999996    2.61999989
   17.68999863   -1.00000000    3.41000009    2.61999989
   17.69333267   -1.00000000    3.28999996    2.61999989
   17.69638824   -1.00000000    2.13000011    2.64000010
   17.69972038   -1.00000000    3.16000009    2.61999989
   17.70277786   -1.00000000    3.03999996    2.64000010
   17.70472336   82.57150269    2.98000002    2.61999989
   17.70666695   79.90670013    2.55999994    2.64000010
   17.70972252   89.79309845    2.30999994    2.64000010
   17.71305656   82.75710297    2.32999992    2.64000010
   17.71638870   84.47489929    2.59999990    2.61999989
   17.71944427   89.54139709    3.20000005    2.61999989
   17.72555542   89.54139709    4.80000019    2.59999990
   17.72972298   83.88809967    4.90999985    2.57999992
   17.73277855   79.14250183    4.90999985    2.53999996
   17.73611069   88.35929871    4.90999985    2.55999994
   17.73972321   -1.00000000    4.90999985    2.57999992
   17.74277878   -1.00000000    4.90999985    2.57999992
   17.74611092   -1.00000000    4.90999985    2.55999994
   17.74944496   -1.00000000    4.90999985    2.55999994
   17.75250053   -1.00000000    4.90999985    2.55999994
   17.75583267   86.81159973    4.90999985    2.57999992
   17.75888824   77.90110016    4.90999985    2.55999994
   17.76222229   91.19920349    4.90999985    2.55999994
   17.76833344   91.19920349    4.90999985    2.55999994
   17.77249908   86.29589844    4.90999985    2.51999998
   17.77555466   73.71160126    4.90999985    2.59999990
   17.77888870   85.98259735    4.09999990    2.61999989
   17.78222275   82.65229797    3.48000002    2.59999990
   17.78527641   80.30580139    2.84999990    2.61999989
   17.78861046   -1.00000000    3.53999996    2.59999990
   17.79194450   -1.00000000    3.53999996    2.61999989
   17.79500008   -1.00000000    3.32999992    2.61999989
   17.79833221   -1.00000000    2.66000009    2.61999989
   17.80166626   -1.00000000    2.30999994    2.64000010
   17.80472183   85.41259766    2.26999998    2.61999989
   17.80527687   84.82810211    2.40000010    2.64000010
   17.81110954   84.82810211    2.78999996    2.61999989
   17.81527710   81.87689972    3.93000007    2.59999990
   17.81861115   89.01789856    3.89000010    2.59999990
   17.82166672   85.54080200    3.51999998    2.59999990
   17.82500076   88.64569855    3.21000004    2.59999990
   17.82833481   75.30460358    3.95000005    2.59999990
   17.83139038   72.85040283    2.61999989    2.61999989
   17.83472252   80.69909668    2.86999989    2.61999989
   17.83777809   -1.00000000    4.05999994    2.55999994
   17.84166718   -1.00000000    4.01999998    2.59999990
   17.84472275   -1.00000000    4.86999989    2.59999990
   17.84805679   -1.00000000    4.90999985    2.57999992
   17.85388947   -1.00000000    4.90999985    2.55999994
   17.85805511   79.30599976    4.88999987    2.57999992
   17.86138916   91.32510376    4.88999987    2.57999992
   17.86472321   87.32839966    4.90999985    2.57999992
   17.86777878   81.45410156    4.90999985    2.55999994
   17.87111092   92.19850159    4.90999985    2.53999996
   17.87166595   90.63230133    4.90999985    2.55999994
   17.87472153   82.40139771    4.90999985    2.53999996
   17.87805557   76.03050232    4.90999985    2.53999996
   17.88111115   82.52079773    3.00000000    2.59999990
   17.88444519   81.65519714    4.53999996    2.57999992
   17.88777733   84.82289886    4.90999985    2.55999994
   17.89083290   84.40119934    4.90999985    2.55999994
   17.89694405   84.40119934    4.90999985    2.55999994
   17.90111160   80.88069916    4.90999985    2.55999994
   17.90416718   81.39150238    4.90999985    2.57999992
   17.90499878   76.26670074    4.90999985    2.55999994
   17.90777779   78.29689789    4.90999985    2.55999994
   17.91110992   81.87709808    4.90999985    2.55999994
   17.91416550   81.23210144    3.95000005    2.59999990
   17.91749954   81.65360260    4.73999977    2.57999992
   17.92083359   88.05590057    4.26000023    2.57999992
   17.92388916   75.70420074    4.80000019    2.57999992
   17.92722130   81.11820221    4.90999985    2.55999994
   17.93027687   82.07779694    4.90999985    2.55999994
   17.93361092   84.13120270    4.90999985    2.55999994
   17.94361115   -1.00000000    3.75000000    2.59999990
   17.94694328   -1.00000000    3.21000004    2.61999989
   17.95027924   -1.00000000    3.01999998    2.59999990
   17.95333481   -1.00000000    2.64000010    2.61999989
   17.95666695   83.95469666    2.15000010    2.61999989
   17.96000099   77.14710236    2.32999992    2.61999989
   17.96305656   76.19619751    2.09999990    2.61999989
   17.96638870   83.07929993    2.51999998    2.59999990
   17.96944427   82.58270264    2.82999992    2.61999989
   17.97166634   87.60540009    2.84999990    2.59999990
   17.97333336   82.00370026    2.91000009    2.59999990
   17.97666740   76.85870361    2.19000006    2.61999989
   17.98250008   76.85870361    2.01999998    2.61999989
   17.98666763   86.73100281    2.25000000    2.61999989
   17.98999977   82.42289734    1.73000002    2.61999989
   17.99305534   80.55480194    1.88000000    2.61999989
   17.99638939   76.71540070    1.19000006    2.61999989
   17.99972153   80.35710144    1.73000002    2.64000010
   18.00277710   83.89800262    2.19000006    2.61999989
   18.00499916   81.97640228    2.01999998    2.59999990
   18.00638962   86.55180359    2.32999992    2.59999990
   18.00972176   78.09230042    2.59999990    2.59999990
   18.01277733   79.47129822    2.05999994    2.61999989
   18.01611137   81.12010193    2.40000010    2.59999990
   18.01944351   86.52950287    2.28999996    2.61999989
   18.02527809   86.52950287    2.93000007    2.59999990
   18.02944374   80.57910156    3.01999998    2.59999990
   18.03277779   90.23970032    3.43000007    2.59999990
   18.03583336   89.20600128    3.25000000    2.59999990
   18.03944397   -1.00000000    3.09999990    2.59999990
   18.04249954   -1.00000000    3.46000004    2.59999990
   18.04583359   -1.00000000    4.42999983    2.57999992
   18.04916573   -1.00000000    4.90999985    2.55999994
   18.05222130   -1.00000000    4.90999985    2.55999994
   18.05555534   -1.00000000    4.90999985    2.55999994
   18.05861092   -1.00000000    3.95000005    2.59999990
   18.06194305   -1.00000000    2.93000007    2.59999990
   18.07222366   -1.00000000    4.03999996    2.57999992
   18.07555580   -1.00000000    3.43000007    2.59999990
   18.07861137   -1.00000000    3.41000009    2.59999990
   18.08194542   -1.00000000    3.61999989    2.59999990
   18.08527756   -1.00000000    2.69000006    2.59999990
   18.08833313   -1.00000000    3.30999994    2.59999990
   18.09166718   -1.00000000    4.09999990    2.57999992
   18.09500122   -1.00000000    3.48000002    2.59999990
   18.09805679   -1.00000000    2.84999990    2.59999990
   18.10138893   -1.00000000    2.73000002    2.61999989
   18.10444450   -1.00000000    2.25000000    2.59999990
   18.11499977   -1.00000000    2.64000010    2.59999990
   18.11833382   -1.00000000    2.78999996    2.59999990
   18.12166595   -1.00000000    2.89000010    2.59999990
   18.12472153   -1.00000000    2.94000006    2.59999990
   18.12805557   -1.00000000    2.89000010    2.59999990
   18.13138962   -1.00000000    2.05999994    2.61999989
   18.13444519   -1.00000000    2.01999998    2.61999989
   18.13777733   -1.00000000    2.09999990    2.61999989
   18.14138794   -1.00000000    2.39000010    2.59999990
   18.14444351   -1.00000000    2.39000010    2.59999990
   18.14777756   -1.00000000    2.32999992    2.59999990
   18.15805435   -1.00000000    1.75000000    2.61999989
   18.16110992   -1.00000000    1.66999996    2.61999989
   18.16444397   -1.00000000    1.66999996    2.61999989
   18.16777802   -1.00000000    1.55999994    2.61999989
   18.17083359   -1.00000000    1.73000002    2.61999989
   18.17444420   -1.00000000    1.78999996    2.61999989
   18.17749977   -1.00000000    2.00000000    2.59999990
   18.18083191   -1.00000000    2.32999992    2.59999990
   18.18416595   -1.00000000    2.50000000    2.59999990
   18.18722153   -1.00000000    2.13000011    2.59999990
   18.19055557   -1.00000000    2.03999996    2.61999989
   18.20083427   -1.00000000    1.96000004    2.61999989
   18.20416832   -1.00000000    1.48000002    2.61999989
   18.20750046   -1.00000000    1.66999996    2.59999990
   18.21055603   -1.00000000    1.71000004    2.59999990
   18.21389008   -1.00000000    1.71000004    2.59999990
   18.21722221   74.06770325    1.80999994    2.59999990
   18.22027779   89.48999786    1.64999998    2.59999990
   18.22361183   86.60569763    1.85000002    2.61999989
   18.22694588   83.74890137    2.13000011    2.59999990
   18.23000145   86.11260223    1.78999996    2.61999989
   18.23333359   86.76560211    1.91999996    2.59999990
   18.23972321   86.76560211    2.15000010    2.59999990
   18.24361229   88.83969879    2.98000002    2.59999990
   18.24694443   88.43890381    3.28999996    2.57999992
   18.25027847   83.81079865    2.51999998    2.59999990
   18.25333405   84.37480164    2.66000009    2.59999990
   18.25666618   83.70130157    3.55999994    2.57999992
   18.26000023   82.39179993    2.48000002    2.59999990
   18.26305580   79.56999969    2.82999992    2.57999992
   18.26638794   82.20390320    3.55999994    2.57999992
   18.26972198   80.79380035    4.05999994    2.55999994
   18.27194405   85.60820007    3.72000003    2.57999992
   18.27305603   75.70189667    3.41000009    2.57999992
   18.27638817   88.39669800    4.34999990    2.55999994
   18.28249931   88.39669800    4.53000021    2.55999994
   18.28666687   80.61460114    4.46999979    2.55999994
   18.28972244   83.81109619    4.34999990    2.57999992
   18.29305458   80.62899780    2.61999989    2.57999992
   18.29638863   87.48149872    3.82999992    2.57999992
   18.29944420   88.87940216    3.78999996    2.55999994
   18.30277634   82.08039856    3.97000003    2.55999994
   18.30527687   78.55879974    3.43000007    2.59999990
   18.30638885   76.69930267    4.05999994    2.55999994
   18.30972099   77.47579956    3.84999990    2.55999994
   18.31277657   75.35839844    2.44000006    2.59999990
   18.31611061   83.10590363    2.11999989    2.59999990
   18.31944466   88.29640198    3.05999994    2.57999992
   18.32527924   88.29640198    2.61999989    2.59999990
   18.32944489   74.45680237    2.46000004    2.59999990
   18.33277893   77.33110046    2.36999989    2.59999990
   18.33583450   75.71980286    2.11999989    2.59999990
   18.35361099   90.84880066    2.07999992    2.59999990
   18.35583305   89.32219696    2.11999989    2.59999990
   18.35916710   94.62129974    2.23000002    2.59999990
   18.36250114   87.88150024    2.51999998    2.59999990
   18.36833382   87.88150024    2.91000009    2.59999990
   18.37249947   86.75299835    2.66000009    2.59999990
   18.37555504   81.91269684    2.09999990    2.59999990
   18.37888908   77.61720276    1.94000006    2.59999990
   18.38222313   84.85119629    1.50000000    2.61999989
   18.38527679   84.57270050    2.03999996    2.59999990
   18.38666725   84.69139862    2.71000004    2.57999992
   18.38916588   88.49150085    2.71000004    2.59999990
   18.39249992   85.64089966    3.01999998    2.59999990
   18.39555550   83.85649872    1.89999998    2.59999990
   18.39888954   82.41100311    1.89999998    2.59999990
   18.40194321   85.49739838    2.01999998    2.59999990
   18.40527725   84.57599640    1.83000004    2.59999990
   18.41110992   84.57599640    4.01999998    2.53999996
   18.41527748   79.42040253    2.64000010    2.59999990
   18.41860962   83.40219879    2.25000000    2.59999990
   18.42000008   85.49939728    1.86000001    2.59999990
   18.42222214   74.51840210    2.05999994    2.59999990
   18.42555428   81.12789917    1.75000000    2.59999990
   18.42860985   81.75279999    2.30999994    2.57999992
   18.43194389   80.90989685    2.21000004    2.59999990
   18.43499947   81.68219757    2.50000000    2.59999990
   18.43833160   81.06359863    2.48000002    2.57999992
   18.44166565   80.84049988    2.71000004    2.57999992
   18.44472122   91.36430359    2.28999996    2.57999992
   18.44805527   77.21530151    2.42000008    2.57999992
   18.45416832   77.21530151    1.33000004    2.59999990
   18.45805550   75.45390320    1.41999996    2.59999990
   18.46138954   79.82749939    1.88000000    2.59999990
   18.46472359   81.42269897    1.63000000    2.59999990
   18.46777916   86.00610352    1.66999996    2.59999990
   18.47111130   86.66049957    2.46000004    2.61999989
   18.47416687   85.31130219    2.00000000    2.59999990
   18.47750092   88.16000366    2.00000000    2.59999990
   18.48083305   80.91429901    1.85000002    2.59999990
   18.48388863   82.63210297    2.19000006    2.57999992
   18.48666763   89.03220367    2.21000004    2.59999990
   18.48750114   81.53939819    2.13000011    2.59999990
   18.49083328   90.97570038    2.69000006    2.59999990
   18.49694443   90.97570038    4.90999985    2.51999998
   18.50111198   83.74259949    4.90999985    2.51999998
   18.50416756   90.49060059    4.90999985    2.51999998
   18.50749969   86.00109863    4.90999985    2.51999998
   18.51055527   91.88700104    4.57999992    2.55999994
   18.51388931   94.19450378    4.90999985    2.46000004
   18.51722145   86.67780304    4.90999985    2.51999998
   18.52000046   89.35700226    4.90999985    2.48000002
   18.52083397   78.83370209    4.90999985    2.48000002
   18.52416611   84.25759888    4.90999985    2.46000004
   18.52722168   83.21119690    4.90999985    2.50000000
   18.53055573   81.61660004    4.90999985    2.51999998
   18.53388786   82.89129639    4.90999985    2.51999998
   18.53972244   82.89129639    4.90999985    2.48000002
   18.54388809   78.34829712    4.90999985    2.50000000
   18.54694366   81.62770081    4.90999985    2.50000000
   18.55027771   82.98660278    4.90999985    2.48000002
   18.55333328   84.34999847    4.90999985    2.48000002
   18.55388832   92.03479767    4.90999985    2.50000000
   18.55722237   81.09580231    4.90999985    2.48000002
   18.56027794   90.39129639    4.90999985    2.51999998
   18.56361008   88.73380280    4.76000023    2.53999996
   18.56666756   85.29560089    4.90999985    2.51999998
   18.57000160   84.81680298    4.90999985    2.48000002
   18.57333374   91.29129791    3.86999989    2.55999994
   18.57638931   84.91539764    4.53000021    2.53999996
   18.58250046   84.91539764    4.86999989    2.51999998
   18.58666801   78.37480164    3.97000003    2.53999996
   18.58722305   90.08309937    3.97000003    2.53999996
   18.59055710   86.27660370    4.36999989    2.53999996
   18.59361267   84.46050262    3.32999992    2.55999994
   18.59694481   78.98310089    4.90999985    2.50000000
   18.60000038   81.98229980    4.57999992    2.53999996
   18.60333443   84.77919769    4.03999996    2.55999994
   18.60666656   90.92410278    4.90999985    2.51999998
   18.60972214   83.38050079    4.84999990    2.51999998
   18.61305618   87.11609650    4.90999985    2.51999998
   18.61638832   80.22370148    4.48999977    2.53999996
   18.61944389   89.50520325    4.61999989    2.51999998
   18.62000084   87.77429962    4.05999994    2.53999996
   18.62527847   87.77429962    4.80999994    2.51999998
   18.62944412   94.32240295    4.90999985    2.51999998
   18.63277817   84.33809662    4.84999990    2.51999998
   18.63611031   80.33910370    4.65999985    2.51999998
   18.63916588   84.75800323    3.36999989    2.53999996
   18.64249992   87.07379913    3.46000004    2.53999996
   18.64555550   78.12940216    3.03999996    2.55999994
   18.64888954   81.09079742    2.91000009    2.53999996
   18.65222168   82.29250336    1.91999996    2.55999994
   18.65333366   85.81120300    2.67000008    2.55999994
   18.65583229   84.09490204    2.01999998    2.55999994
   18.65916634   89.95829773    3.80999994    2.53999996
   18.66222191   86.94139862    3.78999996    2.53999996
   18.66833305   86.94139862    3.97000003    2.53999996
   18.67249870   89.38829803    2.42000008    2.55999994
   18.67555428   98.91950226    2.48000002    2.55999994
   18.67888832   89.78410339    3.18000007    2.55999994
   18.68194389   90.92440033    2.64000010    2.55999994
   18.68527603   84.29900360    2.09999990    2.55999994
   18.68666649   81.98860168    2.34999990    2.55999994
   18.68888855   82.55650330    2.53999996    2.55999994
   18.69222069   80.67169952    1.71000004    2.57999992
   18.69527626   81.56430054    2.57999992    2.55999994
   18.69861031   86.72119904    1.91999996    2.57999992
   18.70194435   83.32610321    1.63000000    2.57999992
   18.70499992   87.18350220    1.36000001    2.55999994
   18.71111107   87.18350220    1.14999998    2.57999992
   18.71527863   83.88200378    1.16999996    2.57999992
   18.71833420   86.16510010    1.91999996    2.55999994
   18.72000122   83.79789734    1.75000000    2.57999992
   18.72194481   80.66179657    1.94000006    2.55999994
   18.72527885   81.52549744    0.86000001    2.57999992
   18.72833443   84.32299805    1.05999994    2.59999990
   18.73166656   82.65249634    1.01999998    2.57999992
   18.73500061   79.81819916    1.13000000    2.57999992
   18.73805618   84.54380035    2.03999996    2.57999992
   18.74138832   83.29930115    2.76999998    2.55999994
   18.74444389   86.98120117    2.07999992    2.55999994
   18.74777794   86.88459778    2.25000000    2.55999994
   18.75388908   86.88459778    3.68000007    2.51999998
   18.75805473   81.74430084    3.43000007    2.53999996
   18.76138878   85.76709747    2.94000006    2.53999996
   18.76444435   82.17539978    2.94000006    2.53999996
   18.76777840   88.95429993    2.13000011    2.55999994
   18.77111053   84.82990265    2.32999992    2.55999994
   18.77416611   83.74700165    2.44000006    2.55999994
   18.77750015   81.64430237    2.39000010    2.55999994
   18.78083229   90.00420380    2.55999994    2.55999994
   18.78388786   86.72550201    2.15000010    2.55999994
   18.78666687   88.33110046    1.46000004    2.55999994
   18.78750038   82.96900177    1.46000004    2.55999994
   18.79083252   82.93509674    1.55999994    2.55999994
   18.79666710   82.93509674    1.48000002    2.57999992
   18.80083275   95.69719696    1.83000004    2.55999994
   18.80416679   89.42189789    1.78999996    2.55999994
   18.80749893   92.92259979    2.34999990    2.55999994
   18.81055450   96.85679626    3.07999992    2.55999994
   18.81388855   83.67169952    3.32999992    2.53999996
   18.81694603   88.22409821    4.55999994    2.51999998
   18.82000160   87.48989868    3.46000004    2.53999996
   18.82055664   83.85500336    3.46000004    2.53999996
   18.82389069   90.52700043    2.39000010    2.55999994
   18.82694626   87.92120361    2.55999994    2.55999994
   18.83027840   88.52159882    2.42000008    2.55999994
   18.83361244   80.26010132    2.91000009    2.53999996
   18.83972359   80.26010132    2.66000009    2.55999994
   18.84388924   82.11759949    2.67000008    2.55999994
   18.84694481   86.34220123    2.94000006    2.53999996
   18.85027885   85.90039825    3.21000004    2.53999996
   18.85333443   80.86509705    3.66000009    2.51999998
   18.85388947   84.01149750    3.66000009    2.51999998
   18.85722351   80.23799896    3.41000009    2.51999998
   18.86027908   80.31050110    2.23000002    2.53999996
   18.86361122   90.83550262    2.07999992    2.55999994
   18.86694527   92.86380005    2.75000000    2.55999994
   18.87000084   85.11589813    2.86999989    2.53999996
   18.87333298   91.00839996    3.03999996    2.53999996
   18.87638855   89.48549652    2.50000000    2.53999996
   18.88249969   89.48549652    2.32999992    2.53999996
   18.88666725   86.73760223    2.46000004    2.53999996
   18.88722229   88.03130341    2.46000004    2.53999996
   18.89027786   84.06690216    2.39000010    2.53999996
   18.89361191   86.42449951    2.00000000    2.55999994
   18.89694405   82.30780029    1.41999996    2.53999996
   18.89999962   83.09470367    1.50000000    2.55999994
   18.90333366   78.62509918    1.01999998    2.55999994
   18.90666580   78.77739716    0.88000000    2.55999994
   18.90972137   80.30380249    0.88000000    2.55999994
   18.91305542   78.20480347    1.05999994    2.55999994
   18.91611099   83.53910065    1.14999998    2.55999994
   18.91944313   82.01560211    1.07000005    2.55999994
   18.92055511   87.18920135    2.09999990    2.53999996
   18.92527771   87.18920135    2.25000000    2.53999996
   18.92944336   87.66560364    1.80999994    2.53999996
   18.93277740   80.48919678    1.73000002    2.55999994
   18.93583298   85.87840271    1.78999996    2.55999994
   18.93916512   82.66590118    1.76999998    2.55999994
   18.94249916   86.69249725    1.71000004    2.53999996
   18.94555473   84.61440277    1.44000006    2.55999994
   18.94888878   82.06099701    1.60000002    2.55999994
   18.95222282   84.42150116    1.78999996    2.53999996
   18.95388985   78.71440125    1.78999996    2.53999996
   18.95555687   94.65409851    1.78999996    2.53999996
   18.95888901   80.40260315    1.46000004    2.53999996
   18.96222305   78.18849945    1.38000000    2.53999996
   18.96805573   78.18849945    2.01999998    2.51999998
   18.97222328   86.07730103    1.75000000    2.53999996
   18.97555542   85.87889862    1.80999994    2.53999996
   18.97888947   90.42919922    1.80999994    2.53999996
   18.98194504   89.29149628    1.83000004    2.51999998
   18.98527718   90.95320129    2.23000002    2.53999996
   18.98722267   89.93019867    2.17000008    2.53999996
   18.98888969   86.77410126    2.30999994    2.51999998
   18.99222183   86.56009674    2.55999994    2.51999998
   18.99555588   88.05110168    2.55999994    2.51999998
   18.99861145   89.37190247    3.46000004    2.51999998
   19.00194359   88.38269806    3.78999996    2.50000000
   19.00527763   86.09909821    3.39000010    2.51999998
   19.01111031   86.09909821    4.90999985    2.48000002
   19.01527786   83.65789795    4.90999985    2.48000002
   19.01833344   91.36000061    4.88999987    2.48000002
   19.02055550   89.77590179    4.57999992    2.48000002
   19.02194405   83.85030365    4.57999992    2.50000000
   19.02527809   86.63420105    4.69999981    2.50000000
   19.02861023   88.64360046    2.67000008    2.51999998
   19.03166580   87.72229767    2.36999989    2.51999998
   19.03499985   87.81009674    2.67000008    2.51999998
   19.03833199   82.60549927    2.86999989    2.51999998
   19.04138756   85.09549713    2.61999989    2.51999998
   19.04472160   95.16799927    2.91000009    2.51999998
   19.04777718   86.12950134    2.53999996    2.51999998
   19.05388832   86.12950134    2.80999994    2.51999998
   19.05805397   84.47760010    3.36999989    2.51999998
   19.06110954   93.50479889    4.01999998    2.50000000
   19.06444359   91.88680267    3.78999996    2.50000000
   19.06777954   87.74259949    3.73000002    2.50000000
   19.07083511   88.86070251    4.51000023    2.50000000
   19.07416725   93.79540253    3.41000009    2.51999998
   19.07750130   92.99140167    4.15999985    2.50000000
   19.08055687   98.02110291    3.61999989    2.51999998
   19.08388901   87.92230225    3.68000007    2.50000000
   19.08694458   84.09200287    4.67999983    2.50000000
   19.08750153   82.79550171    4.67999983    2.50000000
   19.09083366   89.05470276    4.73999977    2.48000002
   19.09666824   89.05470276    4.90999985    2.44000006
   19.10083389   91.50900269    4.90999985    2.48000002
   19.10416794   93.91660309    4.90999985    2.44000006
   19.10722351   86.99500275    4.90999985    2.48000002
   19.11055565   92.74189758    4.76000023    2.48000002
   19.11388969   93.91320038    4.90999985    2.46000004
   19.11694527   88.95140076    4.53999996    2.48000002
   19.12027740   85.87539673    3.09999990    2.48000002
   19.12083435   81.72560120    3.09999990    2.48000002
   19.12388992   94.96900177    2.84999990    2.50000000
   19.12722206   83.94850159    3.00000000    2.50000000
   19.13027763   85.13430023    3.61999989    2.48000002
   19.13361168   93.68879700    3.30999994    2.50000000
   19.13944435   93.68879700    4.90999985    2.46000004
   19.14361191   90.90059662    4.90999985    2.48000002
   19.14694405   95.02089691    4.90999985    2.44000006
   19.15027809   92.52359772    4.90999985    2.44000006
   19.15333366   93.50980377    4.90999985    2.46000004
   19.15416718   95.39240265    4.90999985    2.44000006
   19.15694427   94.10030365    4.90999985    2.44000006
   19.16027832   94.15249634    4.90999985    2.44000006
   19.16333389  126.79199982    4.67999983    2.48000002
   19.16666603  161.14199829    3.91000009    2.48000002
   19.17000008  173.50799561    3.55999994    2.48000002
   19.17305565  161.08099365    4.90999985    2.48000002
   19.17638779  160.57600403    4.90999985    2.48000002
   19.18249893  160.57600403    4.90999985    2.50000000
   19.18666649  126.62899780    4.90999985    2.48000002
   19.18750000  132.52200317    4.90999985    2.50000000
   19.19027710  100.44200134    4.90999985    2.50000000
   19.19361115  105.12500000    4.90999985    2.28999996
   19.19666672  147.54400635    4.90999985    2.39000010
   19.20000076  125.98600006    4.90999985    2.42000008
   19.20333481  156.88400269    4.90999985    2.40000010
   19.20639038  130.93099976    4.90999985    2.39000010
   19.20972252  113.53700256    4.90999985    2.40000010
   19.21277809  116.07599640    4.90999985    2.44000006
   19.21611214  120.06400299    4.90999985    2.48000002
   19.21944427  118.73200226    4.90999985    2.34999990
   19.22083473  104.06700134    4.90999985    2.26999998
   19.22527885  104.06700134    4.90999985    2.13000011
   19.22944450  176.00000000    4.90999985    2.00000000
   19.23250008  145.63999939    4.90999985    2.21000004
   19.23583412  131.55299377    4.90999985    2.21000004
   19.23916626  131.80200195    4.90999985    2.25000000
   19.24222183  121.93699646    4.90999985    2.25000000
   19.24555588  116.16100311    4.90999985    2.26999998
   19.24888992   98.53769684    4.90999985    2.32999992
   19.25194359  100.61399841    4.90999985    2.32999992
   19.25416756  105.22599792    4.90999985    2.34999990
   19.25555611  102.57499695    4.90999985    2.36999989
   19.25888824  107.48500061    4.90999985    2.40000010
   19.26194382  110.72499847    4.90999985    2.40000010
   19.26805496  110.72499847    4.90999985    2.42000008
   19.27222252  120.76699829    4.90999985    2.44000006
   19.27555466  109.74700165    4.90999985    2.46000004
   19.27861023  113.89600372    4.48999977    2.46000004
   19.28194427  113.93099976    4.90999985    2.44000006
   19.28527641   90.83090210    4.90999985    2.34999990
   19.28750038   96.19580078    4.90999985    2.26999998
   19.28888893   99.83409882    4.90999985    2.26999998
   19.29222107   85.92350006    4.90999985    2.30999994
   19.29527664  100.31999969    4.90999985    2.23000002
   19.29861069   96.41609955    4.90999985    2.17000008
   19.30194283  100.09899902    4.90999985    2.11999989
   19.30499840  124.66699982    4.90999985    1.91999996
   19.31083298  124.66699982    4.90999985    2.01999998
   19.31499863  118.61499786    4.90999985    2.11999989
   19.31833458   87.29380035    4.90999985    2.05999994
   19.32083511   90.55560303    4.90999985    2.09999990
   19.32194519   89.07900238    4.90999985    2.09999990
   19.32527924   80.11000061    4.90999985    2.19000006
   19.32833481   96.07929993    4.90999985    2.25000000
   19.33166695   88.97989655    4.90999985    2.17000008
   19.33500099   88.93190002    4.90999985    2.17000008
   19.33805656  137.66900635    4.90999985    2.05999994
   19.34138870   89.51419830    4.90999985    2.11999989
   19.34444427   93.02369690    4.90999985    2.17000008
   19.34777832   89.73300171    4.90999985    2.17000008
   19.35388947   89.73300171    4.90999985    2.23000002
   19.37222290   96.88960266    4.90999985    1.98000002
   19.37555504  108.68399811    4.90999985    2.00000000
   19.37861061   92.69750214    4.90999985    1.96000004
   19.38194466   92.16510010    4.90999985    2.09999990
   19.38500023  167.23800659    4.90999985    1.98000002
   19.38833237  154.89700317    4.90999985    1.80999994
   19.39166641   -1.00000000    4.90999985    1.73000002
   19.39694405   -1.00000000    4.90999985    1.26999998
   19.40111160   -1.00000000    4.90999985    1.28999996
   19.40416718   -1.00000000    4.90999985    1.34000003
   19.40777779   -1.00000000    4.90999985    1.53999996
   19.41110992   45.46730042    4.90999985    1.55999994
   19.41416550  187.40499878    4.90999985    1.71000004
   19.41749954  133.10000610    4.90999985    1.88000000
   19.42083359   96.48159790    4.90999985    1.88000000
   19.42388916   98.52819824    4.90999985    1.76999998
   19.42722130  114.15599823    4.90999985    2.01999998
   19.43055534  120.38999939    4.90999985    2.03999996
   19.43361092   86.18139648    4.90999985    2.13000011
   19.43972206   86.18139648    4.78000021    2.36999989
   19.44388771   94.13990021    4.07999992    2.44000006
   19.44722176   86.22859955    4.51000023    2.42000008
   19.45027924   83.80819702    4.90999985    2.36999989
   19.45361137  113.48100281    4.90999985    2.32999992
   19.45666695   87.49510193    4.90999985    2.25000000
   19.46000099   82.04340363    4.90999985    2.34999990
   19.46333504   89.29989624    4.90999985    2.36999989
   19.46638870   81.68520355    4.03999996    2.42000008
   19.46972275   89.42099762    3.18000007    2.44000006
   19.47194481   86.42839813    2.76999998    2.44000006
   19.47361183   84.78859711    2.78999996    2.44000006
   19.47666740   88.01529694    2.75000000    2.44000006
   19.48250008   88.01529694    2.73000002    2.40000010
   19.48666763   94.41310120    3.39000010    2.32999992
   19.48999977   89.81500244    3.76999998    2.40000010
   19.49305534   86.74440002    4.17999983    2.40000010
   19.49638939   92.85489655    4.11999989    2.34999990
   19.49972153   88.48149872    4.15999985    2.36999989
   19.50277710   88.55789948    4.63999987    2.30999994
   19.50527763   84.25409698    4.57999992    2.32999992
   19.50666618   88.04769897    4.26999998    2.34999990
   19.50972176   84.84570313    3.80999994    2.40000010
   19.51305580   84.28399658    3.23000002    2.40000010
   19.51611137   88.61479950    3.26999998    2.40000010
   19.51944351   92.53140259    3.72000003    2.40000010
   19.52555466   92.53140259    2.96000004    2.42000008
   19.52944374   80.65640259    2.26999998    2.42000008
   19.53277779   79.97889709    2.19000006    2.42000008
   19.53610992   95.83100128    2.19000006    2.44000006
   19.53861046   88.12049866    1.86000001    2.44000006
   19.53972244   90.85399628    1.88000000    2.44000006
   19.54277802   88.29250336    2.15000010    2.42000008
   19.54611015   88.53379822    1.98000002    2.44000006
   19.54944420   88.08979797    1.91999996    2.42000008
   19.55249977   84.85649872    1.83000004    2.42000008
   19.55583191   86.22650146    1.91999996    2.44000006
   19.55888748   90.60410309    1.85000002    2.44000006
   19.56222153   85.85009766    1.91999996    2.44000006
   19.56833458   85.85009766    1.63000000    2.44000006
   19.57250023   81.75830078    1.63000000    2.44000006
   19.57555580   90.23989868    1.39999998    2.44000006
   19.57888985   86.11509705    1.55999994    2.42000008
   19.58222389   87.52999878    1.51999998    2.40000010
   19.58527756   85.06020355    1.60000002    2.44000006
   19.58861160   88.28189850    1.53999996    2.44000006
   19.59166718   91.67199707    1.61000001    2.44000006
   19.59500122   82.96099854    1.38000000    2.44000006
   19.59833336   92.71820068    1.25000000    2.44000006
   19.60138893   86.55719757    1.34000003    2.44000006
   19.60472298   81.28600311    1.34000003    2.44000006
   19.60527802   80.65850067    1.36000001    2.44000006
   19.61111069   80.65850067    1.50000000    2.44000006
   19.61527824   91.57109833    1.51999998    2.44000006
   19.61861038   86.06400299    1.89999998    2.42000008
   19.62166595   87.51239777    2.01999998    2.44000006
   19.62500000   96.56490326    1.85000002    2.44000006
   19.62833405   87.61540222    1.88000000    2.44000006
   19.63138962   90.83830261    1.98000002    2.44000006
   19.63472176   89.29149628    2.05999994    2.44000006
   19.63777733   84.40390015    2.28999996    2.44000006
   19.63861084   84.89769745    2.25000000    2.44000006
   19.64166641   88.09069824    2.17000008    2.42000008
   19.64472198   86.46820068    2.34999990    2.42000008
   19.64805603   81.69210052    2.50000000    2.42000008
   19.65388870   81.69210052    2.26999998    2.42000008
   19.65805435   87.90760040    2.23000002    2.42000008
   19.66138840   79.83860016    2.44000006    2.40000010
   19.66444397   83.60089874    2.28999996    2.40000010
   19.66777802   87.43710327    2.28999996    2.40000010
   19.67111015   87.08290100    2.50000000    2.40000010
   19.67194366   85.61399841    2.44000006    2.39000010
   19.67472076   87.91919708    2.34999990    2.39000010
   19.67777634   82.66480255    2.50000000    2.39000010
   19.68111038   79.15049744    2.64000010    2.39000010
   19.68444443   91.51429749    2.71000004    2.40000010
   19.68750000   84.46810150    2.78999996    2.39000010
   19.69083214   80.91809845    2.76999998    2.40000010
   19.69666672   80.91809845    2.76999998    2.40000010
   19.70083427   86.90319824    2.75000000    2.40000010
   19.70416832   89.39990234    2.40000010    2.40000010
   19.70527840   95.63909912    2.30999994    2.40000010
   19.70805550   88.58470154    2.42000008    2.40000010
   19.71111107   88.53869629    2.57999992    2.40000010
   19.71444511   92.88439941    2.07999992    2.40000010
   19.71777916   93.72339630    2.07999992    2.40000010
   19.72083473   90.91819763    2.19000006    2.40000010
   19.72416687   89.94629669    2.39000010    2.40000010
   19.72722244   90.57129669    2.11999989    2.40000010
   19.73055649   82.40049744    2.28999996    2.32999992
   19.73388863   83.28479767    2.03999996    2.32999992
   19.73972321   83.28479767    2.46000004    2.32999992
   19.74388885   90.20929718    2.57999992    2.34999990
   19.74694443   97.53890228    2.78999996    2.36999989
   19.75027847  114.69400024    2.78999996    2.36999989
   19.75361061  133.67399597    2.80999994    2.39000010
   19.75666618  154.08900452    4.30999994    2.34999990
   19.76000023   -1.00000000    4.84999990    2.34999990
   19.76305580   -1.00000000    4.44999981    2.36999989
   19.76638794   -1.00000000    3.80999994    2.36999989
   19.76972198   -1.00000000    3.23000002    2.36999989
   19.77305603   -1.00000000    2.86999989    2.36999989
   19.77638817   -1.00000000    2.50000000    2.36999989
   19.78666687   -1.00000000    2.15000010    2.39000010
   19.78972244   -1.00000000    2.19000006    2.39000010
   19.79305458   -1.00000000    2.32999992    2.36999989
   19.79611015   -1.00000000    2.80999994    2.36999989
   19.79944420   -1.00000000    3.14000010    2.32999992
   19.80277634   -1.00000000    3.32999992    2.30999994
   19.80611038   -1.00000000    3.84999990    2.28999996
   19.80944443   -1.00000000    3.93000007    2.30999994
   19.81277657   -1.00000000    4.21999979    2.30999994
   19.81583214   -1.00000000    4.01999998    2.26999998
   19.81916809   -1.00000000    4.23999977    2.28999996
   19.82944489   -1.00000000    3.95000005    2.34999990
   19.83250046   -1.00000000    4.46999979    2.32999992
   19.83583450   -1.00000000    4.90999985    2.32999992
   19.83916664   -1.00000000    4.90999985    2.34999990
   19.84250069   -1.00000000    4.90999985    1.94000006
   19.84583473   -1.00000000    4.90999985    2.25000000
   19.84889030   -1.00000000    4.90999985    2.23000002
   19.85222244   -1.00000000    4.90999985    2.23000002
   19.85527802   -1.00000000    4.90999985    2.25000000
   19.85861206   -1.00000000    4.90999985    2.21000004
   19.86194420   -1.00000000    4.90999985    2.25000000
   19.87222290   -1.00000000    4.80000019    2.26999998
   19.87555504   -1.00000000    4.78000021    2.25000000
   19.87861061   -1.00000000    4.90999985    2.25000000
   19.88194466   -1.00000000    4.90999985    2.23000002
   19.88527679   -1.00000000    4.90999985    2.25000000
   19.88833237   -1.00000000    4.86999989    2.25000000
   19.89166641   -1.00000000    4.90999985    2.28999996
   19.89472198   -1.00000000    4.90999985    2.26999998
   19.89805603   -1.00000000    4.90999985    2.25000000
   19.90138817   -1.00000000    4.90999985    2.21000004
   19.90444374   -1.00000000    4.90999985    2.23000002
   19.91499901   -1.00000000    4.36999989    2.28999996
   19.91833305   -1.00000000    4.05999994    2.30999994
   19.92138863   -1.00000000    3.70000005    2.32999992
   19.92472076   -1.00000000    3.57999992    2.32999992
   19.92805481   -1.00000000    3.51999998    2.32999992
   19.93111038   -1.00000000    2.94000006    2.32999992
   19.93444443   -1.00000000    2.55999994    2.34999990
   19.93777657   -1.00000000    2.46000004    2.34999990
   19.94111061   -1.00000000    2.61999989    2.34999990
   19.94444275   -1.00000000    2.42000008    2.34999990
   19.94777679   -1.00000000    2.61999989    2.34999990
   19.95777893   -1.00000000    2.82999992    2.32999992
   19.96111107   -1.00000000    3.09999990    2.32999992
   19.96444511   -1.00000000    4.90999985    2.30999994
   19.96750069   -1.00000000    4.73999977    2.30999994
   19.97083473   -1.00000000    4.90999985    2.32999992
   19.97416687   -1.00000000    4.90999985    2.32999992
   19.97750092   -1.00000000    4.90999985    2.36999989
   19.98083305   -1.00000000    4.90999985    2.36999989
   19.98388863   -1.00000000    4.90999985    2.36999989
   19.98722267   -1.00000000    4.90999985    2.34999990
   19.99027824   -1.00000000    4.51000023    2.32999992
   20.00083351   -1.00000000    3.80999994    2.30999994
   20.00388908   -1.00000000    3.59999990    2.32999992
   20.00749969   -1.00000000    3.64000010    2.30999994
   20.01083374   -1.00000000    3.23000002    2.30999994
   20.01416588   -1.00000000    3.34999990    2.28999996
   20.01722145   -1.00000000    3.07999992    2.30999994
   20.02055550   -1.00000000    2.86999989    2.30999994
   20.02361107   -1.00000000    2.50000000    2.30999994
   20.02694511   -1.00000000    2.19000006    2.32999992
   20.03027725   -1.00000000    2.28999996    2.32999992
   20.03333282   -1.00000000    2.01999998    2.32999992
   20.04361153   -1.00000000    3.64000010    2.28999996
   20.04694366   -1.00000000    4.53000021    2.28999996
   20.04999924   -1.00000000    4.69999981    2.28999996
   20.05333328   -1.00000000    4.36999989    2.28999996
   20.05638885   -1.00000000    4.90999985    2.26999998
   20.05972099   -1.00000000    4.90999985    2.25000000
   20.06305504   -1.00000000    4.90999985    2.25000000
   20.06611061   -1.00000000    4.90999985    2.26999998
   20.06944466   -1.00000000    4.90999985    2.26999998
   20.07277870   -1.00000000    4.90999985    2.28999996
   20.07611275   -1.00000000    4.90999985    2.30999994
   20.08638954   -1.00000000    4.90999985    2.30999994
   20.08972359   -1.00000000    4.90999985    2.05999994
   20.09305573   -1.00000000    4.90999985    2.21000004
   20.09611130   -1.00000000    4.90999985    2.26999998
   20.09944534   -1.00000000    4.90999985    2.26999998
   20.10250092   -1.00000000    4.90999985    2.32999992
   20.10611153   -1.00000000    4.53000021    2.28999996
   20.10944557   -1.00000000    3.18000007    2.28999996
   20.11277771   -1.00000000    4.90999985    2.28999996
   20.11583328   -1.00000000    4.90999985    2.32999992
   20.11916733   -1.00000000    4.90999985    2.34999990
   20.12916756   -1.00000000    4.90999985    2.36999989
   20.13249969   -1.00000000    4.90999985    2.32999992
   20.13583374   -1.00000000    3.70000005    2.32999992
   20.13916588   -1.00000000    2.36999989    2.30999994
   20.14249992   -1.00000000    2.26999998    2.28999996
   20.14583397   -1.00000000    2.17000008    2.28999996
   20.14888954   -1.00000000    2.25000000    2.28999996
   20.15222168   -1.00000000    2.30999994    2.28999996
   20.15555573   -1.00000000    2.51999998    2.28999996
   20.15861130   -1.00000000    2.48000002    2.28999996
   20.16194344   -1.00000000    3.80999994    2.30999994
   20.17222214   -1.00000000    4.32999992    2.28999996
   20.17527771   -1.00000000    3.00000000    2.28999996
   20.17860985   -1.00000000    1.94000006    2.28999996
   20.18194389   -1.00000000    1.78999996    2.28999996
   20.18499947   -1.00000000    1.66999996    2.28999996
   20.18833160   -1.00000000    1.86000001    2.28999996
   20.19138718   -1.00000000    2.17000008    2.26999998
   20.19472122   -1.00000000    2.28999996    2.26999998
   20.19805527   -1.00000000    2.44000006    2.25000000
   20.20111275   -1.00000000    3.26999998    2.25000000
   20.20444489   -1.00000000    4.53000021    2.25000000
   20.21500015   -1.00000000    4.90999985    2.30999994
   20.21805573   -1.00000000    4.90999985    2.30999994
   20.22138977   -1.00000000    4.90999985    2.30999994
   20.22472191   -1.00000000    4.13999987    2.30999994
   20.22777748   -1.00000000    2.94000006    2.30999994
   20.23111153   -1.00000000    2.48000002    2.28999996
   20.23444557   -1.00000000    2.34999990    2.28999996
   20.23750114   -1.00000000    2.19000006    2.26999998
   20.24111176   -1.00000000    2.30999994    2.25000000
   20.24416733   -1.00000000    2.25000000    2.25000000
   20.24749947   -1.00000000    1.98000002    2.25000000
   20.25777817   -1.00000000    2.34999990    2.26999998
   20.26111031   -1.00000000    2.34999990    2.25000000
   20.26416588   -1.00000000    2.40000010    2.25000000
   20.26749992   -1.00000000    2.39000010    2.25000000
   20.27083397   -1.00000000    2.51999998    2.23000002
   20.27444458   -1.00000000    2.69000006    2.23000002
   20.27750015   -1.00000000    3.93000007    2.23000002
   20.28083229   -1.00000000    4.90999985    2.23000002
   20.28388786   -1.00000000    4.90999985    2.23000002
   20.28722191   -1.00000000    4.90999985    2.23000002
   20.29055595   -1.00000000    4.90999985    2.23000002
   20.30055428   -1.00000000    4.90999985    2.17000008
   20.30388832   -1.00000000    4.90999985    2.21000004
   20.30749893   -1.00000000    4.90999985    2.23000002
   20.31055450   -1.00000000    4.90999985    2.21000004
   20.31388855   -1.00000000    4.90999985    2.21000004
   20.31694603   -1.00000000    4.86999989    2.21000004
   20.32027817   -1.00000000    4.30999994    2.21000004
   20.32361221   -1.00000000    4.78000021    2.21000004
   20.32666779   -1.00000000    4.90999985    2.21000004
   20.33000183   -1.00000000    4.90999985    2.21000004
   20.33333397   -1.00000000    4.90999985    2.23000002
   20.34361267   -1.00000000    4.90999985    2.23000002
   20.34666824   -1.00000000    4.90999985    2.25000000
   20.35000038   -1.00000000    4.90999985    2.23000002
   20.35333443   -1.00000000    4.90999985    2.21000004
   20.35639000   -1.00000000    4.90999985    2.21000004
   20.35972214   -1.00000000    4.90999985    2.23000002
   20.36277771   -1.00000000    4.90999985    2.21000004
   20.36611176   -1.00000000    4.90999985    2.21000004
   20.36944389   -1.00000000    4.90999985    2.21000004
   20.39666748   -1.00000000    4.90999985    2.19000006
   20.39972115   -1.00000000    4.90999985    2.19000006
   20.40305519   -1.00000000    4.90999985    2.17000008
   20.40666580   -1.00000000    4.90999985    2.17000008
   20.40972137   -1.00000000    4.90999985    2.25000000
   20.41305542   -1.00000000    1.01999998    0.40000001
   20.41611099   -1.00000000    0.34000000    0.36000001
   20.41944313   -1.00000000    0.15000001    0.17000000
   20.42277718   -1.00000000    0.15000001    0.17000000
   20.42583275   -1.00000000    0.15000001    0.17000000
   20.42916679   -1.00000000    0.15000001    0.17000000
   20.43944359   -1.00000000    0.15000001    0.17000000
   20.44249916   -1.00000000    0.15000001    0.17000000
   20.44583321   -1.00000000    0.15000001    0.17000000
   20.44916534   -1.00000000    0.15000001    0.17000000
   20.45222282   -1.00000000    0.15000001    0.17000000
   20.45555687   -1.00000000    0.15000001    0.17000000
   20.45861244   -1.00000000    0.15000001    0.17000000
   20.46194458   -1.00000000    0.15000001    0.17000000
   20.46527863   -1.00000000    0.15000001    0.17000000
   20.46833420   -1.00000000    0.15000001    0.17000000
   20.47166634   -1.00000000    0.15000001    0.17000000
   20.48222351   -1.00000000    0.15000001    0.17000000
   20.48555565   -1.00000000    0.15000001    0.17000000
   20.48861122   -1.00000000    0.15000001    0.17000000
   20.49194527   -1.00000000    0.15000001    0.17000000
   20.49500084   -1.00000000    0.15000001    0.17000000
   20.49833298   -1.00000000    0.15000001    0.17000000
   20.50166702   -1.00000000    0.15000001    0.17000000
   20.50472260   -1.00000000    0.15000001    0.17000000
   20.50833321   -1.00000000    0.15000001    0.17000000
   20.51166725   -1.00000000    0.15000001    0.17000000
   20.51472282   -1.00000000    0.15000001    0.17000000
   20.52499962   -1.00000000    0.15000001    0.17000000
   20.52833366   -1.00000000    0.15000001    0.17000000
   20.53138924   -1.00000000    0.15000001    0.17000000
   20.53472137   -1.00000000    0.15000001    0.17000000
   20.53805542   -1.00000000    0.15000001    0.17000000
   20.54138756   -1.00000000    0.15000001    0.17000000
   20.54472160   -1.00000000    0.15000001    0.17000000
   20.54777718   -1.00000000    0.15000001    0.17000000
   20.55111122   -1.00000000    0.15000001    0.17000000
   20.55444336   -1.00000000    0.15000001    0.17000000
   20.55749893   -1.00000000    0.15000001    0.17000000
   20.56777954   -1.00000000    0.15000001    0.17000000
   20.57111168   -1.00000000    0.15000001    0.17000000
   20.57472229   -1.00000000    0.15000001    0.17000000
   20.57805634   -1.00000000    0.15000001    0.17000000
   20.58111191   -1.00000000    0.15000001    0.17000000
   20.58444595   -1.00000000    0.15000001    0.17000000
   20.58777809   -1.00000000    0.15000001    0.17000000
   20.59083366   -1.00000000    0.15000001    0.17000000
   20.59416771   -1.00000000    0.15000001    0.17000000
   20.59749985   -1.00000000    0.15000001    0.17000000
   20.60055542   -1.00000000    0.15000001    0.17000000
   20.61083412   -1.00000000    0.15000001    0.17000000
   20.61388969   -1.00000000    0.15000001    0.17000000
   20.61722183   -1.00000000    0.15000001    0.17000000
   20.62055588   -1.00000000    0.15000001    0.17000000
   20.62361145   -1.00000000    0.15000001    0.17000000
   20.62694550   -1.00000000    0.15000001    0.17000000
   20.63000107   -1.00000000    0.15000001    0.17000000
   20.63333321   -1.00000000    0.15000001    0.17000000
   20.63666725   -1.00000000    0.15000001    0.17000000
   20.63999939   -1.00000000    0.15000001    0.17000000
   20.64333344   -1.00000000    0.15000001    0.17000000
   20.65361023   -1.00000000    0.15000001    0.17000000
   20.65694427   -1.00000000    0.15000001    0.17000000
   20.65999985   -1.00000000    0.15000001    0.17000000
   20.66333389   -1.00000000    0.15000001    0.17000000
   20.66638756   -1.00000000    0.15000001    0.17000000
   20.66972160   -1.00000000    0.15000001    0.17000000
   20.67333221   -1.00000000    0.15000001    0.17000000
   20.67666626   -1.00000000    0.15000001    0.17000000
   20.67972183   -1.00000000    0.15000001    0.17000000
   20.68305397   -1.00000000    0.15000001    0.17000000
   20.68638802   -1.00000000    0.15000001    0.17000000
   20.69638824   -1.00000000    0.15000001    0.17000000
   20.69972038   -1.00000000    0.15000001    0.17000000
   20.70277786   -1.00000000    0.15000001    0.17000000
   20.70639038   -1.00000000    0.15000001    0.17000000
   20.70972252   -1.00000000    0.15000001    0.17000000
   20.71277809   -1.00000000    0.15000001    0.17000000
   20.71611214   -1.00000000    0.15000001    0.17000000
   20.71944427   -1.00000000    0.15000001    0.17000000
   20.72249985   -1.00000000    0.15000001    0.17000000
   20.72583389   -1.00000000    0.15000001    0.17000000
   20.72916794   -1.00000000    0.15000001    0.17000000
   20.73916626   -1.00000000    0.15000001    0.17000000
   20.74250031   -1.00000000    0.15000001    0.17000000
   20.74583435   -1.00000000    0.15000001    0.17000000
   20.74888992   -1.00000000    0.15000001    0.17000000
   20.75222206   -1.00000000    0.15000001    0.17000000
   20.75555611   -1.00000000    0.15000001    0.17000000
   20.75861168   -1.00000000    0.15000001    0.17000000
   20.76194382   -1.00000000    0.15000001    0.17000000
   20.76499939   -1.00000000    0.15000001    0.17000000
   20.76833344   -1.00000000    0.15000001    0.17000000
   20.77166557   -1.00000000    0.15000001    0.17000000
