    HOUR (UT)   FLARE FACTOR    SKY TESTER    SUN TESTER
   10.76444435   -1.00000000   -1.00000000   -1.00000000
   10.78833389   -1.00000000    2.05999994    1.50000000
   10.79166698   -1.00000000    2.05999994    1.50000000
   10.79500008   -1.00000000    2.05999994    1.50000000
   10.79805565   -1.00000000    2.05999994    1.50000000
   10.80138874   -1.00000000    2.05999994    1.51999998
   10.80472279   -1.00000000    2.05999994    1.51999998
   10.80777836   -1.00000000    2.05999994    1.51999998
   10.81111145   -1.00000000    2.07999992    1.53999996
   10.81416702   -1.00000000    2.07999992    1.53999996
   10.81777763   -1.00000000    2.07999992    1.53999996
   10.82111073   -1.00000000    2.07999992    1.53999996
   10.82416630   -1.00000000    2.09999990    1.53999996
   10.82750034   -1.00000000    2.09999990    1.55999994
   10.83083344   -1.00000000    2.09999990    1.55999994
   10.83388901   -1.00000000    2.09999990    1.55999994
   10.83722210   -1.00000000    2.09999990    1.55999994
   10.84055519   -1.00000000   -1.00000000   -1.00000000
   10.84361076   -1.00000000    2.09999990    1.58000004
   10.84694386   -1.00000000    2.09999990    1.58000004
   10.85000038   23.57019997    2.09999990    1.60000002
   10.85083389   50.72129822    2.09999990    1.60000002
   10.85388947   23.57019997    2.09999990    1.60000002
   10.85694504   51.96799850    2.09999990    1.60000002
   10.86027813   59.55950165    2.09999990    1.61000001
   10.86361122   53.90060043    2.09999990    1.61000001
   10.86666679   49.54140091    2.09999990    1.61000001
   10.86999989   77.88089752    2.07999992    1.63000000
   10.87333393   94.21810150    2.07999992    1.63000000
   10.87638855  115.34200287    2.07999992    1.63000000
   10.87972260  112.52799988    2.07999992    1.63000000
   10.88277817  138.79100037    2.07999992    1.64999998
   10.88416672  136.57800293    2.07999992    1.64999998
   10.88666630  180.79299927    2.07999992    1.64999998
   10.88972187  180.03199768    2.07999992    1.64999998
   10.89305496  150.26800537    2.07999992    1.66999996
   10.89611053  205.55799866    2.07999992    1.66999996
   10.89944458  201.27000427    2.07999992    1.66999996
   10.90277767  251.45599365    2.05999994    1.66999996
   10.90583324  222.87500000    2.05999994    1.66999996
   10.90916634  220.50000000    2.05999994    1.69000006
   10.91249943  232.91499329    2.05999994    1.69000006
   10.91555500  328.44500732    2.05999994    1.71000004
   10.91750050  263.44100952    2.05999994    1.69000006
   10.91944504  195.18800354    2.05999994    1.71000004
   10.92250061  350.59500122    2.05999994    1.71000004
   10.92583370  278.39001465    2.03999996    1.71000004
   10.92888927  295.79000854    2.03999996    1.71000004
   10.93222237  270.28500366    2.03999996    1.71000004
   10.93555546  217.65600586    2.01999998    1.73000002
   10.93861103  268.70199585    2.01999998    1.71000004
   10.94194412  219.79200745    2.01999998    1.73000002
   10.94527817  191.42599487    2.01999998    1.73000002
   10.94833374  206.26899719    2.00000000    1.75000000
   10.95083332  204.58799744    2.00000000    1.75000000
   10.95222187  244.47399902    2.00000000    1.75000000
   10.95527744  227.12399292    2.00000000    1.75000000
   10.95861053  229.87300110    2.00000000    1.75000000
   10.96194458  215.01800537    1.98000002    1.75000000
   10.96500015  317.05999756    2.01999998    1.75000000
   10.96833324  256.61599731    2.01999998    1.76999998
   10.97138882  248.06599426    2.01999998    1.76999998
   10.97499943  239.13499451    2.01999998    1.76999998
   10.97833252  246.32600403    2.01999998    1.78999996
   10.98138809  296.92599487    2.00000000    1.78999996
   10.98416710  224.83500671    2.00000000    1.78999996
   10.98527813  248.17900085    2.00000000    1.78999996
   10.98833370  211.79400635    2.00000000    1.78999996
   10.99166679  206.94799805    1.98000002    1.80999994
   10.99499989  200.10600281    1.98000002    1.78999996
   10.99805546  190.75599670    1.98000002    1.78999996
   11.00138855  237.26400757    1.96000004    1.80999994
   11.00444412  219.00599670    1.96000004    1.80999994
   11.00777817  194.79699707    1.96000004    1.80999994
   11.01111126  191.55099487    1.94000006    1.83000004
   11.01416683  212.43299866    1.94000006    1.80999994
   11.01749992  205.33799744    1.94000006    1.83000004
   11.01805496  173.49499512    1.94000006    1.83000004
   11.02111053  206.46499634    1.94000006    1.83000004
   11.02444458  210.41200256    1.91999996    1.83000004
   11.02750015  203.65400696    1.91999996    1.83000004
   11.03083324  190.10299683    1.91999996    1.83000004
   11.03416729  182.46899414    1.91999996    1.83000004
   11.03722286  189.20399475    1.91999996    1.85000002
   11.04055595  192.32400513    1.91999996    1.85000002
   11.04388905  165.59300232    1.89999998    1.85000002
   11.04694462  181.02699280    1.89999998    1.85000002
   11.05027771  218.87800598    1.88000000    1.85000002
   11.05083370  165.48599243    1.89999998    1.86000001
   11.05388927  174.32299805    1.88000000    1.85000002
   11.05694485  180.06900024    1.88000000    1.86000001
   11.06027794  186.94400024    1.88000000    1.86000001
   11.06361103  173.91700745    1.88000000    1.86000001
   11.06666660  170.55400085    1.86000001    1.86000001
   11.06999969  165.47200012    1.86000001    1.88000000
   11.07305527  181.19400024    1.86000001    1.86000001
   11.07638836  165.62500000    1.85000002    1.86000001
   11.07972240  171.43699646    1.85000002    1.88000000
   11.08277798  198.45100403    1.85000002    1.88000000
   11.08416653  189.84399414    1.85000002    1.88000000
   11.08666611  183.60800171    1.85000002    1.88000000
   11.08972168  144.73899841    1.85000002    1.89999998
   11.09305477  165.74299622    1.83000004    1.89999998
   11.09638882  157.41499329    1.83000004    1.89999998
   11.09944439  166.87600708    1.83000004    1.89999998
   11.10277843  143.52600098    1.83000004    1.89999998
   11.10583401  155.97200012    1.83000004    1.89999998
   11.10916710  138.25599670    1.80999994    1.89999998
   11.11250019  172.02699280    1.80999994    1.89999998
   11.11583328  167.87199402    1.80999994    1.89999998
   11.11750031  135.59300232    1.80999994    1.91999996
   11.11944485  162.99299622    1.80999994    1.91999996
   11.12250042  166.41499329    1.80999994    1.91999996
   11.12583351  143.98399353    1.80999994    1.91999996
   11.12916660  160.80999756    1.80999994    1.94000006
   11.13222218  150.45399475    1.80999994    1.94000006
   11.13555527  139.04100037    1.78999996    1.91999996
   11.13888836  147.35200500    1.78999996    1.94000006
   11.14194393  140.18299866    1.78999996    1.94000006
   11.14527798  144.22799683    1.76999998    1.94000006
   11.14833355  141.92999268    1.76999998    1.94000006
   11.15083313  142.82699585    1.76999998    1.94000006
   11.15222168  130.85299683    1.76999998    1.94000006
   11.15527725  143.33999634    1.76999998    1.96000004
   11.15861034  144.43699646    1.76999998    1.96000004
   11.16194439  132.06300354    1.76999998    1.96000004
   11.16499996  148.85699463    1.75000000    1.98000002
   11.16833401  124.90000153    1.75000000    1.98000002
   11.17138958  133.77699280    1.75000000    1.98000002
   11.17472267  128.25399780    1.73000002    1.98000002
   11.17805576  129.42599487    1.73000002    1.98000002
   11.18111134  129.38400269    1.73000002    1.98000002
   11.18416691  133.12500000    1.73000002    1.98000002
   11.18500042  123.97100067    1.73000002    1.98000002
   11.18805599  129.68299866    1.73000002    2.00000000
   11.19138908  138.66600037    1.71000004    2.00000000
   11.19472218  131.05000305    1.71000004    2.00000000
   11.19777775  149.70399475    1.69000006    2.00000000
   11.20111084  147.12800598    1.69000006    2.00000000
   11.20444393  149.10299683    1.69000006    2.00000000
   11.20749950  142.49499512    1.66999996    2.00000000
   11.21083355  152.69400024    1.66999996    2.01999998
   11.21416664  121.00199890    1.66999996    2.01999998
   11.21722221  114.24700165    1.66999996    2.01999998
   11.21777725  134.03399658    1.66999996    2.01999998
   11.22111034  123.25199890    1.64999998    2.01999998
   11.22416592  117.39600372    1.64999998    2.01999998
   11.22749996  119.20400238    1.63000000    2.01999998
   11.23083305  127.97200012    1.63000000    2.01999998
   11.23388958  128.23100281    1.63000000    2.03999996
   11.23722267  129.59800720    1.63000000    2.01999998
   11.24055576  128.22000122    1.63000000    2.03999996
   11.24361134  131.70300293    1.63000000    2.03999996
   11.24694443  128.26699829    1.63000000    2.03999996
   11.25000000  133.90899658    1.63000000    2.03999996
   11.25111103  112.17800140    1.63000000    2.03999996
   11.25388908  125.07199860    1.63000000    2.05999994
   11.25694466  125.81700134    1.63000000    2.03999996
   11.26027775  123.33300018    1.63000000    2.05999994
   11.26361084  127.84799957    1.63000000    2.03999996
   11.26666641  124.06199646    1.63000000    2.03999996
   11.26999950  133.69299316    1.63000000    2.05999994
   11.27333355  141.90800476    1.63000000    2.05999994
   11.27638817  123.07599640    1.63000000    2.05999994
   11.27972221  127.62300110    1.63000000    2.05999994
   11.28305531  158.14599609    1.63000000    2.05999994
   11.28444481  132.75799561    1.63000000    2.07999992
   11.28666687  148.17999268    1.61000001    2.07999992
   11.28972244  144.46800232    1.63000000    2.07999992
   11.29305553  123.09700012    1.63000000    2.07999992
   11.29638958  128.94500732    1.61000001    2.07999992
   11.29944515  124.03500366    1.63000000    2.07999992
   11.30277824  129.50500488    1.64999998    2.09999990
   11.30611134  134.90499878    1.64999998    2.09999990
   11.30916691  135.42199707    1.64999998    2.09999990
   11.31250000  119.41699982    1.66999996    2.09999990
   11.31555557  125.59500122    1.66999996    2.09999990
   11.31777763  122.09700012    1.66999996    2.11999989
   11.31944466  118.85199738    1.66999996    2.11999989
   11.32250023  136.26600647    1.66999996    2.11999989
   11.32583332  125.47699738    1.66999996    2.11999989
   11.32916641  120.21499634    1.69000006    2.11999989
   11.33222198  125.08899689    1.69000006    2.13000011
   11.33555508  136.56599426    1.69000006    2.11999989
   11.33888817  144.97500610    1.69000006    2.13000011
   11.34194374  146.48300171    1.69000006    2.13000011
   11.34527779  114.88899994    1.69000006    2.15000010
   11.34833336  123.65000153    1.69000006    2.15000010
   11.35111141  119.56199646    1.69000006    2.15000010
   11.35222244  118.91899872    1.69000006    2.15000010
   11.35527802  110.54499817    1.69000006    2.15000010
   11.35861111  111.17700195    1.69000006    2.15000010
   11.36194515  120.21099854    1.66999996    2.17000008
   11.36500072  127.60299683    1.66999996    2.15000010
   11.36833382  132.00500488    1.66999996    2.17000008
   11.37166691  148.04100037    1.64999998    2.17000008
   11.37472248  152.48199463    1.64999998    2.17000008
   11.37805557  122.19400024    1.63000000    2.17000008
   11.38111115  170.03999329    1.63000000    2.17000008
   11.38444424  128.52699280    1.63000000    2.17000008
   11.38500023  157.78599548    1.61000001    2.19000006
   11.38805580  150.93600464    1.61000001    2.19000006
   11.39138889  170.22000122    1.60000002    2.19000006
   11.39472198  110.44599915    1.60000002    2.17000008
   11.39777756  134.13299561    1.58000004    2.19000006
   11.40111065  122.32800293    1.55999994    2.19000006
   11.40444374  138.88800049    1.53999996    2.19000006
   11.40749931  142.37300110    1.53999996    2.21000004
   11.41083336  133.37800598    1.51999998    2.21000004
   11.41388893  148.47999573    1.50000000    2.21000004
   11.41722298  155.96400452    1.48000002    2.21000004
   11.41777802  136.08200073    1.48000002    2.21000004
   11.42083359  206.57400513    1.46000004    2.21000004
   11.42388916  179.46699524    1.46000004    2.21000004
   11.42722225  156.56399536    1.44000006    2.21000004
   11.43055630  141.57299805    1.41999996    2.21000004
   11.43361092  204.73699951    1.39999998    2.23000002
   11.43694496  221.74299622    1.38000000    2.21000004
   11.44027805  208.37300110    1.36000001    2.23000002
   11.44333363  209.82099915    1.34000003    2.21000004
   11.44666672  180.69700623    1.34000003    2.23000002
   11.44972229  201.22200012    1.33000004    2.23000002
   11.45111084  190.07499695    1.30999994    2.23000002
   11.45361137  172.97300720    1.30999994    2.23000002
   11.45666695  149.26100159    1.28999996    2.23000002
   11.46000004  150.34500122    1.26999998    2.23000002
   11.46333313  175.11999512    1.26999998    2.25000000
   11.46638870  168.91299438    1.25000000    2.25000000
   11.46972179  160.21299744    1.23000002    2.25000000
   11.47305489  152.88699341    1.23000002    2.23000002
   11.47611046  143.20399475    1.21000004    2.25000000
   11.47944355  145.33399963    1.19000006    2.25000000
   11.48249912  156.04699707    1.19000006    2.25000000
   11.48444462  149.66600037    1.16999996    2.26999998
   11.48638916  148.08099365    1.16999996    2.25000000
   11.48944473  141.79600525    1.16999996    2.26999998
   11.49277782  166.54600525    1.14999998    2.26999998
   11.49611092  133.90899658    1.14999998    2.25000000
   11.49916649  143.72999573    1.13000000    2.26999998
   11.50249958  137.36999512    1.13000000    2.26999998
   11.50583363  139.05000305    1.11000001    2.25000000
   11.50888920  133.47799683    4.90999985    2.23000002
   11.51222229  123.36000061    1.63000000    2.17000008
   11.51527786  110.48999786    1.78999996    2.17000008
   11.51777744  131.35699463    1.69000006    2.17000008
   11.51916599  116.17900085    1.69000006    2.17000008
   11.52222157  131.35099792    1.66999996    2.19000006
   11.52555561  138.44099426    1.66999996    2.19000006
   11.52888870  120.52700043    1.66999996    2.17000008
   11.53194427  122.97299957    1.66999996    2.19000006
   11.53527832  115.87000275    1.66999996    2.17000008
   11.53861141  126.94100189    1.66999996    2.19000006
   11.54166698  128.32099915    1.66999996    2.19000006
   11.54500008  121.59200287    1.66999996    2.19000006
   11.54805565  126.79699707    1.66999996    2.19000006
   11.55111122  126.21099854    1.66999996    2.19000006
   11.55194473  119.92099762    1.66999996    2.17000008
   11.55500031  117.47899628    1.66999996    2.17000008
   11.55833340  116.95700073    1.66999996    2.19000006
   11.56166649  123.14800262    1.66999996    2.19000006
   11.56472206  105.09899902    1.64999998    2.19000006
   11.56805515  113.66000366    1.64999998    2.19000006
   11.57138920  113.70500183    1.64999998    2.19000006
   11.57444477  115.32199860    1.64999998    2.19000006
   11.57777786  110.74900055    1.64999998    2.21000004
   11.58083344  109.07099915    1.66999996    2.21000004
   11.58416653  116.51399994    1.66999996    2.21000004
   11.58472157  118.89900208    1.66999996    2.21000004
   11.58805561  124.25199890    1.66999996    2.21000004
   11.59111118  125.99800110    1.66999996    2.21000004
   11.59444427  117.28700256    1.66999996    2.21000004
   11.59777737  151.44200134    1.66999996    2.21000004
   11.60083389  132.41799927    1.66999996    2.21000004
   11.60416698  145.30900574    1.66999996    2.21000004
   11.60722256  159.58000183    1.66999996    2.21000004
   11.61055565  144.97300720    1.66999996    2.21000004
   11.61388969  125.02100372    1.66999996    2.23000002
   11.61722279  141.04899597    1.66999996    2.21000004
   11.61805534  118.64800262    1.66999996    2.21000004
   11.62083340  144.92500305    1.66999996    2.21000004
   11.62388897  123.01200104    1.66999996    2.21000004
   11.62722206  117.21700287    1.66999996    2.21000004
   11.63027763  137.79400635    1.66999996    2.23000002
   11.63361073  119.48500061    1.66999996    2.21000004
   11.63694477  125.21600342    1.64999998    2.23000002
   11.64000034  137.53900146    1.64999998    2.23000002
   11.64333344  125.30899811    1.64999998    2.23000002
   11.64666653  116.49700165    1.63000000    2.23000002
   11.64972210  112.27500153    1.63000000    2.23000002
   11.65138817  130.41700745    1.63000000    2.23000002
   11.65361118  117.65299988    1.63000000    2.23000002
   11.65666676  126.20600128    1.63000000    2.23000002
   11.65999985  129.59700012    1.63000000    2.25000000
   11.66333294  128.53500366    1.63000000    2.23000002
   11.66638851  125.66400146    1.63000000    2.23000002
   11.66972256  124.97000122    1.63000000    2.25000000
   11.67277813  123.53399658    1.63000000    2.25000000
   11.67611122  118.77799988    1.63000000    2.25000000
   11.67944431  135.16999817    1.61000001    2.25000000
   11.68249989  125.75199890    1.61000001    2.25000000
   11.68472195  127.92800140    1.61000001    2.25000000
   11.68638897  125.43000031    1.61000001    2.25000000
   11.68944454  142.32200623    1.61000001    2.25000000
   11.69277763  134.34300232    1.61000001    2.25000000
   11.69611073  133.83000183    1.61000001    2.25000000
   11.69916630  129.44400024    1.61000001    2.25000000
   11.70249939  139.62500000    1.61000001    2.25000000
   11.70583344  137.04699707    1.61000001    2.25000000
   11.70888901  131.41400146    1.61000001    2.25000000
   11.71222210  131.63800049    1.63000000    2.26999998
   11.71555519  132.19299316    1.63000000    2.25000000
   11.71805477  130.53100586    1.63000000    2.26999998
   11.71916580  129.99600220    1.63000000    2.26999998
   11.72222137  136.79100037    1.63000000    2.25000000
   11.72555542  123.29000092    1.63000000    2.26999998
   11.72888851  137.31700134    1.63000000    2.26999998
   11.73194408  135.12100220    1.61000001    2.26999998
   11.73527813  125.66500092    1.61000001    2.26999998
   11.73833370  135.92500305    1.61000001    2.28999996
   11.74166679  140.13900757    1.60000002    2.28999996
   11.74499989  129.43200684    1.60000002    2.26999998
   11.74805546  130.05099487    1.60000002    2.26999998
   11.75138855  139.77499390    1.58000004    2.28999996
   11.75194454  130.31199646    1.58000004    2.28999996
   11.75500011  146.43400574    1.55999994    2.28999996
   11.75833321  135.23899841    1.55999994    2.28999996
   11.76166630  138.84599304    1.55999994    2.28999996
   11.76472187  168.08000183    1.55999994    2.28999996
   11.76805496  167.79200745    1.55999994    2.26999998
   11.77111053  177.67599487    1.55999994    2.28999996
   11.77444458  132.94500732    1.55999994    2.28999996
   11.77777767  154.96899414    1.55999994    2.28999996
   11.78083324  131.04600525    1.55999994    2.28999996
   11.78416729  174.49699402    1.53999996    2.28999996
   11.80111122  150.31599426    1.51999998    2.30999994
   11.80416679  122.75599670    1.51999998    2.30999994
   11.80749989  125.03199768    1.51999998    2.28999996
   11.81055546  139.07499695    1.51999998    2.30999994
   11.81388950  142.91200256    1.51999998    2.30999994
   11.81694412  138.27200317    1.51999998    2.30999994
   11.82027817  142.53799438    1.51999998    2.30999994
   11.82361126  143.52400208    1.50000000    2.30999994
   11.82666683  138.32400513    1.51999998    2.32999992
   11.82999992  129.06500244    1.51999998    2.30999994
   11.83333302  147.38900757    1.51999998    2.30999994
   11.83444405  136.81300354    1.51999998    2.32999992
   11.83694458  141.67399597    1.51999998    2.32999992
   11.84000015  126.74299622    1.50000000    2.30999994
   11.84333324  153.04899597    1.50000000    2.32999992
   11.84638882  129.22900391    1.50000000    2.32999992
   11.84972191  129.82499695    1.51999998    2.30999994
   11.85305595  130.97200012    1.51999998    2.32999992
   11.85611153  128.82600403    1.51999998    2.32999992
   11.85944462  130.91999817    1.51999998    2.32999992
   11.86277771  119.72899628    1.51999998    2.32999992
   11.86583328  128.24800110    1.51999998    2.32999992
   11.86777782  131.33000183    1.51999998    2.32999992
   11.86972237  121.93199921    1.51999998    2.32999992
   11.87277794  127.82499695    1.50000000    2.32999992
   11.87611103  130.92500305    1.51999998    2.32999992
   11.87944412  119.29100037    1.51999998    2.32999992
   11.88249969  124.94999695    1.51999998    2.32999992
   11.88583279  141.23100281    1.51999998    2.32999992
   11.88916683  113.92600250    1.51999998    2.34999990
   11.89222240  125.06900024    1.51999998    2.34999990
   11.89555550  122.26200104    1.50000000    2.34999990
   11.89861107  120.18399811    1.50000000    2.32999992
   11.90111065  136.99000549    1.50000000    2.32999992
   11.90249920  133.17199707    1.50000000    2.34999990
   11.90555477  132.70399475    1.50000000    2.32999992
   11.90888882  125.91600037    1.50000000    2.32999992
   11.91222191  115.41899872    1.50000000    2.34999990
   11.91527748  132.83999634    1.51999998    2.34999990
   11.91861153  125.50199890    1.51999998    2.36999989
   11.92166710  134.51199341    1.51999998    2.34999990
   11.92500019  128.04899597    1.51999998    2.34999990
   11.92833328  123.65399933    1.51999998    2.36999989
   11.93138885  114.43499756    1.51999998    2.36999989
   11.93444443  124.69699860    1.50000000    2.34999990
   11.93527794  124.56900024    1.50000000    2.36999989
   11.93833351  109.74600220    1.51999998    2.36999989
   11.94166660  136.16299438    1.51999998    2.36999989
   11.94499969  126.65899658    1.51999998    2.36999989
   11.94805527  111.76100159    1.50000000    2.36999989
   11.95138836  118.14499664    1.50000000    2.36999989
   11.95472240  107.48400116    1.48000002    2.34999990
   11.95777798  132.68099976    1.48000002    2.36999989
   11.96111107  119.29499817    1.48000002    2.36999989
   11.96416664  110.86199951    1.48000002    2.36999989
   11.96749973  119.09799957    1.48000002    2.36999989
   11.96805477  122.18299866    1.48000002    2.36999989
   11.97138882  111.57900238    1.48000002    2.34999990
   11.97444439  122.74900055    1.48000002    2.36999989
   11.97777748  116.86799622    1.48000002    2.36999989
   11.98111057  111.46399689    1.48000002    2.36999989
   11.98416710  117.62500000    1.46000004    2.39000010
   11.98750019  114.32399750    1.46000004    2.36999989
   11.99055576  114.70099640    1.46000004    2.36999989
   11.99388885  123.08000183    1.46000004    2.36999989
   11.99722290  117.91000366    1.44000006    2.36999989
   12.00027752  112.85900116    1.41999996    2.36999989
   12.00138855  112.98200226    1.41999996    2.36999989
   12.00416660  103.11900330    1.41999996    2.36999989
   12.00722218  115.63700104    1.41999996    2.39000010
   12.01055527  112.54499817    1.41999996    2.39000010
   12.01388931  127.16699982    1.41999996    2.39000010
   12.01694393  120.80599976    1.41999996    2.39000010
   12.02027798  116.08899689    1.44000006    2.39000010
   12.02333355  119.25399780    1.44000006    2.39000010
   12.02666664  114.69200134    1.44000006    2.39000010
   12.02999973  105.06099701    1.41999996    2.39000010
   12.03305531  103.74900055    1.41999996    2.39000010
   12.03472233  118.18000031    1.41999996    2.39000010
   12.03694534  117.18299866    1.41999996    2.39000010
   12.04000092  113.99099731    1.41999996    2.39000010
   12.04333401  123.28299713    1.41999996    2.39000010
   12.04666710  106.59799957    1.41999996    2.39000010
   12.04972267  111.32800293    1.41999996    2.39000010
   12.05305576  115.35700226    1.41999996    2.39000010
   12.05611134  108.67900085    1.41999996    2.39000010
   12.05944443  112.15299988    1.41999996    2.40000010
   12.06277752  108.71600342    1.41999996    2.40000010
   12.06583309  106.42199707    1.41999996    2.40000010
   12.06805515  113.19200134    1.41999996    2.40000010
   12.06972218  111.08799744    1.41999996    2.40000010
   12.07277775  117.67400360    1.41999996    2.40000010
   12.07611084  119.13400269    1.41999996    2.40000010
   12.07944393  115.08799744    1.41999996    2.40000010
   12.08249950  108.95899963    1.41999996    2.40000010
   12.08583260  114.93099976    1.41999996    2.40000010
   12.08888817  118.72200012    1.41999996    2.40000010
   12.09222221  119.63999939    1.41999996    2.40000010
   12.09555531  117.09100342    1.39999998    2.42000008
   12.09861088   98.77709961    1.39999998    2.42000008
   12.10138893   99.96330261    1.39999998    2.40000010
   12.10249996  101.88500214    1.39999998    2.42000008
   12.10555553  105.11399841    1.39999998    2.42000008
   12.10888958  104.69200134    1.39999998    2.42000008
   12.11222267  104.92500305    1.39999998    2.40000010
   12.11527824  111.72499847    1.38000000    2.40000010
   12.11861134  114.86399841    1.38000000    2.40000010
   12.12194443   91.59500122    1.38000000    2.40000010
   12.12500000  100.19799805    1.36000001    2.42000008
   12.12833309  107.18299866    1.36000001    2.42000008
   12.13166714  105.94499969    1.34000003    2.42000008
   12.13472176  101.86699677    1.34000003    2.42000008
   12.13527775  100.45500183    1.34000003    2.42000008
   12.13833332  102.71399689    1.34000003    2.42000008
   12.14166641  102.69599915    1.34000003    2.42000008
   12.14499950   99.37819672    1.34000003    2.40000010
   12.14805508  103.67800140    1.33000004    2.42000008
   12.15138817   98.76869965    1.33000004    2.44000006
   12.15444374  104.51300049    1.33000004    2.42000008
   12.15777779   94.39620209    1.34000003    2.42000008
   12.16111088  111.09700012    1.33000004    2.44000006
   12.16416645  100.23100281    1.33000004    2.42000008
   12.16750050  104.08499908    1.33000004    2.42000008
   12.16805553   92.25209808    1.33000004    2.42000008
   12.17111111  105.52799988    1.33000004    2.44000006
   12.17416668   97.70189667    1.33000004    2.42000008
   12.17750072  109.09300232    1.33000004    2.44000006
   12.18083382   98.75440216    1.33000004    2.42000008
   12.18388939  118.80999756    1.33000004    2.44000006
   12.18722248  100.54900360    1.30999994    2.44000006
   12.19027805   99.70349884    1.30999994    2.44000006
   12.19361115  111.68800354    1.30999994    2.44000006
   12.19694424   95.08830261    1.30999994    2.44000006
   12.19999981  105.73699951    1.30999994    2.44000006
   12.20138836  100.78600311    1.30999994    2.44000006
   12.20388889  103.05999756    1.30999994    2.44000006
   12.20694447  103.82700348    1.30999994    2.44000006
   12.21027756  106.85399628    1.30999994    2.44000006
   12.21361065   98.69660187    1.30999994    2.44000006
   12.21666622  108.35399628    1.30999994    2.44000006
   12.21999931  118.19599915    1.30999994    2.44000006
   12.22333336   97.32460022    1.28999996    2.44000006
   12.22638798  104.44200134    1.28999996    2.44000006
   12.22972202  111.45200348    1.28999996    2.46000004
   12.23277760  110.11199951    1.28999996    2.46000004
   12.23500061   98.06500244    1.28999996    2.44000006
   12.23638916  104.90000153    1.26999998    2.46000004
   12.23972225  110.11900330    1.26999998    2.46000004
   12.24305534  104.09100342    1.26999998    2.46000004
   12.24611092  104.50399780    1.26999998    2.46000004
   12.24944496  106.94699860    1.26999998    2.46000004
   12.25277805   98.16110229    1.26999998    2.46000004
   12.25583363  115.04699707    1.26999998    2.46000004
   12.25916672  105.59400177    1.26999998    2.46000004
   12.26222229  111.72200012    1.26999998    2.46000004
   12.26555538  113.42700195    1.26999998    2.46000004
   12.26833344  108.66999817    1.28999996    2.46000004
   12.26916599  111.29799652    1.28999996    2.46000004
   12.27250004  109.46700287    1.28999996    2.46000004
   12.27583313  105.76399994    1.28999996    2.46000004
   12.27944374  107.16400146    1.28999996    2.46000004
   12.28277779  103.31600189    1.28999996    2.46000004
   12.28583336  101.10800171    1.30999994    2.46000004
   12.28916740  104.77600098    1.30999994    2.46000004
   12.29222298   99.04840088    1.28999996    2.48000002
   12.29555607   97.96410370    1.30999994    2.46000004
   12.29888916  104.72699738    1.30999994    2.48000002
   12.30277824  102.82299805    1.30999994    2.48000002
   12.30472279  108.48699951    1.28999996    2.48000002
   12.30805588  105.57800293    1.28999996    2.48000002
   12.31111145  102.97899628    1.28999996    2.48000002
   12.31444454  104.67199707    1.28999996    2.48000002
   12.31777763  107.81199646    1.28999996    2.46000004
   12.32083321  104.52600098    1.26999998    2.48000002
   12.32416630  113.62300110    1.26999998    2.48000002
   12.32722187  104.52100372    1.26999998    2.48000002
   12.33055592   97.64859772    1.28999996    2.48000002
   12.33388901   98.34889984    1.28999996    2.48000002
   12.33500004  107.69499969    1.28999996    2.48000002
   12.33777714   99.08730316    1.28999996    2.48000002
   12.34083271  112.17900085    1.30999994    2.48000002
   12.34416676  111.05999756    1.30999994    2.48000002
   12.34749985  101.00700378    1.30999994    2.48000002
   12.35083389  102.96099854    1.30999994    2.48000002
   12.35416698  106.08999634    1.30999994    2.48000002
   12.35750008  107.29499817    1.30999994    2.48000002
   12.36055565  104.09300232    1.30999994    2.48000002
   12.36388969  105.66999817    1.30999994    2.48000002
   12.36694431   94.35260010    1.30999994    2.48000002
   12.36833382  101.35199738    1.30999994    2.48000002
   12.37083340  105.36299896    1.30999994    2.50000000
   12.37388897  105.65899658    1.33000004    2.48000002
   12.37722206  100.35299683    1.33000004    2.50000000
   12.38027763  100.45400238    1.33000004    2.48000002
   12.38361073  104.94200134    1.34000003    2.48000002
   12.38694477  104.18599701    1.34000003    2.48000002
   12.39000034  104.71099854    1.36000001    2.48000002
   12.39333344  107.09600067    1.36000001    2.48000002
   12.39666653   99.97979736    1.38000000    2.48000002
   12.39972210  100.81500244    1.38000000    2.48000002
   12.40166664  111.67800140    1.38000000    2.48000002
   12.40333271  103.69000244    1.38000000    2.48000002
   12.40666676  101.45200348    1.38000000    2.48000002
   12.40999985   96.76380157    1.38000000    2.48000002
   12.41305542   96.05770111    1.36000001    2.50000000
   12.41638851  107.06300354    1.36000001    2.48000002
   12.41944504  102.50199890    1.36000001    2.48000002
   12.42277813   92.44960022    1.36000001    2.50000000
   12.42611122   98.39659882    1.36000001    2.48000002
   12.42916679   93.68820190    1.36000001    2.48000002
   12.43249989   99.70770264    1.34000003    2.48000002
   12.43500042  100.15499878    1.34000003    2.48000002
   12.43611145  102.49099731    1.34000003    2.48000002
   12.43944454  100.67400360    1.34000003    2.50000000
   12.44277763   94.96119690    1.34000003    2.50000000
   12.44583321  105.08899689    1.36000001    2.50000000
   12.44916630   98.51619720    1.36000001    2.50000000
   12.45222187   97.16519928    1.36000001    2.50000000
   12.45555496   93.01779938    1.36000001    2.50000000
   12.45888901  100.71900177    1.34000003    2.50000000
   12.46194458   98.37239838    1.33000004    2.50000000
   12.46527767   97.66560364    1.33000004    2.50000000
   12.46833324  102.45800018    1.33000004    2.50000000
   12.46888828  105.92600250    1.33000004    2.50000000
   12.47222137   91.73400116    1.33000004    2.50000000
   12.47555542   94.36820221    1.33000004    2.50000000
   12.47861099   99.04499817    1.33000004    2.51999998
   12.48194408  100.23300171    1.33000004    2.51999998
   12.48527813  105.29599762    1.33000004    2.51999998
   12.48833370  103.30899811    1.33000004    2.50000000
   12.49166679  103.23400116    1.33000004    2.50000000
   12.49472237   99.06849670    1.34000003    2.50000000
   12.49805546   95.91120148    1.34000003    2.51999998
   12.50138855  115.92800140    1.34000003    2.51999998
   12.50194454  102.87899780    1.34000003    2.50000000
   12.50500011  112.09899902    1.34000003    2.50000000
   12.50833321  114.89700317    1.33000004    2.50000000
   12.51138878  103.40599823    1.33000004    2.50000000
   12.51472187  104.47599792    1.33000004    2.51999998
   12.51805496  111.71700287    1.33000004    2.51999998
   12.52138901  109.02600098    1.34000003    2.51999998
   12.52444458  104.20800018    1.34000003    2.51999998
   12.52777767   98.90630341    1.34000003    2.51999998
   12.53111076   97.55889893    1.34000003    2.50000000
   12.53416729   96.92150116    1.36000001    2.51999998
   12.53527832   99.47949982    1.36000001    2.51999998
   12.53777790   93.76219940    1.36000001    2.51999998
   12.54111195   94.02429962    1.34000003    2.51999998
   12.54444504  105.13300323    1.36000001    2.51999998
   12.54750061  100.87300110    1.36000001    2.51999998
   12.55083370   96.81739807    1.36000001    2.51999998
   12.55416679   96.08470154    1.36000001    2.51999998
   12.55722237   95.86000061    1.36000001    2.51999998
   12.56055546  108.21800232    1.36000001    2.51999998
   12.56361103  108.99800110    1.38000000    2.51999998
   12.56694412  100.34400177    1.38000000    2.51999998
   12.56861115  105.16500092    1.36000001    2.51999998
   12.57055569   96.95099640    1.36000001    2.51999998
   12.57388878  115.84100342    1.36000001    2.51999998
   12.57722187  100.06999969    1.36000001    2.51999998
   12.58027744   92.37609863    1.36000001    2.53999996
   12.58361053   97.27880096    1.36000001    2.51999998
   12.58666611  101.39099884    1.36000001    2.51999998
   12.59000015   96.97170258    1.36000001    2.51999998
   12.59333324  112.32099915    1.36000001    2.53999996
   12.59638882  112.05100250    1.38000000    2.53999996
   12.59972191  101.65599823    1.38000000    2.53999996
   12.60194492   96.86560059    1.36000001    2.51999998
   12.60333347  100.62100220    1.36000001    2.51999998
   12.60666752  107.33899689    1.36000001    2.51999998
   12.61000061  100.35600281    1.36000001    2.51999998
   12.61305618   92.49240112    1.36000001    2.51999998
   12.61638927  104.01100159    1.34000003    2.53999996
   12.61944485  111.83200073    1.34000003    2.51999998
   12.62277794  105.44000244    1.34000003    2.53999996
   12.62611103  103.61699677    1.33000004    2.53999996
   12.62916660  107.45999908    1.33000004    2.53999996
   12.63249969  100.05500031    1.33000004    2.53999996
   12.63527775  106.32700348    1.33000004    2.53999996
   12.63611126  110.79100037    1.33000004    2.53999996
   12.63944435  105.04299927    1.34000003    2.53999996
   12.64277744  102.97799683    1.34000003    2.53999996
   12.64583302  103.97299957    1.34000003    2.53999996
   12.64916611  102.11699677    1.34000003    2.53999996
   12.65222168  110.88500214    1.34000003    2.53999996
   12.65555477  102.81400299    1.34000003    2.53999996
   12.65888882   96.78459930    1.34000003    2.53999996
   12.66194439  104.44499969    1.34000003    2.53999996
   12.66527748  105.24900055    1.34000003    2.55999994
   12.66861153  105.26100159    1.34000003    2.55999994
   12.66888905  103.30300140    1.34000003    2.53999996
   12.67222214  107.01499939    1.36000001    2.55999994
   12.67555618   98.09130096    1.36000001    2.53999996
   12.67861176  104.52600098    1.36000001    2.55999994
   12.68194485  100.44499969    1.36000001    2.53999996
   12.68500042  106.46299744    1.38000000    2.55999994
   12.68833351  116.59899902    1.38000000    2.53999996
   12.69166660  109.80200195    1.38000000    2.55999994
   12.69472218  103.88800049    1.38000000    2.53999996
   12.69805527  107.35800171    1.38000000    2.55999994
   12.70138836  108.60299683    1.38000000    2.55999994
   12.70194435  110.11299896    1.38000000    2.55999994
   12.70472240  104.35299683    1.38000000    2.55999994
   12.70805550  112.13099670    1.38000000    2.55999994
   12.71138859  114.51899719    1.39999998    2.55999994
   12.71472168  102.20899963    1.39999998    2.53999996
   12.71777725  110.60299683    1.39999998    2.55999994
   12.72111034  112.27400208    1.39999998    2.55999994
   12.72444439  110.06099701    1.39999998    2.55999994
   12.72749996   98.70469666    1.39999998    2.55999994
   12.73083305  109.60800171    1.39999998    2.55999994
   12.73416710  110.79000092    1.39999998    2.53999996
   12.73527813  100.05599976    1.39999998    2.55999994
   12.73777771  114.24099731    1.39999998    2.55999994
   12.74083328  111.98999786    1.38000000    2.55999994
   12.74416733  106.99400330    1.38000000    2.55999994
   12.74722290  108.07399750    1.39999998    2.55999994
   12.75055599  101.28700256    1.39999998    2.55999994
   12.75361156  106.23000336    1.39999998    2.57999992
   12.75694466  100.51699829    1.39999998    2.57999992
   12.76027775  108.74800110    1.39999998    2.57999992
   12.76333332   96.33080292    1.39999998    2.55999994
   12.76666641  101.45800018    1.38000000    2.55999994
   12.76861095  107.63999939    1.38000000    2.55999994
   12.77027798  108.26499939    1.38000000    2.55999994
   12.77361107  101.18499756    1.38000000    2.55999994
   12.77694416  112.42800140    1.38000000    2.55999994
   12.77999973   99.45159912    1.38000000    2.55999994
   12.78333378  111.79299927    1.36000001    2.55999994
   12.78666687  105.44300079    1.36000001    2.55999994
   12.78972244   98.76850128    1.36000001    2.57999992
   12.79305553  103.10900116    1.34000003    2.55999994
   12.79611111  108.51000214    1.36000001    2.55999994
   12.79944515  106.57199860    1.36000001    2.55999994
   12.81777763  102.60199738    1.44000006    2.55999994
   12.81916618  109.26699829    1.44000006    2.55999994
   12.82250023  113.57900238    1.46000004    2.55999994
   12.82583332  106.71800232    1.46000004    2.57999992
   12.82888889   99.41110229    1.46000004    2.57999992
   12.83222198   99.15660095    1.46000004    2.57999992
   12.83555508   99.69490051    1.46000004    2.57999992
   12.83861065  100.75900269    1.48000002    2.55999994
   12.84194374   99.21980286    1.46000004    2.57999992
   12.84499931  100.84200287    1.46000004    2.55999994
   12.84833336  102.98000336    1.46000004    2.57999992
   12.85111141   97.90850067    1.46000004    2.57999992
   12.85194492   96.26509857    1.46000004    2.55999994
   12.85527802   98.29540253    1.46000004    2.57999992
   12.85833359   98.10859680    1.46000004    2.57999992
   12.86166668   98.58290100    1.46000004    2.57999992
   12.86500072   99.11060333    1.46000004    2.57999992
   12.86805534  100.79399872    1.46000004    2.57999992
   12.87138939   95.69969940    1.48000002    2.57999992
   12.87444496  100.71700287    1.48000002    2.55999994
   12.87777805  101.44999695    1.48000002    2.57999992
   12.88111115   98.27159882    1.48000002    2.55999994
   12.88444424  105.04399872    1.50000000    2.57999992
   12.88472176   90.08820343    1.50000000    2.57999992
   12.88805580  103.12400055    1.50000000    2.59999990
   12.89138889  102.08300018    1.50000000    2.57999992
   12.89444447   97.62819672    1.51999998    2.57999992
   12.89777756   97.49939728    1.53999996    2.57999992
   12.90083313   98.78099823    1.53999996    2.57999992
   12.90416622   98.94560242    1.53999996    2.57999992
   12.90749931   97.55269623    1.53999996    2.55999994
   12.91055489  101.12300110    1.53999996    2.57999992
   12.91388893  106.83599854    1.55999994    2.57999992
   12.91722298  105.50299835    1.53999996    2.57999992
   12.91777802  100.22599792    1.53999996    2.57999992
   12.92055607  102.23999786    1.53999996    2.57999992
   12.92388916  102.54499817    1.51999998    2.57999992
   12.92722225   96.97889709    1.51999998    2.57999992
   12.93027782   95.67859650    1.50000000    2.59999990
   12.93361092  102.17700195    1.50000000    2.57999992
   12.93666649   94.29149628    1.50000000    2.57999992
   12.94000053  105.14700317    1.48000002    2.57999992
   12.94333363   94.76419830    1.48000002    2.59999990
   12.94638920   90.61759949    1.46000004    2.57999992
   12.94972229  100.53800201    1.46000004    2.59999990
   12.95111084   93.70030212    1.46000004    2.59999990
   12.95333290   88.82050323    1.48000002    2.57999992
   12.95666695   91.06980133    1.48000002    2.57999992
   12.96000004   96.99430084    1.50000000    2.59999990
   12.96305561   95.03759766    1.50000000    2.59999990
   12.96638870  101.59999847    1.50000000    2.59999990
   12.96972179   89.03690338    1.50000000    2.59999990
   12.97277737   98.13800049    1.50000000    2.59999990
   12.97611046   99.47869873    1.50000000    2.59999990
   12.97944355   99.34690094    1.51999998    2.59999990
   12.98249912  101.30400085    1.53999996    2.59999990
   12.98444462  104.12100220    1.51999998    2.59999990
   12.98611164   96.84799957    1.53999996    2.59999990
   12.98944473   96.13710022    1.53999996    2.59999990
   12.99277782  106.81900024    1.53999996    2.59999990
   12.99583340  100.47499847    1.53999996    2.59999990
   12.99916649  108.84500122    1.53999996    2.59999990
   13.00222206   92.97619629    1.53999996    2.59999990
   13.00555515   97.72630310    1.51999998    2.59999990
   13.00888920   95.89199829    1.51999998    2.59999990
   13.01194477   92.07170105    1.50000000    2.59999990
   13.01527786  105.21199799    1.50000000    2.59999990
   13.01777744   99.46690369    1.51999998    2.59999990
   13.01888847  100.13099670    1.51999998    2.59999990
   13.02222157   96.15910339    1.51999998    2.59999990
   13.02555561   89.61720276    1.51999998    2.59999990
   13.02861118   94.53389740    1.51999998    2.61999989
   13.03194427   90.66100311    1.51999998    2.59999990
   13.03500080   94.92620087    1.51999998    2.59999990
   13.03833389  101.52400208    1.50000000    2.59999990
   13.04166698   94.20680237    1.48000002    2.59999990
   13.04472256   96.19689941    1.48000002    2.59999990
   13.04805565   98.07219696    1.46000004    2.59999990
   13.05111122   98.61329651    1.44000006    2.61999989
   13.05166721   99.43209839    1.44000006    2.61999989
   13.05500031   95.52300262    1.44000006    2.61999989
   13.05833340  100.80999756    1.44000006    2.59999990
   13.06138897  111.79299927    1.46000004    2.59999990
   13.06472206  115.38899994    1.46000004    2.59999990
   13.06777763  107.07800293    1.48000002    2.61999989
   13.07111073  101.93000031    1.48000002    2.61999989
   13.07444477   98.55239868    1.48000002    2.61999989
   13.07750034  104.73400116    1.48000002    2.61999989
   13.08083344   89.61039734    1.44000006    2.59999990
   13.08416653   97.10549927    1.41999996    2.59999990
   13.08444405  100.87300110    1.41999996    2.59999990
   13.08777714  100.96199799    1.38000000    2.59999990
   13.09111118   89.90100098    1.38000000    2.61999989
   13.09416676  100.97399902    1.38000000    2.61999989
   13.09749985   94.57769775    1.39999998    2.59999990
   13.10083389   98.90650177    1.39999998    2.61999989
   13.10388947   96.80110168    1.39999998    2.61999989
   13.10722256   93.35910034    1.41999996    2.61999989
   13.11055565   85.48549652    1.41999996    2.61999989
   13.11361122   93.32700348    1.46000004    2.61999989
   13.11694431   90.43270111    1.48000002    2.61999989
   13.11777782   93.52500153    1.48000002    2.59999990
   13.12055588  102.52500153    1.48000002    2.59999990
   13.12388897   91.81120300    1.48000002    2.61999989
   13.12694454  104.56800079    1.48000002    2.61999989
   13.13027763  103.04299927    1.46000004    2.61999989
   13.13361073   97.43900299    1.46000004    2.61999989
   13.13666630   89.14920044    1.46000004    2.61999989
   13.14000034   93.63449860    1.46000004    2.61999989
   13.14333344   93.74019623    1.46000004    2.61999989
   13.14638901   90.86650085    1.46000004    2.61999989
   13.14972210   90.63089752    1.44000006    2.61999989
   13.15138817   88.99279785    1.44000006    2.64000010
   13.15333271   98.83170319    1.44000006    2.61999989
   13.15666676   98.80229950    1.44000006    2.64000010
   13.15972137  104.60500336    1.46000004    2.61999989
   13.16305542   93.20790100    1.46000004    2.64000010
   13.16638851   97.40360260    1.46000004    2.64000010
   13.16944504   93.26959991    1.48000002    2.64000010
   13.17277813   91.59230042    1.48000002    2.64000010
   13.17611122   89.66429901    1.48000002    2.64000010
   13.17916679   90.54959869    1.50000000    2.61999989
   13.18249989   90.71600342    1.48000002    2.64000010
   13.18472195   90.43789673    1.48000002    2.64000010
   13.18611145   94.92489624    1.50000000    2.61999989
   13.18944454   92.84989929    1.48000002    2.64000010
   13.19250011   94.47989655    1.48000002    2.64000010
   13.19583321   86.59230042    1.48000002    2.64000010
   13.19916630   91.03919983    1.48000002    2.64000010
   13.20222187   95.99079895    1.48000002    2.64000010
   13.20555496   94.70310211    1.48000002    2.64000010
   13.20888901   93.85310364    1.46000004    2.64000010
   13.21194458   89.87460327    1.48000002    2.61999989
   13.21527767   87.30049896    1.48000002    2.64000010
   13.21805477   94.65160370    1.48000002    2.64000010
   13.21888828   88.63339996    1.48000002    2.64000010
   13.22222137  101.51000214    1.48000002    2.64000010
   13.22555542   94.08190155    1.48000002    2.64000010
   13.22861099   97.88110352    1.48000002    2.64000010
   13.23194408   89.74310303    1.48000002    2.64000010
   13.23500061   92.66320038    1.48000002    2.64000010
   13.23833370   99.55020142    1.48000002    2.64000010
   13.24166679  102.14600372    1.48000002    2.66000009
   13.24472237   98.17919922    1.48000002    2.64000010
   13.24805546   91.20390320    1.48000002    2.66000009
   13.25138855  106.68199921    1.46000004    2.64000010
   13.25166702  109.58499908    1.46000004    2.64000010
   13.25500011  100.32800293    1.46000004    2.64000010
   13.25833321  107.32099915    1.46000004    2.64000010
   13.26138878   97.58159637    1.44000006    2.64000010
   13.26472187   97.53450012    1.44000006    2.64000010
   13.26777744  102.12200165    1.44000006    2.64000010
   13.27111053   96.68039703    1.41999996    2.64000010
   13.27444458   93.79840088    1.41999996    2.64000010
   13.27750015   97.85959625    1.41999996    2.66000009
   13.28083324  107.78700256    1.41999996    2.66000009
   13.28416729   87.26290131    1.38000000    2.64000010
   13.28472233  103.73200226    1.38000000    2.64000010
   13.28750038   95.17350006    1.38000000    2.64000010
   13.29083347  102.12799835    1.38000000    2.64000010
   13.29416752   95.30339813    1.38000000    2.64000010
   13.29722309  102.66200256    1.36000001    2.64000010
   13.30055618   98.50019836    1.36000001    2.66000009
   13.30361176  100.62999725    1.36000001    2.64000010
   13.30694485  113.31500244    1.36000001    2.64000010
   13.31027794   94.45449829    1.36000001    2.66000009
   13.31333351   91.79730225    1.36000001    2.66000009
   13.31666660   95.51460266    1.36000001    2.66000009
   13.31805515   89.79010010    1.36000001    2.64000010
   13.32027817   98.77500153    1.38000000    2.66000009
   13.32361126  107.59100342    1.39999998    2.64000010
   13.32694435   96.95619965    1.39999998    2.66000009
   13.32999992   97.41649628    1.39999998    2.66000009
   13.33333302   93.30400085    1.38000000    2.66000009
   13.33638859   97.89939880    1.38000000    2.64000010
   13.33972168   99.05799866    1.36000001    2.64000010
   13.34305477   97.56140137    1.36000001    2.64000010
   13.34611034   98.71140289    1.36000001    2.64000010
   13.34944439   92.96489716    1.36000001    2.66000009
   13.35138893   93.94059753    1.36000001    2.66000009
   13.35305595   95.62020111    1.36000001    2.66000009
   13.35638905   97.97650146    1.36000001    2.66000009
   13.35972214   99.07969666    1.36000001    2.66000009
   13.36277771   87.10410309    1.36000001    2.66000009
   13.36611176   94.86499786    1.36000001    2.66000009
   13.36916637   92.25009918    1.36000001    2.66000009
   13.37250042  100.31900024    1.34000003    2.66000009
   13.37583351   97.58270264    1.34000003    2.66000009
   13.37888908   88.37550354    1.34000003    2.66000009
   13.38222218   93.98470306    1.33000004    2.66000009
   13.38472176   91.82180023    1.33000004    2.67000008
   13.38611126   79.01820374    1.33000004    2.67000008
   13.38916683   79.98130035    1.33000004    2.66000009
   13.39249992   88.87049866    1.30999994    2.66000009
   13.39555550   92.73390198    1.28999996    2.67000008
   13.39888859   88.50309753    1.28999996    2.67000008
   13.40222168   92.38009644    1.28999996    2.67000008
   13.40527725   89.24089813    1.26999998    2.67000008
   13.40861034   99.08969879    1.26999998    2.66000009
   13.41166592   94.86640167    1.26999998    2.66000009
   13.41499996  101.67900085    1.26999998    2.67000008
   13.41805553   99.33850098    1.26999998    2.67000008
   13.41861153   90.01570129    1.26999998    2.67000008
   13.42194462  101.35399628    1.26999998    2.66000009
   13.42527771   98.92469788    1.26999998    2.67000008
   13.42833328   86.39279938    1.26999998    2.66000009
   13.43166733   96.95780182    1.26999998    2.66000009
   13.43500042   90.39949799    1.26999998    2.66000009
   13.43805599   81.37079620    1.25000000    2.67000008
   13.44138908   90.39900208    1.25000000    2.67000008
   13.44444466   97.34429932    1.25000000    2.66000009
   13.44777775   85.99369812    1.25000000    2.67000008
   13.45111084   92.11000061    1.23000002    2.67000008
   13.45166683   88.91929626    1.23000002    2.67000008
   13.45472240   88.74479675    1.23000002    2.67000008
   13.45805550   85.90889740    1.23000002    2.67000008
   13.46111107   94.94120026    1.23000002    2.67000008
   13.46444416   89.13030243    1.21000004    2.67000008
   13.46777725   85.22589874    1.21000004    2.66000009
   13.47083282   90.68360138    1.21000004    2.67000008
   13.47416592   89.80249786    1.21000004    2.67000008
   13.47749996   93.81130219    1.21000004    2.67000008
   13.48055553   82.58000183    1.21000004    2.67000008
   13.48388958   91.09249878    1.21000004    2.67000008
   13.48500061   88.18219757    1.21000004    2.67000008
   13.48750019   96.80500031    1.21000004    2.67000008
   13.49083328   84.96589661    1.19000006    2.67000008
   13.49388885   89.99620056    1.19000006    2.67000008
   13.49722290   97.29419708    1.19000006    2.67000008
   13.50055599   89.83319855    1.19000006    2.67000008
   13.50361156   93.45490265    1.16999996    2.67000008
   13.50694466   91.49430084    1.16999996    2.67000008
   13.51027775   85.86460114    1.16999996    2.67000008
   13.51333332   95.47509766    1.16999996    2.67000008
   13.51666641   85.83190155    1.16999996    2.67000008
   13.51833344   83.07009888    1.16999996    2.67000008
   13.52027798   89.68890381    1.16999996    2.69000006
   13.52361107   84.61389923    1.16999996    2.69000006
   13.52666664   91.17939758    1.16999996    2.67000008
   13.52999973   85.62030029    1.16999996    2.67000008
   13.53333378   88.38970184    1.16999996    2.67000008
   13.53638935   83.21160126    1.16999996    2.67000008
   13.53972244   95.35099792    1.16999996    2.67000008
   13.54305553   90.03579712    1.16999996    2.67000008
   13.54611111   91.71029663    1.16999996    2.69000006
   13.54944515   80.11170197    1.16999996    2.67000008
   13.55166721   83.66490173    1.16999996    2.67000008
   13.55305576   87.96299744    1.16999996    2.67000008
   13.55638885   87.61579895    1.16999996    2.67000008
   13.55972195   86.57679749    1.19000006    2.67000008
   13.67277813   -1.00000000   -1.00000000   -1.00000000
   13.76999950   -1.00000000   -1.00000000   -1.00000000
   13.87027836   -1.00000000   -1.00000000   -1.00000000
   13.93027782   69.43689728    1.13000000    2.71000004
   13.93361092   87.95259857    1.13000000    2.69000006
   13.93694496   99.84919739    1.13000000    2.69000006
   13.94000053   98.18779755    1.13000000    2.67000008
   13.94333363   89.49669647    1.13000000    2.71000004
   13.94666672   96.38950348    1.13000000    2.69000006
   13.94972229   88.69809723    1.13000000    2.71000004
   13.95305538   87.47820282    1.13000000    2.71000004
   13.95638847   92.56909943    1.11000001    2.71000004
   13.95944405  104.41899872    1.11000001    2.71000004
   13.96277714   86.06439972    1.11000001    2.71000004
   13.96361065   92.49909973    1.11000001    2.71000004
   13.96638870   93.92489624    1.11000001    2.71000004
   13.96944427   87.45989990    1.11000001    2.71000004
   13.97277737   91.04640198    1.11000001    2.71000004
   13.97611046   99.15899658    1.11000001    2.71000004
   13.97916603   95.30300140    1.11000001    2.71000004
   13.98249912   98.06310272    1.11000001    2.71000004
   13.98555565   97.99669647    1.13000000    2.69000006
   13.98888874   93.75050354    1.11000001    2.71000004
   13.99222279   94.61119843    1.11000001    2.71000004
   13.99527836   94.59439850    1.11000001    2.71000004
   13.99694443   85.19650269    1.11000001    2.71000004
   13.99916649   94.88510132    1.11000001    2.69000006
   14.00222206   91.53790283    1.13000000    2.71000004
   14.00555515  100.72200012    1.13000000    2.71000004
   14.00888920   86.01190186    1.13000000    2.71000004
   14.01194477   90.13790131    1.13000000    2.73000002
   14.01527786   83.63349915    1.14999998    2.71000004
   14.01833344   92.28749847    1.14999998    2.69000006
   14.02166653   90.83399963    1.14999998    2.71000004
   14.02499962   88.08200073    1.14999998    2.69000006
   14.02805519   92.30159760    1.14999998    2.71000004
   14.03027725   89.61679840    1.14999998    2.71000004
   14.03194427   95.54640198    1.14999998    2.71000004
   14.03500080   91.74659729    1.14999998    2.71000004
   14.03833389   88.62570190    1.14999998    2.71000004
   14.04166698   93.67870331    1.14999998    2.71000004
   14.04472256   84.48359680    1.14999998    2.71000004
   14.04805565   93.28929901    1.14999998    2.71000004
   14.05111122   89.91860199    1.14999998    2.69000006
   14.05444431   82.29620361    1.14999998    2.69000006
   14.05777836   93.45220184    1.14999998    2.71000004
   14.06083393  108.12699890    1.14999998    2.71000004
   14.06361103   97.44519806    1.14999998    2.73000002
   14.06472206   96.26470184    1.14999998    2.73000002
   14.06777763   95.80380249    1.14999998    2.73000002
   14.07111073   92.93080139    1.14999998    2.71000004
   14.07444477  100.07199860    1.14999998    2.71000004
   14.07750034   96.34140015    1.14999998    2.71000004
   14.08083344   89.97630310    1.14999998    2.71000004
   14.08416653   92.78209686    1.14999998    2.69000006
   14.08722210   87.54129791    1.14999998    2.71000004
   14.09055519   98.59559631    1.14999998    2.71000004
   14.09361076   93.73280334    1.14999998    2.73000002
   14.09694386   98.03089905    1.14999998    2.71000004
   14.09749985   86.37100220    1.14999998    2.71000004
   14.10055637   96.02169800    1.14999998    2.71000004
   14.10388947   80.13890076    1.14999998    2.73000002
   14.10722256   88.85600281    1.14999998    2.71000004
   14.11027813   96.77649689    1.14999998    2.71000004
   14.11361122   90.08170319    1.14999998    2.71000004
   14.11694431   85.93090057    1.14999998    2.71000004
   14.11999989   97.30870056    1.14999998    2.71000004
   14.12333393   98.26069641    1.14999998    2.73000002
   14.12638855   81.70439911    1.14999998    2.71000004
   14.12972260   92.10810089    1.14999998    2.71000004
   14.13027763   90.87310028    1.14999998    2.71000004
   14.13333321   94.83670044    1.14999998    2.71000004
   14.13638878   99.67060089    1.14999998    2.69000006
   14.13972187  109.00299835    1.14999998    2.73000002
   14.14305496   89.11389923    1.14999998    2.71000004
   14.14611053   95.58020020    1.14999998    2.71000004
   14.14944458   92.83190155    1.14999998    2.71000004
   14.15277767   92.32450104    1.14999998    2.71000004
   14.15583324   90.98079681    1.14999998    2.71000004
   14.15916634   89.49330139    1.13000000    2.71000004
   14.16222191   88.99649811    1.14999998    2.71000004
   14.16361046   95.13269806    1.14999998    2.71000004
   14.16611099   89.51090240    1.14999998    2.71000004
   14.16916656   81.55110168    1.14999998    2.71000004
   14.17250061   79.08470154    1.14999998    2.71000004
   14.17583370   91.91570282    1.14999998    2.73000002
   14.17888927   93.57240295    1.14999998    2.71000004
   14.18222237   93.93640137    1.14999998    2.73000002
   14.18555546   87.40760040    1.16999996    2.71000004
   14.18861103   85.45659637    1.16999996    2.71000004
   14.19194412   88.02639771    1.16999996    2.71000004
   14.19527817   88.82790375    1.16999996    2.71000004
   14.19694424   86.47239685    1.16999996    2.71000004
   14.19888878   88.22679901    1.16999996    2.71000004
   14.20194435   92.35810089    1.16999996    2.71000004
   14.20527744   87.70780182    1.16999996    2.71000004
   14.20861053   83.72779846    1.19000006    2.73000002
   14.21166611   98.37059784    1.19000006    2.71000004
   14.21500015   83.29669952    1.19000006    2.71000004
   14.21833324   78.53389740    1.19000006    2.73000002
   14.22138882   85.97560120    1.19000006    2.71000004
   14.22472191   81.43990326    1.16999996    2.71000004
   14.22777748   78.49710083    1.16999996    2.71000004
   14.23027706   78.40170288    1.19000006    2.73000002
   14.23166656   89.82550049    1.19000006    2.71000004
   14.23500061   81.56700134    1.16999996    2.71000004
   14.23805618   86.22080231    1.16999996    2.71000004
   14.24138927   95.67919922    1.16999996    2.71000004
   14.24444485   81.36450195    1.16999996    2.71000004
   14.24777794   96.58149719    1.16999996    2.71000004
   14.25111103   83.61029816    1.16999996    2.73000002
   14.25416660   77.66339874    1.16999996    2.71000004
   14.25749969   87.74790192    1.16999996    2.71000004
   14.26083374   92.40529633    1.16999996    2.71000004
   14.26361084   87.87879944    1.16999996    2.71000004
   14.26444435   82.96549988    1.16999996    2.71000004
   14.26749992   90.77539825    1.16999996    2.71000004
   14.27083302   86.17739868    1.16999996    2.71000004
   14.27416611   97.29699707    1.19000006    2.73000002
   14.27722168   85.93170166    1.19000006    2.73000002
   14.28055573   77.81410217    1.16999996    2.71000004
   14.28388977   85.04750061    1.16999996    2.73000002
   14.28694534   91.86270142    1.16999996    2.71000004
   14.29027843   91.81980133    1.16999996    2.71000004
   14.29361153   91.88059998    1.16999996    2.71000004
   14.29666710   96.93299866    1.16999996    2.73000002
   14.29722309   84.52189636    1.16999996    2.71000004
   14.30055618   86.44439697    1.16999996    2.71000004
   14.30361176   90.95790100    1.16999996    2.71000004
   14.30694485   93.44490051    1.16999996    2.73000002
   14.31027794   79.44979858    1.14999998    2.73000002
   14.31333351   82.05220032    1.16999996    2.73000002
   14.31666660   83.52140045    1.16999996    2.73000002
   14.31999969   89.80670166    1.19000006    2.73000002
   14.32305527   85.34320068    1.19000006    2.71000004
   14.32638836   83.57309723    1.19000006    2.73000002
   14.32944393   92.26770020    1.19000006    2.73000002
   14.33055592   91.56479645    1.19000006    2.71000004
   14.33333302   81.51529694    1.16999996    2.71000004
   14.33638859   89.59549713    1.16999996    2.71000004
   14.33972168   82.45330048    1.16999996    2.73000002
   14.34305477   92.62169647    1.16999996    2.75000000
   14.34611034   86.08209991    1.16999996    2.73000002
   14.34944439   85.70860291    1.16999996    2.75000000
   14.35277843   82.61750031    1.16999996    2.73000002
   14.35583401   85.21060181    1.16999996    2.73000002
   14.35916710   75.55539703    1.16999996    2.75000000
   14.36250019   81.21890259    1.14999998    2.75000000
   14.36388969   86.72879791    1.14999998    2.71000004
   14.36611176   82.08429718    1.14999998    2.73000002
   14.36916637   86.60959625    1.14999998    2.73000002
   14.37250042   80.86129761    1.14999998    2.73000002
   14.37583351   89.03970337    1.14999998    2.75000000
   14.37888908   85.38780212    1.14999998    2.73000002
   14.38222218   76.96620178    1.14999998    2.73000002
   14.38555527   82.59929657    1.14999998    2.73000002
   14.38861084   84.33959961    1.13000000    2.71000004
   14.39194393   80.76100159    1.13000000    2.75000000
   14.39499950   78.69960022    1.13000000    2.73000002
   14.39722252   88.27210236    1.13000000    2.73000002
   14.39888859   95.50810242    1.13000000    2.73000002
   14.40194416   96.13220215    1.13000000    2.75000000
   14.40527725   94.92440033    1.11000001    2.75000000
   14.40861034   87.73400116    1.11000001    2.73000002
   14.41166592   88.48500061    1.11000001    2.73000002
   14.41499996   92.34040070    1.11000001    2.75000000
   14.41833401   91.01589966    1.11000001    2.75000000
   14.42138958   87.24069977    1.09000003    2.73000002
   14.42472267   77.52580261    1.09000003    2.75000000
   14.42777824   85.92130280    1.09000003    2.75000000
   14.43055630   80.75289917    1.07000005    2.75000000
   14.43166733   86.70420074    1.07000005    2.75000000
   14.43472195   95.10379791    1.07000005    2.75000000
   14.43833351   92.14640045    1.07000005    2.75000000
   14.44138908   91.86630249    1.07000005    2.75000000
   14.44472218   92.67559814    1.07000005    2.75000000
   14.44805527   90.39189911    1.07000005    2.73000002
   14.45111084   79.63739777    1.07000005    2.76999998
   14.45444393   83.93379974    1.07000005    2.75000000
   14.45777798   88.98899841    1.05999994    2.75000000
   14.46083355   86.10440063    1.07000005    2.75000000
   14.46388912   80.42250061    1.05999994    2.75000000
   14.46444416   81.82019806    1.07000005    2.73000002
   14.46749973   84.41899872    1.07000005    2.71000004
   14.47083282   80.94860077    1.09000003    2.73000002
   14.47416592   92.39450073    1.09000003    2.75000000
   14.47722149   78.49310303    1.09000003    2.75000000
   14.48055553   83.93900299    1.11000001    2.75000000
   14.48388958   86.89199829    1.11000001    2.75000000
   14.48694515   87.32900238    1.13000000    2.75000000
   14.49027824   84.46510315    1.14999998    2.75000000
   14.49333382   82.05220032    1.14999998    2.75000000
   14.49666691   92.94180298    1.14999998    2.75000000
   14.49722290  100.07299805    1.14999998    2.75000000
   14.50027752   99.42729950    1.16999996    2.75000000
   14.50333309   82.57730103    1.16999996    2.75000000
   14.50666714   91.67919922    1.19000006    2.75000000
   14.51000023   94.64089966    1.19000006    2.75000000
   14.51305580   79.13999939    1.21000004    2.75000000
   14.51638889   80.80760193    1.21000004    2.75000000
   14.51972198   89.13459778    1.21000004    2.73000002
   14.52277756   91.87460327    1.21000004    2.75000000
   14.52611065   90.16230011    1.21000004    2.71000004
   14.52916622   84.34490204    1.21000004    2.73000002
   14.53055573   86.85579681    1.21000004    2.73000002
   14.53305531   82.84120178    1.21000004    2.75000000
   14.53611183   93.04129791    1.21000004    2.75000000
   14.53944492   88.61930084    1.21000004    2.75000000
   14.54277802   92.02529907    1.19000006    2.71000004
   14.54583359   93.03769684    1.19000006    2.75000000
   14.54916668   88.75879669    1.19000006    2.75000000
   14.55249977   91.65609741    1.16999996    2.75000000
   14.55555534   91.99410248    1.16999996    2.75000000
   14.55888939   96.96859741    1.16999996    2.75000000
   14.56194496   98.62570190    1.14999998    2.75000000
   14.56388950   90.20880127    1.14999998    2.75000000
   14.56583309   95.42109680    1.14999998    2.75000000
   14.56916618   88.85119629    1.14999998    2.75000000
   14.57222176  100.58899689    1.13000000    2.75000000
   14.57555580  108.00499725    1.14999998    2.75000000
   14.57861137   75.71320343    1.13000000    2.75000000
   14.58194447   88.72709656    1.13000000    2.75000000
   14.58527756  103.33999634    1.13000000    2.75000000
   14.58833313   84.71730042    1.13000000    2.75000000
   14.59166622   96.41529846    1.13000000    2.75000000
   14.59583282   90.38950348    1.11000001    2.75000000
   14.59722233   83.45130157    1.11000001    2.75000000
   14.60000038   73.40339661    1.11000001    2.75000000
   14.60333347   86.45459747    1.11000001    2.76999998
   14.60638905   92.42649841    1.13000000    2.75000000
   14.60972214   88.50219727    1.11000001    2.75000000
   14.61277771   90.96710205    1.11000001    2.75000000
   14.61611176   84.16089630    1.11000001    2.75000000
   14.61944485   85.66570282    1.11000001    2.75000000
   14.62250042   83.17089844    1.11000001    2.76999998
   14.62583351   88.01969910    1.13000000    2.76999998
   14.62888908   92.99610138    1.13000000    2.75000000
   14.63055611   93.06739807    1.13000000    2.75000000
   14.63277817   85.63099670    1.14999998    2.76999998
   14.63583279   86.08979797    1.14999998    2.75000000
   14.63916683   78.99389648    1.14999998    2.75000000
   14.64249992   82.45259857    1.13000000    2.75000000
   14.64555550   83.38249969    1.13000000    2.73000002
   14.64888859   85.00830078    1.11000001    2.75000000
   14.65194416   79.98840332    1.11000001    2.76999998
   14.65527725   86.04360199    1.11000001    2.75000000
   14.65861034   81.13200378    1.13000000    2.76999998
   14.66194439   92.17449951    1.11000001    2.75000000
   14.66499996   86.66850281    1.11000001    2.75000000
   14.66666698   74.71869659    1.11000001    2.75000000
   14.66972256   88.46649933    1.11000001    2.76999998
   14.67305565  101.30899811    1.13000000    2.75000000
   14.67638874  100.45800018    1.11000001    2.76999998
   14.67944431   86.90499878    1.11000001    2.76999998
   14.68277836   78.11070251    1.11000001    2.76999998
   14.68583298   81.50930023    1.11000001    2.75000000
   14.68916702   94.00700378    1.09000003    2.75000000
   14.69222260   93.98600006    1.11000001    2.75000000
   14.69555569   92.47350311    1.09000003    2.75000000
   14.69722271   99.68689728    1.09000003    2.75000000
   14.69944477   92.98850250    1.09000003    2.75000000
   14.70277786   90.45179749    1.09000003    2.76999998
   14.70583344   93.04579926    1.09000003    2.76999998
   14.70916653   93.25019836    1.09000003    2.75000000
   14.71222210   97.23300171    1.09000003    2.75000000
   14.71555519   95.35060120    1.05999994    2.75000000
   14.71861076   92.98429871    1.05999994    2.75000000
   14.72194386   97.08280182    1.05999994    2.75000000
   14.72527695   98.86070251    1.05999994    2.76999998
   14.72861099   87.49240112    1.05999994    2.76999998
   14.73138809   88.34770203    1.05999994    2.75000000
   14.73333359   91.65489960    1.05999994    2.75000000
   14.73638916   85.48670197    1.05999994    2.76999998
   14.73972225   87.28559875    1.05999994    2.75000000
   14.74305534   82.92870331    1.03999996    2.76999998
   14.74611092   83.19960022    1.03999996    2.76999998
   14.74944496   87.94909668    1.03999996    2.78999996
   14.75277805   90.75299835    1.03999996    2.75000000
   14.75583363   86.01879883    1.05999994    2.76999998
   14.75916672   81.05310059    1.05999994    2.76999998
   14.76222229   88.66889954    1.05999994    2.78999996
   14.76388931   87.72290039    1.03999996    2.76999998
   14.76611137   78.70099640    1.03999996    2.75000000
   14.76944447   99.09819794    1.03999996    2.76999998
   14.77250004   82.54920197    1.03999996    2.73000002
   14.77583313   86.15820313    1.03999996    2.75000000
   14.93194485   -1.00000000   -1.00000000   -1.00000000
   14.95194435   85.34719849    1.09000003    2.76999998
   14.95777798   89.42430115    1.07000005    2.75000000
   14.96166611   83.74210358    1.07000005    2.76999998
   14.96527767   73.09190369    1.09000003    2.78999996
   14.96833324   76.05049896    1.09000003    2.76999998
   14.97166634   78.76940155    1.09000003    2.78999996
   14.97499943   79.35980225    1.21000004    2.75000000
   14.97805500   85.94969940    1.23000002    2.76999998
   14.98138809   90.08460236    1.23000002    2.76999998
   14.98444462   90.19069672    1.21000004    2.75000000
   14.98527813   87.11620331    1.21000004    2.75000000
   14.98805618   79.91040039    1.21000004    2.76999998
   14.99138927   89.98480225    1.16999996    2.75000000
   14.99472237   81.44270325    1.16999996    2.76999998
   14.99777794   76.95500183    1.14999998    2.75000000
   15.00111103   85.76889801    1.11000001    2.76999998
   15.00444412   95.15399933    1.11000001    2.76999998
   15.00749969   83.98200226    1.09000003    2.76999998
   15.01083374   78.33540344    1.07000005    2.75000000
   15.01388931   85.77880096    1.05999994    2.76999998
   15.01722240   77.13220215    1.05999994    2.78999996
   15.01861095   86.51540375    1.03999996    2.76999998
   15.02083302   80.45890045    1.03999996    2.78999996
   15.02416611   95.56300354    1.03999996    2.78999996
   15.02750015   73.86090088    1.03999996    2.76999998
   15.03055573   81.53510284    1.03999996    2.76999998
   15.03388977   81.27290344    1.01999998    2.76999998
   15.03722286   83.55989838    1.01999998    2.78999996
   15.04055595   79.37599945    1.01999998    2.78999996
   15.04361153   76.78820038    1.01999998    2.75000000
   15.04694462   78.37180328    1.00000000    2.78999996
   15.05000019   79.11669922    1.01999998    2.78999996
   15.05194473   74.69280243    1.01999998    2.78999996
   15.05361176   75.35500336    1.01999998    2.76999998
   15.05694485   83.03150177    1.03999996    2.78999996
   15.06027794   75.62819672    1.07000005    2.76999998
   15.06333351   88.75360107    1.09000003    2.75000000
   15.06666660   74.58899689    1.09000003    2.76999998
   15.06999969   74.86699677    1.11000001    2.78999996
   15.07305527   79.09950256    1.14999998    2.76999998
   15.07638836   82.46459961    1.16999996    2.78999996
   15.07944393   83.54609680    1.16999996    2.75000000
   15.08277798   96.83260345    1.19000006    2.78999996
   15.08527756   89.93250275    1.21000004    2.76999998
   15.08638859   94.64959717    1.21000004    2.75000000
   15.08972168   87.31590271    1.21000004    2.76999998
   15.09305477   88.47200012    1.21000004    2.75000000
   15.09611034   82.17079926    1.23000002    2.75000000
   15.09944439   85.57830048    1.25000000    2.76999998
   15.10277843   88.54160309    1.25000000    2.78999996
   15.10583401   76.39189911    1.25000000    2.78999996
   15.10916710   92.42769623    1.26999998    2.78999996
   15.11222267   86.99810028    1.25000000    2.76999998
   15.11555576   95.78079987    1.25000000    2.78999996
   15.11861134   86.03119659    1.25000000    2.75000000
   15.11916637   74.95330048    1.25000000    2.75000000
   15.12250042   81.85209656    1.25000000    2.76999998
   15.12583351   79.96369934    1.25000000    2.76999998
   15.12888908   81.43340302    1.23000002    2.76999998
   15.13222218   78.56860352    1.23000002    2.76999998
   15.13555527   84.98449707    1.21000004    2.76999998
   15.13861084   84.10050201    1.21000004    2.76999998
   15.14194393   83.74880219    1.21000004    2.76999998
   15.14499950   89.37640381    1.19000006    2.76999998
   15.14833355   93.12370300    1.16999996    2.76999998
   15.15166664   87.91799927    1.14999998    2.76999998
   15.15222168   90.18229675    1.14999998    2.78999996
   15.15527725   95.55919647    1.14999998    2.76999998
   15.15861034   89.72039795    1.16999996    2.76999998
   15.16194439   81.56140137    1.16999996    2.76999998
   15.16499996   87.17130280    1.14999998    2.76999998
   15.16833401   87.36109924    1.14999998    2.78999996
   15.17138958   94.44480133    1.14999998    2.78999996
   15.17472267   84.35669708    1.14999998    2.76999998
   15.17805576   78.99089813    1.14999998    2.76999998
   15.18111134   87.21330261    1.14999998    2.76999998
   15.18444443   91.67970276    1.14999998    2.76999998
   15.18555546   91.76820374    1.16999996    2.76999998
   15.18805599   86.58930206    1.19000006    2.78999996
   15.19138908   92.10769653    1.21000004    2.75000000
   15.19472218   92.53919983    1.23000002    2.75000000
   15.19777775   85.01080322    1.23000002    2.76999998
   15.20111084   87.93180084    1.23000002    2.76999998
   15.20416641   88.32140350    1.25000000    2.76999998
   15.20749950   88.45570374    1.25000000    2.76999998
   15.21083355   83.48860168    1.25000000    2.76999998
   15.21388912   76.77249908    1.25000000    2.76999998
   15.21722221   89.35849762    1.26999998    2.75000000
   15.21888828   82.14379883    1.26999998    2.75000000
   15.22083282   89.53669739    1.28999996    2.76999998
   15.22416592   83.02359772    1.30999994    2.78999996
   15.22749996   85.42050171    1.33000004    2.78999996
   15.23055553   84.38529968    1.30999994    2.76999998
   15.23388958   87.11009979    1.34000003    2.76999998
   15.23694515   94.77089691    1.36000001    2.76999998
   15.24027824   84.99530029    1.38000000    2.76999998
   15.24361134   78.70980072    1.38000000    2.78999996
   15.24666691   86.59880066    1.36000001    2.76999998
   15.25000000   88.31130219    1.36000001    2.76999998
   15.25222206   86.03669739    1.36000001    2.78999996
   15.25388908   86.27459717    1.36000001    2.78999996
   15.25722218   85.14399719    1.36000001    2.75000000
   15.26027775   88.70480347    1.36000001    2.78999996
   15.26361084   92.59570313    1.34000003    2.76999998
   15.26666641   94.77709961    1.33000004    2.78999996
   15.26999950   92.52709961    1.34000003    2.78999996
   15.27333355   91.32469940    1.34000003    2.78999996
   15.27638817   79.18730164    1.33000004    2.78999996
   15.27972221   89.25019836    1.30999994    2.78999996
   15.28305531   82.22989655    1.28999996    2.78999996
   15.28555584   89.50370026    1.26999998    2.78999996
   15.28638935   79.63939667    1.25000000    2.78999996
   15.28972244   84.47859955    1.25000000    2.78999996
   15.29305553   85.22540283    1.25000000    2.78999996
   15.29611111   74.22949982    1.28999996    2.78999996
   15.29944515   79.39540100    1.30999994    2.78999996
   15.30249977   92.20580292    1.30999994    2.78999996
   15.30583382   97.87400055    1.33000004    2.76999998
   15.30916691   77.93080139    1.33000004    2.78999996
   15.31222248   77.23149872    1.33000004    2.78999996
   15.31555557   88.36519623    1.33000004    2.76999998
   15.31888866   92.77610016    1.33000004    2.76999998
   15.31916618   88.31390381    1.33000004    2.76999998
   15.32250023   77.42220306    1.34000003    2.78999996
   15.32583332   81.76629639    1.36000001    2.78999996
   15.32916641   76.56860352    1.30999994    2.78999996
   15.33222198   72.78620148    1.28999996    2.76999998
   15.33555508   72.21289825    1.28999996    2.78999996
   15.33888817   79.85089874    1.26999998    2.76999998
   15.34194374   77.79969788    1.26999998    2.76999998
   15.34527779   83.82610321    1.25000000    2.78999996
   15.34833336   85.29519653    1.21000004    2.76999998
   15.35166740   85.23359680    1.19000006    2.78999996
   15.35222244   76.65950012    1.19000006    2.78999996
   15.35527802   76.29139709    1.19000006    2.78999996
   15.35833359   78.18609619    1.19000006    2.78999996
   15.36166668   75.29149628    1.19000006    2.78999996
   15.36500072   80.07050323    1.19000006    2.76999998
   15.36805534   77.59030151    1.21000004    2.78999996
   15.37138939   87.31849670    1.16999996    2.78999996
   15.37444496   83.53579712    1.19000006    2.78999996
   15.37777805   78.73370361    1.19000006    2.80999994
   15.38111115   86.71800232    1.16999996    2.78999996
   15.38416672   83.35729980    1.16999996    2.78999996
   15.38555527   80.76820374    1.16999996    2.78999996
   15.38805580   76.12719727    1.16999996    2.78999996
   15.39111137   83.59329987    1.19000006    2.78999996
   15.39444447   77.66259766    1.21000004    2.78999996
   15.39777756   76.75630188    1.25000000    2.76999998
   15.40083313   72.67489624    1.28999996    2.76999998
   15.40416622   74.35109711    1.30999994    2.76999998
   15.40722179   90.60530090    1.33000004    2.76999998
   15.41055489   75.02429962    1.36000001    2.78999996
   15.41388893   80.54280090    1.38000000    2.76999998
   15.41694450   80.67230225    1.39999998    2.76999998
   15.41888905   79.70570374    1.39999998    2.78999996
   15.42083359   80.13970184    1.39999998    2.78999996
   15.42388916   77.42199707    1.38000000    2.78999996
   15.42722225   78.62229919    1.38000000    2.78999996
   15.43055630   73.27929688    1.38000000    2.78999996
   15.43361092   90.49440002    1.38000000    2.78999996
   15.43694496   80.17299652    1.38000000    2.78999996
   15.44000053   78.73690033    1.36000001    2.78999996
   15.44333363   81.76339722    1.36000001    2.78999996
   15.44666672   82.32610321    1.36000001    2.76999998
   15.44972229   77.16899872    1.36000001    2.78999996
   15.45222187   73.28199768    1.34000003    2.78999996
   15.45361137   85.23809814    1.34000003    2.78999996
   15.45666695   87.31999969    1.34000003    2.78999996
   15.46000004   84.54969788    1.36000001    2.78999996
   15.46333313   83.65720367    1.36000001    2.78999996
   15.46638870   82.32109833    1.38000000    2.78999996
   15.46972179   77.44039917    1.38000000    2.78999996
   15.47277737   83.39749908    1.38000000    2.76999998
   15.47611046   83.02179718    1.38000000    2.78999996
   15.47944355   79.77519989    1.36000001    2.76999998
   15.48249912   78.42140198    1.36000001    2.78999996
   15.48555565   76.07959747    1.36000001    2.80999994
   15.48638916   76.18669891    1.36000001    2.80999994
   15.48944473   78.06449890    1.36000001    2.78999996
   15.49277782   73.94619751    1.33000004    2.80999994
   15.49611092   74.21730042    1.33000004    2.78999996
   15.49944496   84.54280090    1.33000004    2.76999998
   15.50249958   78.24530029    1.30999994    2.78999996
   15.50583363   77.86810303    1.30999994    2.78999996
   15.50916672   71.87799835    1.30999994    2.78999996
   15.51222229   80.34570313    1.28999996    2.76999998
   15.51555538   75.88079834    1.26999998    2.78999996
   15.51888847   83.31980133    1.26999998    2.80999994
   15.51916599   75.16480255    1.26999998    2.80999994
   15.52250004   82.28839874    1.26999998    2.80999994
   15.52583313   80.06269836    1.25000000    2.76999998
   15.52888870   81.89640045    1.25000000    2.78999996
   15.53222179   77.38629913    1.25000000    2.78999996
   15.53555584   74.81680298    1.23000002    2.78999996
   15.53861141   80.97389984    1.21000004    2.76999998
   15.54194450   78.30670166    1.21000004    2.76999998
   15.54527855   80.99810028    1.21000004    2.76999998
   15.54833412   74.92330170    1.21000004    2.76999998
   15.55166721   80.30069733    1.21000004    2.78999996
   15.55277824   78.23480225    1.21000004    2.78999996
   15.55527782   76.51110077    1.21000004    2.78999996
   15.55861092   79.13469696    1.19000006    2.78999996
   15.56166649   84.28070068    1.19000006    2.78999996
   15.56500053   86.24449921    1.19000006    2.78999996
   15.56833363   78.45429993    1.19000006    2.78999996
   15.57138920   75.95220184    1.19000006    2.78999996
   15.57472229   75.67849731    1.16999996    2.78999996
   15.57805538   76.43440247    1.16999996    2.78999996
   15.58111095   71.27220154    1.19000006    2.78999996
   15.58444405   76.08090210    1.19000006    2.76999998
   15.58611107   73.61170197    1.19000006    2.78999996
   15.58805561   72.90039825    1.19000006    2.76999998
   15.59138870   81.61589813    1.19000006    2.78999996
   15.59444427   79.97599792    1.19000006    2.78999996
   15.59777737   81.59329987    1.21000004    2.76999998
   15.60111141   72.67880249    1.19000006    2.78999996
   15.60416698   83.08470154    1.21000004    2.76999998
   15.60750008   88.06520081    1.21000004    2.78999996
   15.61055565   86.01730347    1.21000004    2.78999996
   15.61388969   89.23419952    1.21000004    2.78999996
   15.61722279   81.05190277    1.21000004    2.78999996
   15.61944485   90.75589752    1.21000004    2.78999996
   15.62083340   77.90450287    1.21000004    2.78999996
   15.62416649   75.34909821    1.21000004    2.78999996
   15.62722206   80.83399963    1.23000002    2.78999996
   15.63055611   80.86049652    1.25000000    2.78999996
   15.63388920   78.24210358    1.25000000    2.78999996
   15.63694477   72.99079895    1.26999998    2.78999996
   15.64027786   81.43789673    1.26999998    2.78999996
   15.64333344   81.52680206    1.28999996    2.78999996
   15.64666653   86.48020172    1.28999996    2.78999996
   15.64999962   87.21240234    1.28999996    2.80999994
   15.65277767   84.65080261    1.28999996    2.78999996
   15.65361118   82.65959930    1.28999996    2.78999996
   15.65694427   79.92310333    1.28999996    2.78999996
   15.65999985   85.17890167    1.28999996    2.76999998
   15.66333294   81.64050293    1.28999996    2.78999996
   15.66666698   77.52940369    1.26999998    2.76999998
   15.66972256   79.79010010    1.26999998    2.78999996
   15.67305565   77.78569794    1.26999998    2.78999996
   15.67611122   74.59159851    1.28999996    2.78999996
   15.67944431   78.17739868    1.30999994    2.78999996
   15.68277836   74.80220032    1.30999994    2.78999996
   15.68611145   72.24900055    1.30999994    2.76999998
   15.68638897   83.52330017    1.30999994    2.76999998
   15.68972206   75.81269836    1.30999994    2.78999996
   15.69277763   74.76989746    1.33000004    2.76999998
   15.69611073   73.52469635    1.33000004    2.78999996
   15.69944477   74.02559662    1.30999994    2.80999994
   15.70249939   78.54260254    1.33000004    2.80999994
   15.70583344   77.44380188    1.33000004    2.76999998
   15.70916653   72.61679840    1.33000004    2.78999996
   15.71222210   74.14050293    1.33000004    2.80999994
   15.71555519   76.74770355    1.34000003    2.78999996
   15.71888828   77.25140381    1.33000004    2.76999998
   15.71944427   83.24530029    1.33000004    2.76999998
   15.72222137   74.19259644    1.34000003    2.78999996
   15.72555542   80.77680206    1.34000003    2.78999996
   15.72861099   81.49960327    1.36000001    2.78999996
   15.73194408   83.87460327    1.36000001    2.76999998
   15.73527813   76.97499847    1.36000001    2.78999996
   15.73833370   73.31860352    1.36000001    2.76999998
   15.74166679   76.69670105    1.34000003    2.78999996
   15.74499989   71.58439636    1.34000003    2.78999996
   15.74805546   76.09839630    1.34000003    2.78999996
   15.75138855   74.40550232    1.34000003    2.78999996
   15.75277805   74.37719727    1.34000003    2.78999996
   15.75500011   72.73069763    1.34000003    2.78999996
   15.75833321   70.86199951    1.33000004    2.78999996
   15.76138878   74.54250336    1.28999996    2.80999994
   15.76472187   74.62110138    1.26999998    2.80999994
   15.76805496   73.22090149    1.26999998    2.80999994
   15.77111053   75.23280334    1.26999998    2.80999994
   15.77444458   79.20330048    1.25000000    2.78999996
   15.77777767   76.42199707    1.23000002    2.78999996
   15.78083324   77.82219696    1.21000004    2.78999996
   15.78416729   75.65470123    1.21000004    2.78999996
   15.78611183   73.88430023    1.21000004    2.78999996
   15.78777790   73.11180115    1.21000004    2.78999996
   15.79111195   71.21920013    1.21000004    2.78999996
   15.79444504   75.64779663    1.23000002    2.78999996
   15.79750061   74.83679962    1.23000002    2.78999996
   15.80083370   74.71970367    1.23000002    2.78999996
   15.80388927   73.79080200    1.25000000    2.76999998
   15.80722237   74.29689789    1.25000000    2.78999996
   15.81055546   78.18890381    1.25000000    2.78999996
   15.81361103   73.71720123    1.25000000    2.78999996
   15.81694412   79.72660065    1.25000000    2.78999996
   15.81944466   73.33840179    1.25000000    2.78999996
   15.82055569   74.31050110    1.25000000    2.78999996
   15.82388878   76.93890381    1.26999998    2.78999996
   15.82722187   75.36799622    1.26999998    2.78999996
   15.83027744   77.42099762    1.28999996    2.78999996
   15.83361053   76.85359955    1.28999996    2.78999996
   15.83666611   78.62879944    1.28999996    2.78999996
   15.84000015   76.45230103    1.30999994    2.78999996
   15.84333324   79.43599701    1.28999996    2.78999996
   15.84638882   90.39589691    1.28999996    2.78999996
   15.84972191   81.55249786    1.26999998    2.76999998
   15.85277843   80.90070343    1.26999998    2.78999996
   15.85333347   77.92590332    1.26999998    2.78999996
   15.85666752   74.14320374    1.28999996    2.80999994
   15.86000061   74.89279938    1.28999996    2.78999996
   15.86333370   73.72740173    1.30999994    2.78999996
   15.86638927   79.92549896    1.30999994    2.80999994
   15.86972237   71.38700104    1.30999994    2.80999994
   15.87305546   80.33650208    1.30999994    2.80999994
   15.87611103   74.29319763    1.33000004    2.78999996
   15.87944412   76.83820343    1.33000004    2.78999996
   15.88249969   77.73069763    1.34000003    2.78999996
   15.88583279   80.75270081    1.34000003    2.78999996
   15.88638878   78.47059631    1.34000003    2.78999996
   15.88972187   86.06749725    1.34000003    2.78999996
   15.89277744   78.51349640    1.36000001    2.78999996
   15.89611053   82.64360046    1.36000001    2.78999996
   15.89944458   90.02500153    1.36000001    2.78999996
   15.90249920   78.11080170    1.36000001    2.78999996
   15.90583324   78.89160156    1.36000001    2.78999996
   15.90888882   76.50070190    1.36000001    2.80999994
   15.91222191   77.80370331    1.36000001    2.78999996
   15.91555500   79.26039886    1.34000003    2.78999996
   15.91861153   73.90290070    1.33000004    2.78999996
   15.91972256   81.15979767    1.33000004    2.78999996
   15.92250061   87.07520294    1.30999994    2.78999996
   15.92555618   80.00620270    1.26999998    2.80999994
   15.92888927   77.59089661    1.26999998    2.78999996
   15.93222237   79.90760040    1.26999998    2.78999996
   15.93527794   75.41069794    1.28999996    2.78999996
   15.93861103   77.16960144    1.28999996    2.80999994
   15.94166660   82.38150024    1.30999994    2.78999996
   15.94499969   73.24569702    1.30999994    2.78999996
   15.94833374   81.26609802    1.28999996    2.80999994
   15.95138836   74.99980164    1.28999996    2.78999996
   15.96861076   84.90519714    1.26999998    2.78999996
   15.97111034   81.23840332    1.26999998    2.78999996
   15.97444439   83.29570007    1.25000000    2.80999994
   15.97777748   83.12770081    1.25000000    2.80999994
   15.98083305   75.71240234    1.25000000    2.78999996
   15.98416710   82.43190002    1.25000000    2.78999996
   15.98750019   82.54709625    1.23000002    2.78999996
   15.99055576   80.12290192    1.23000002    2.78999996
   15.99388885   78.49019623    1.23000002    2.78999996
   15.99694443   84.01550293    1.21000004    2.78999996
   16.00027847   80.12139893    1.21000004    2.78999996
   16.00166702   83.35269928    1.21000004    2.80999994
   16.00388908   85.22650146    1.21000004    2.80999994
   16.00722313   83.44650269    1.21000004    2.78999996
   16.01027870   82.04769897    1.23000002    2.78999996
   16.01361084   73.86979675    1.23000002    2.80999994
   16.01694489   73.77050018    1.23000002    2.78999996
   16.02000046   79.86849976    1.25000000    2.78999996
   16.02333260   80.99459839    1.25000000    2.78999996
   16.02638817   75.17680359    1.26999998    2.78999996
   16.02972221   77.22450256    1.26999998    2.78999996
   16.03305435   85.72689819    1.26999998    2.78999996
   16.03527641   78.86319733    1.26999998    2.78999996
   16.03638840   77.32700348    1.26999998    2.78999996
   16.03972244   90.73239899    1.26999998    2.80999994
   16.04305458   84.84020233    1.28999996    2.78999996
   16.04611015   78.85520172    1.28999996    2.78999996
   16.04944420   83.06590271    1.28999996    2.78999996
   16.05249977   81.28849792    1.28999996    2.78999996
   16.05583191   74.54209900    1.30999994    2.78999996
   16.05916595   76.46420288    1.28999996    2.78999996
   16.06222153   83.77030182    1.26999998    2.78999996
   16.06555557   78.47329712    1.26999998    2.78999996
   16.06861115   76.88749695    1.25000000    2.80999994
   16.06916809   73.09929657    1.25000000    2.80999994
   16.07250023   78.12629700    1.23000002    2.80999994
   16.07583427   76.70429993    1.21000004    2.78999996
   16.07888985   77.57099915    1.21000004    2.78999996
   16.08222389   77.00969696    1.19000006    2.78999996
   16.08555603   74.49720001    1.19000006    2.78999996
   16.08861160   75.78659821    1.16999996    2.80999994
   16.09194565   80.04940033    1.16999996    2.78999996
   16.09500122   79.27310181    1.16999996    2.78999996
   16.09833336   76.78520203    1.16999996    2.78999996
   16.10166740   77.26090240    1.16999996    2.80999994
   16.10222244   76.94200134    1.16999996    2.80999994
   16.10527802   76.05819702    1.16999996    2.80999994
   16.10861206   76.67060089    1.19000006    2.80999994
   16.11194420   80.67120361    1.19000006    2.80999994
   16.11499977   75.87500000    1.21000004    2.76999998
   16.11833382   75.96679688    1.21000004    2.80999994
   16.12166595   77.74420166    1.21000004    2.78999996
   16.12472153   77.44339752    1.21000004    2.78999996
   16.12805557   75.14119720    1.19000006    2.78999996
   16.13138962   77.94180298    1.19000006    2.78999996
   16.13444519   78.05269623    1.19000006    2.78999996
   16.13555527   78.30699921    1.19000006    2.78999996
   16.13805580   76.65750122    1.16999996    2.80999994
   16.14138794   76.36990356    1.16999996    2.80999994
   16.14472198   76.24600220    1.16999996    2.78999996
   16.14777756   76.79779816    1.16999996    2.78999996
   16.15111160   73.95120239    1.16999996    2.78999996
   16.15416718   72.31909943    1.16999996    2.78999996
   16.15749931   75.77600098    1.16999996    2.78999996
   16.16083336   76.82559967    1.16999996    2.78999996
   16.16388893   80.69709778    1.16999996    2.78999996
   16.16722107   81.71209717    1.16999996    2.78999996
   16.16888809   77.85530090    1.16999996    2.80999994
   16.17083359   70.69319916    1.16999996    2.78999996
   16.17416573   75.74259949    1.16999996    2.80999994
   16.17749977   75.49829865    1.16999996    2.78999996
   16.18055534   74.82199860    1.16999996    2.80999994
   16.18388748   75.49040222    1.14999998    2.80999994
   16.18694305   77.68119812    1.14999998    2.78999996
   16.19027710   75.42569733    1.13000000    2.78999996
   16.19361115   77.16449738    1.13000000    2.78999996
   16.19666672   75.16799927    1.13000000    2.78999996
   16.20000076   81.78469849    1.13000000    2.80999994
   16.20222282   78.48850250    1.13000000    2.78999996
   16.20361137   79.46880341    1.13000000    2.78999996
   16.20694542   83.70469666    1.11000001    2.78999996
   16.21027946   81.59359741    1.11000001    2.78999996
   16.21333504   75.82630157    1.11000001    2.78999996
   16.21666718   77.32180023    1.11000001    2.80999994
   16.22000122   73.31349945    1.11000001    2.78999996
   16.22305679   75.42130280    1.09000003    2.78999996
   16.22638893   69.69960022    1.09000003    2.80999994
   16.22944450   75.37480164    1.09000003    2.78999996
   16.23277855   75.84230042    1.09000003    2.80999994
   16.23555565   73.37770081    1.09000003    2.80999994
   16.23638916   79.19519806    1.09000003    2.80999994
   16.23972321   77.36299896    1.07000005    2.80999994
   16.24305534   81.15429688    1.07000005    2.80999994
   16.24611092   78.29060364    1.05999994    2.80999994
   16.24944496   79.38760376    1.05999994    2.80999994
   16.25277710   77.05079651    1.05999994    2.80999994
   16.25583267   76.66139984    1.05999994    2.78999996
   16.25916672   83.33599854    1.05999994    2.78999996
   16.26222229   80.67050171    1.05999994    2.78999996
   16.26555634   75.04229736    1.05999994    2.78999996
   16.26888847   78.24749756    1.07000005    2.78999996
   16.26916695   84.26609802    1.07000005    2.78999996
   16.27249908   86.97000122    1.07000005    2.78999996
   16.27583313   77.63400269    1.07000005    2.78999996
   16.27888870   73.14959717    1.05999994    2.78999996
   16.28222275   79.13430023    1.05999994    2.80999994
   16.28527641   82.19429779    1.05999994    2.80999994
   16.28861046   75.01499939    1.05999994    2.80999994
   16.29194450   73.93930054    1.05999994    2.80999994
   16.29500008   75.03469849    1.03999996    2.78999996
   16.29833221   74.10919952    1.03999996    2.78999996
   16.30166626   75.67420197    1.03999996    2.78999996
   16.30222130   79.12689972    1.03999996    2.78999996
   16.30499840   76.72350311    1.03999996    2.78999996
   16.30833244   76.92590332    1.03999996    2.78999996
   16.31166649   73.65270233    1.01999998    2.78999996
   16.31472206   74.33879852    1.01999998    2.80999994
   16.31805611   82.87169647    1.01999998    2.80999994
   16.32139015   78.03320313    1.01999998    2.80999994
   16.32444572   73.82450104    1.01999998    2.78999996
   16.32777786   78.83290100    1.01999998    2.78999996
   16.33083344   81.28739929    1.01999998    2.78999996
   16.33416748   75.76930237    1.03999996    2.78999996
   16.33555603   80.56860352    1.03999996    2.78999996
   16.33777809   74.76149750    1.03999996    2.78999996
   16.34111214   81.13919830    1.03999996    2.78999996
   16.34444427   79.41979980    1.05999994    2.78999996
   16.34749985   80.53549957    1.05999994    2.78999996
   16.35083389   80.25679779    1.05999994    2.78999996
   16.35388947   76.42579651    1.05999994    2.80999994
   16.35722351   85.76010132    1.03999996    2.80999994
   16.36055565   78.22730255    1.03999996    2.78999996
   16.36361122   80.54409790    1.03999996    2.78999996
   16.36694527   76.36969757    1.03999996    2.80999994
   16.36888885   78.78520203    1.03999996    2.78999996
   16.37055588   81.58910370    1.03999996    2.78999996
   16.37388992   78.89610291    1.05999994    2.78999996
   16.37722206   82.02860260    1.05999994    2.78999996
   16.38027763   78.63590240    1.05999994    2.78999996
   16.38361168   82.00050354    1.05999994    2.80999994
   16.38666725   81.25250244    1.05999994    2.80999994
   16.38999939   83.06670380    1.07000005    2.80999994
   16.39333344   77.03140259    1.05999994    2.78999996
   16.39638901   80.79170227    1.01999998    2.78999996
   16.39972115   78.30989838    1.00000000    2.80999994
   16.40222168   79.24659729    0.98000002    2.78999996
   16.40333366   88.16359711    0.98000002    2.78999996
   16.40666580   76.68579865    0.95999998    2.80999994
   16.40999985   81.01580048    0.98000002    2.78999996
   16.41305542   72.55529785    0.98000002    2.80999994
   16.41638756   79.43190002    0.98000002    2.80999994
   16.41972160   78.32019806    0.98000002    2.78999996
   16.42277718   83.86650085    1.00000000    2.78999996
   16.42611122   81.77500153    1.00000000    2.80999994
   16.42916679   90.54380035    0.98000002    2.78999996
   16.43249893   81.32700348    0.98000002    2.78999996
   16.43555450   78.19760132    0.98000002    2.78999996
   16.43610954   83.20269775    0.98000002    2.78999996
   16.43944359   82.76679993    1.00000000    2.78999996
   16.44277763   78.09110260    1.00000000    2.78999996
   16.44583321   75.80390167    1.01999998    2.80999994
   16.44916534   79.46489716    1.01999998    2.78999996
   16.45222282   84.52230072    1.00000000    2.78999996
   16.45555687   80.85700226    1.00000000    2.78999996
   16.45888901   80.55989838    1.00000000    2.80999994
   16.46194458   82.59940338    0.98000002    2.78999996
   16.46527863   80.22509766    0.98000002    2.80999994
   16.46861076   81.03389740    0.98000002    2.78999996
   16.46888924   91.71260071    0.98000002    2.78999996
   16.47222328   77.08640289    0.98000002    2.80999994
   16.47555542   80.86499786    0.98000002    2.78999996
   16.47861099   91.56970215    0.95999998    2.80999994
   16.48194504   79.37419891    0.95999998    2.80999994
   16.48527718   76.45320129    0.95999998    2.80999994
   16.48833275   84.25289917    0.98000002    2.78999996
   16.49166679   83.44280243    0.98000002    2.78999996
   16.49472237   83.75789642    0.98000002    2.80999994
   16.49805641   81.01149750    0.98000002    2.78999996
   16.50138855   78.75460052    1.00000000    2.78999996
   16.50222206   75.88300323    1.00000000    2.78999996
   16.50499916   81.85959625    1.00000000    2.80999994
   16.50833321   90.64779663    1.00000000    2.80999994
   16.51138878   84.66960144    1.00000000    2.78999996
   16.51472282   80.39469910    1.00000000    2.80999994
   16.51805496   77.88359833    1.00000000    2.78999996
   16.52111053   77.10720062    1.00000000    2.80999994
   16.52444458   76.80889893    1.00000000    2.80999994
   16.52777672   81.09929657    1.00000000    2.78999996
   16.53083229   81.75299835    1.00000000    2.78999996
   16.53416634   76.15229797    1.00000000    2.78999996
   16.53583336   70.55909729    0.98000002    2.78999996
   16.53777695   76.16979980    0.95999998    2.78999996
   16.54111099   79.22319794    0.95999998    2.78999996
   16.54416656   79.65480042    0.95999998    2.78999996
   16.54749870   84.55159760    0.95999998    2.80999994
   16.55083275   83.75129700    0.95999998    2.78999996
   16.55388832   80.83609772    0.95999998    2.80999994
   16.55722237   78.99140167    0.95999998    2.78999996
   16.56055450   79.18109894    0.94000000    2.78999996
   16.56361008   83.82550049    0.95999998    2.78999996
   16.56694603   86.27619934    0.95999998    2.80999994
   16.56916809   86.26319885    0.95999998    2.78999996
   16.57055664   93.77429962    0.95999998    2.80999994
   16.57389069   82.58920288    0.95999998    2.78999996
   16.57694626   82.64949799    0.95999998    2.80999994
   16.58027840   82.62429810    0.95999998    2.78999996
   16.58361244   80.45559692    0.95999998    2.78999996
   16.58666801   82.41560364    0.95999998    2.80999994
   16.59000015   80.47989655    0.95999998    2.78999996
   16.59333420   84.40599823    0.94000000    2.78999996
   16.59638977   74.58339691    0.94000000    2.78999996
   16.59972191   75.05740356    0.94000000    2.78999996
   16.60250092   78.22080231    0.94000000    2.80999994
   16.60333443   78.18250275    0.94000000    2.78999996
   16.60666656   79.66870117    0.94000000    2.78999996
   16.60972214   82.65499878    0.94000000    2.78999996
   16.61305618   77.85269928    0.94000000    2.78999996
   16.61638832   80.70330048    0.92000002    2.78999996
   16.61944389   89.47399902    0.94000000    2.78999996
   16.62277794   82.77369690    0.94000000    2.80999994
   16.62611198   84.13359833    0.94000000    2.78999996
   16.62916756   85.33850098    0.94000000    2.80999994
   16.63249969   79.14730072    0.94000000    2.78999996
   16.63583374   79.48229980    0.94000000    2.80999994
   16.63611031   74.83149719    0.95999998    2.80999994
   16.63944435   77.84269714    0.95999998    2.80999994
   16.64249992   83.23470306    0.95999998    2.78999996
   16.64583397   83.06719971    0.95999998    2.78999996
   16.64916611   75.94020081    0.95999998    2.78999996
   16.65222168   79.62409973    0.95999998    2.80999994
   16.65555573   75.37429810    0.95999998    2.80999994
   16.65888786   80.13279724    0.94000000    2.78999996
   16.66194344   81.32219696    0.94000000    2.80999994
   16.66527748   81.81510162    0.94000000    2.80999994
   16.66833305   76.44740295    0.94000000    2.80999994
   16.66916656   82.82910156    0.94000000    2.80999994
   16.67194366   88.89070129    0.94000000    2.78999996
   16.67527771   86.39540100    0.94000000    2.80999994
   16.67860985   80.89170074    0.94000000    2.80999994
   16.68166542   89.52700043    0.95999998    2.78999996
   16.68499947   86.75229645    0.95999998    2.78999996
   16.68805504   77.16560364    0.95999998    2.80999994
   16.69138718   84.56269836    0.95999998    2.78999996
   16.69472122   88.68890381    0.95999998    2.80999994
   16.69777679   87.24510193    0.95999998    2.80999994
   16.70111275   85.29620361    0.95999998    2.80999994
   16.70250130   85.59649658    0.95999998    2.80999994
   16.70472336   82.29060364    0.94000000    2.78999996
   16.70805550   80.59300232    0.94000000    2.78999996
   16.71138954   83.91089630    0.95999998    2.80999994
   16.71444511   80.95320129    0.95999998    2.80999994
   16.71777916   80.12010193    0.94000000    2.78999996
   16.72111130   81.82530212    0.94000000    2.80999994
   16.72416687   75.61070251    0.94000000    2.80999994
   16.72750092   83.60179901    0.94000000    2.80999994
   16.73055649   71.34999847    0.92000002    2.80999994
   16.73388863   78.16480255    0.92000002    2.80999994
   16.73583412   79.90380096    0.92000002    2.82999992
   16.73750114   76.51390076    0.92000002    2.82999992
   16.74083328   80.76660156    0.94000000    2.80999994
   16.74388885   77.43350220    0.94000000    2.78999996
   16.74722290   85.75229645    0.94000000    2.78999996
   16.75055504   87.41169739    0.94000000    2.78999996
   16.75361061   80.05259705    0.94000000    2.80999994
   16.75694466   77.74549866    0.94000000    2.82999992
   16.76027870   80.36810303    0.92000002    2.78999996
   16.76333427   79.15650177    0.94000000    2.78999996
   16.76666641   86.33090210    0.94000000    2.80999994
   16.76916695   88.47090149    0.94000000    2.78999996
   16.77027702   83.38700104    0.94000000    2.80999994
   16.77361107   74.42569733    0.94000000    2.80999994
   16.77694511   80.67910004    0.94000000    2.80999994
   16.78000069   75.60739899    0.94000000    2.78999996
   16.78333282   85.17369843    0.94000000    2.80999994
   16.78638840   91.09179688    0.94000000    2.78999996
   16.78972244   90.03869629    0.94000000    2.78999996
   16.79305458   76.00099945    0.94000000    2.80999994
   16.79611015   83.14759827    0.94000000    2.80999994
   16.79944420   79.47949982    0.95999998    2.80999994
   16.80249977   85.40419769    0.95999998    2.80999994
   16.80305481   85.59539795    0.95999998    2.80999994
   16.80638885   83.06980133    0.98000002    2.80999994
   16.80944443   91.93019867    0.98000002    2.80999994
   16.81277657   82.98950195    0.98000002    2.78999996
   16.81611061   83.56289673    0.98000002    2.80999994
   16.81916809   92.82579803    0.95999998    2.78999996
   16.82250023   92.64029694    0.95999998    2.78999996
   16.82583427   87.94850159    0.95999998    2.78999996
   16.82888985   86.83309937    0.95999998    2.80999994
   16.83222389   87.28900146    0.95999998    2.80999994
   16.83555603   96.51149750    0.98000002    2.82999992
   16.83583450   94.04969788    0.98000002    2.80999994
   16.83916664   96.76609802    0.98000002    2.78999996
   16.84250069   92.28600311    0.98000002    2.80999994
   16.84555626   84.38639832    1.00000000    2.78999996
   16.84889030   94.16860199    1.00000000    2.78999996
   16.85222244   91.21549988    1.00000000    2.78999996
   16.85527802   95.06359863    1.00000000    2.80999994
   16.85861206   83.74739838    1.01999998    2.78999996
   16.86166763   86.12750244    1.00000000    2.78999996
   16.86499977   92.23770142    1.00000000    2.78999996
   16.86833382   83.11399841    1.00000000    2.80999994
   16.86916733   86.31780243    1.00000000    2.80999994
   16.87194443   89.21569824    1.00000000    2.78999996
   16.87527847   78.20659637    1.00000000    2.78999996
   16.87861061   80.34470367    1.01999998    2.78999996
   16.88166618   83.83170319    1.01999998    2.78999996
   16.88500023   87.59719849    1.01999998    2.78999996
   16.88805580   83.12020111    1.00000000    2.78999996
   16.89138794   78.40820313    1.00000000    2.78999996
   16.89472198   87.91429901    1.00000000    2.80999994
   16.89777756   84.33460236    1.00000000    2.80999994
   16.90111160   89.41220093    1.00000000    2.78999996
   16.90250015   87.15059662    1.00000000    2.78999996
   16.90472221   93.32710266    1.00000000    2.80999994
   16.90805435   81.78649902    1.00000000    2.78999996
   16.91110992   81.93049622    1.00000000    2.80999994
   16.91444397   85.53790283    1.00000000    2.78999996
   16.91777802   86.53600311    0.98000002    2.78999996
   16.92083359   84.63439941    0.98000002    2.78999996
   16.92416573   92.88459778    0.98000002    2.78999996
   16.92749977   84.39140320    1.00000000    2.78999996
   16.93055534   95.41130066    1.00000000    2.78999996
   16.93388748   83.94380188    1.00000000    2.78999996
   16.93583298   88.97989655    1.00000000    2.80999994
   16.93750000   81.52169800    1.00000000    2.78999996
   16.94083214   82.05190277    0.98000002    2.78999996
   16.94388771   88.23200226    1.00000000    2.78999996
   16.94722176   97.72229767    1.00000000    2.80999994
   16.95055580   79.81759644    1.00000000    2.80999994
   16.95361137   85.62000275    1.00000000    2.80999994
   16.95694542   84.05169678    1.00000000    2.80999994
   16.96027946   83.70829773    0.98000002    2.80999994
   16.96333504   81.28810120    0.98000002    2.78999996
   16.96666718   92.07520294    0.98000002    2.80999994
   16.98500061   86.49880219    1.05999994    2.78999996
   16.98638916   88.97779846    1.07000005    2.78999996
   16.98972321   81.46800232    1.05999994    2.80999994
   16.99277878   89.86689758    1.09000003    2.78999996
   16.99611092   90.47489929    1.07000005    2.78999996
   16.99944496   87.31659698    1.09000003    2.80999994
   17.00250053   82.69020081    1.07000005    2.78999996
   17.00583267   86.49649811    1.05999994    2.80999994
   17.00916672   86.76090240    1.07000005    2.78999996
   17.01222229   91.57869720    1.09000003    2.78999996
   17.01555634   87.21959686    1.09000003    2.78999996
   17.01833344   89.64199829    1.09000003    2.78999996
   17.01916695   88.97129822    1.09000003    2.78999996
   17.02222252   84.51069641    1.09000003    2.80999994
   17.02555466   94.35720062    1.07000005    2.78999996
   17.02888870   86.61450195    1.07000005    2.78999996
   17.03194427   90.93060303    1.07000005    2.78999996
   17.03527641   85.81620026    1.07000005    2.78999996
   17.03861046   85.69409943    1.07000005    2.78999996
   17.04166603   86.62930298    1.07000005    2.78999996
   17.04500008   84.63330078    1.09000003    2.78999996
   17.04805565  101.76599884    1.09000003    2.78999996
   17.05138779   87.80690002    1.11000001    2.78999996
   17.05194283   84.10810089    1.13000000    2.78999996
   17.05527687   82.07910156    1.13000000    2.78999996
   17.05861092   82.68569946    1.13000000    2.78999996
   17.06166649   88.49900055    1.11000001    2.78999996
   17.06499863   82.72229767    1.11000001    2.78999996
   17.06805611   84.05100250    1.11000001    2.78999996
   17.07139015   80.61820221    1.11000001    2.78999996
   17.07472229   81.08059692    1.09000003    2.78999996
   17.07777786   90.03949738    1.09000003    2.78999996
   17.08111191   87.54049683    1.09000003    2.78999996
   17.08444595   88.79000092    1.09000003    2.78999996
   17.08527756   90.93129730    1.09000003    2.80999994
   17.08805656   89.86550140    1.09000003    2.78999996
   17.09138870   85.21589661    1.09000003    2.78999996
   17.09444427   80.41860199    1.09000003    2.78999996
   17.09777832   91.91269684    1.05999994    2.78999996
   17.10111237   91.05709839    1.05999994    2.78999996
   17.10416794   80.98639679    1.05999994    2.80999994
   17.10750008   87.28060150    1.05999994    2.80999994
   17.11055565   87.93370056    1.05999994    2.80999994
   17.11388969   82.32849884    1.05999994    2.78999996
   17.11722183   84.59110260    1.05999994    2.78999996
   17.11861038   81.90380096    1.05999994    2.78999996
   17.12083435   82.76679993    1.05999994    2.78999996
   17.12416649   76.13980103    1.05999994    2.78999996
   17.12722206   79.58719635    1.05999994    2.78999996
   17.13055611   85.26760101    1.05999994    2.80999994
   17.13388824   81.28769684    1.05999994    2.80999994
   17.13694382   80.01830292    1.05999994    2.78999996
   17.14027786   78.19339752    1.05999994    2.80999994
   17.14333344   83.15599823    1.05999994    2.80999994
   17.14666748   85.38549805    1.07000005    2.80999994
   17.14999962   85.80599976    1.07000005    2.80999994
   17.15194321   84.55909729    1.07000005    2.78999996
   17.15361023   82.01439667    1.07000005    2.78999996
   17.15694427   76.07929993    1.07000005    2.78999996
   17.15999985   79.97380066    1.09000003    2.78999996
   17.16333389   78.62159729    1.07000005    2.80999994
   17.16666603   89.23069763    1.07000005    2.78999996
   17.16972160   87.83979797    1.07000005    2.78999996
   17.17305565   87.25530243    1.07000005    2.78999996
   17.17611122   85.33149719    1.07000005    2.80999994
   17.17944336   87.66909790    1.07000005    2.80999994
   17.18277740   87.68849945    1.07000005    2.80999994
   17.18527603   86.90930176    1.07000005    2.78999996
   17.18638802   86.64309692    1.07000005    2.76999998
   17.18972206   83.93499756    1.05999994    2.80999994
   17.19277763   90.36730194    1.05999994    2.78999996
   17.19610977   86.37729645    1.03999996    2.80999994
   17.19916534   93.93520355    1.03999996    2.78999996
   17.20250130   79.02069855    1.03999996    2.80999994
   17.20583344   85.07109833    1.05999994    2.80999994
   17.20888901   90.04820251    1.05999994    2.78999996
   17.21222305   80.98850250    1.05999994    2.80999994
   17.21555710   89.54620361    1.03999996    2.78999996
   17.21861076   85.34320068    1.03999996    2.80999994
   17.21916771   88.91359711    1.03999996    2.80999994
   17.22249985   81.30449677    1.03999996    2.78999996
   17.22555542   79.20539856    1.05999994    2.78999996
   17.22888947   77.01399994    1.05999994    2.78999996
   17.23222351   86.79750061    1.05999994    2.78999996
   17.23527718   86.69090271    1.05999994    2.78999996
   17.23861122   89.23310089    1.05999994    2.78999996
   17.24166679   91.74680328    1.05999994    2.78999996
   17.24500084   89.84929657    1.05999994    2.80999994
   17.24833298   85.27610016    1.05999994    2.80999994
   17.25138855   83.21900177    1.05999994    2.78999996
   17.25194359   89.82720184    1.05999994    2.78999996
   17.25499916   80.92150116    1.07000005    2.78999996
   17.25833321   81.64219666    1.07000005    2.80999994
   17.26138878   94.40440369    1.05999994    2.78999996
   17.26472282   87.75530243    1.05999994    2.80999994
   17.26805496   79.50759888    1.05999994    2.78999996
   17.27111053   83.44989777    1.07000005    2.78999996
   17.27444458   76.07199860    1.07000005    2.78999996
   17.27750015   85.28450012    1.07000005    2.80999994
   17.28083229   93.81199646    1.07000005    2.80999994
   17.28416634   83.99050140    1.07000005    2.78999996
   17.28527641   85.62799835    1.09000003    2.78999996
   17.28777695   93.19450378    1.09000003    2.78999996
   17.29111099   83.87329865    1.09000003    2.80999994
   17.29416656   85.06279755    1.13000000    2.80999994
   17.29749870   81.97149658    1.09000003    2.78999996
   17.30083275   86.29129791    1.09000003    2.78999996
   17.30388832   89.05609894    1.09000003    2.78999996
   17.30722237   82.04160309    1.07000005    2.78999996
   17.31027794   86.69239807    1.05999994    2.78999996
   17.31361008   81.97640228    1.05999994    2.80999994
   17.31694603   83.38849640    1.03999996    2.80999994
   17.31861115   82.63189697    1.03999996    2.78999996
   17.32055664   85.58950043    1.03999996    2.78999996
   17.32389069   84.82579803    1.01999998    2.78999996
   17.32694626   82.68720245    1.01999998    2.78999996
   17.33027840   78.85289764    1.00000000    2.80999994
   17.33361244   90.21179962    1.00000000    2.78999996
   17.33666801   91.67120361    1.00000000    2.78999996
   17.34000015   92.07689667    1.00000000    2.78999996
   17.34305573   94.91169739    1.00000000    2.78999996
   17.34638977   84.80870056    0.98000002    2.80999994
   17.34972191   94.19920349    0.98000002    2.80999994
   17.35194397   86.64800262    0.98000002    2.80999994
   17.35333443   91.56159973    0.98000002    2.80999994
   17.35666656   87.21189880    0.98000002    2.78999996
   17.35972214   91.43560028    0.98000002    2.78999996
   17.36305618   89.78240204    0.98000002    2.78999996
   17.36611176   90.24320221    0.95999998    2.78999996
   17.36944389   89.16149902    0.95999998    2.78999996
   17.37277794   96.79219818    0.95999998    2.78999996
   17.37583351   87.26409912    0.95999998    2.78999996
   17.37916756   92.99870300    0.95999998    2.80999994
   17.38249969   89.28399658    0.95999998    2.78999996
   17.38527679   87.88829803    0.95999998    2.78999996
   17.38611031   80.36029816    0.95999998    2.78999996
   17.38944435   88.77310181    0.95999998    2.80999994
   17.39249992   86.24649811    0.95999998    2.78999996
   17.39583397   99.77909851    0.95999998    2.78999996
   17.39888954   81.99980164    0.95999998    2.78999996
   17.40222168   89.50520325    0.98000002    2.78999996
   17.40555573   91.49009705    0.98000002    2.78999996
   17.40861130   87.97250366    0.98000002    2.78999996
   17.41194344   87.50599670    0.98000002    2.80999994
   17.41527748   82.39019775    0.98000002    2.80999994
   17.41833305   84.71980286    0.98000002    2.78999996
   17.41888809   93.97799683    0.98000002    2.78999996
   17.42222214   83.77449799    0.98000002    2.78999996
   17.42527771   89.17060089    0.98000002    2.78999996
   17.42860985   93.77519989    0.98000002    2.78999996
   17.43194389   96.66529846    0.98000002    2.78999996
   17.43499947   93.77850342    0.98000002    2.78999996
   17.43833160   97.25379944    0.98000002    2.78999996
   17.44166565   96.38849640    1.00000000    2.78999996
   17.44472122   91.84020233    0.98000002    2.80999994
   17.44805527   90.87680054    1.00000000    2.78999996
   17.45111275   97.92379761    1.00000000    2.78999996
   17.45222282   91.17880249    1.00000000    2.78999996
   17.45499992   94.41249847    1.01999998    2.78999996
   17.45805550   92.46720123    1.01999998    2.78999996
   17.46138954   94.37870026    1.01999998    2.78999996
   17.46472359   83.60430145    1.01999998    2.78999996
   17.46777916   84.07420349    1.03999996    2.78999996
   17.47111130   83.55960083    1.03999996    2.78999996
   17.47444534   81.92169952    1.03999996    2.78999996
   17.47750092   92.01309967    1.05999994    2.78999996
   17.48083305   85.07969666    1.05999994    2.78999996
   17.48416710   93.09929657    1.07000005    2.78999996
   17.48555565   91.34559631    1.07000005    2.78999996
   17.48777771   82.62629700    1.07000005    2.78999996
   17.49111176   83.71630096    1.09000003    2.78999996
   17.49416733   79.15889740    1.09000003    2.78999996
   17.49749947   91.52700043    1.09000003    2.76999998
   17.50055504   88.68379974    1.09000003    2.78999996
   17.50388908   92.69460297    1.09000003    2.78999996
   17.50722313   92.14679718    1.09000003    2.78999996
   17.51027870   80.73739624    1.09000003    2.78999996
   17.51361084   89.30149841    1.09000003    2.78999996
   17.51694489   84.96949768    1.09000003    2.80999994
   17.51888847   83.97959900    1.07000005    2.78999996
   17.52055550   89.01290131    1.07000005    2.80999994
   17.52361107   92.09940338    1.07000005    2.78999996
   17.52694511   82.37079620    1.07000005    2.78999996
   17.53027725   85.05970001    1.07000005    2.78999996
   17.53333282   86.84110260    1.07000005    2.78999996
   17.53666687   87.81359863    1.09000003    2.78999996
   17.53999901   80.96040344    1.09000003    2.78999996
   17.54305458   84.04900360    1.09000003    2.78999996
   17.54638863   89.70369720    1.09000003    2.78999996
   17.54944420   87.22499847    1.09000003    2.78999996
   17.55222130   89.71179962    1.09000003    2.78999996
   17.55333328   90.59429932    1.09000003    2.80999994
   17.55666542   92.87270355    1.09000003    2.78999996
   17.55972099   98.81690216    1.09000003    2.78999996
   17.56305504   91.72389984    1.11000001    2.78999996
   17.56611061   95.93930054    1.13000000    2.78999996
   17.56944466   93.22019958    1.14999998    2.80999994
   17.57277870   92.73989868    1.14999998    2.78999996
   17.57583427   93.98249817    1.13000000    2.78999996
   17.57916832   88.29620361    1.14999998    2.78999996
   17.58250046   93.29260254    1.14999998    2.78999996
   17.58555603   89.52590179    1.16999996    2.80999994
   17.58611107   97.26899719    1.16999996    2.78999996
   17.58916664   87.21800232    1.16999996    2.78999996
   17.59250069   89.33159637    1.16999996    2.78999996
   17.59583473   98.28919983    1.21000004    2.78999996
   17.59889030   98.12139893    1.23000002    2.78999996
   17.60222244   91.21009827    1.23000002    2.78999996
   17.60527802   93.14739990    1.25000000    2.76999998
   17.60861206   93.32019806    1.25000000    2.78999996
   17.61194420   84.68569946    1.25000000    2.78999996
   17.61499977   80.64679718    1.25000000    2.78999996
   17.61833382   85.86920166    1.23000002    2.78999996
   17.61888885   78.89659882    1.25000000    2.78999996
   17.62194443   88.48490143    1.23000002    2.78999996
   17.62527847   92.98919678    1.23000002    2.78999996
   17.62833405   80.79730225    1.25000000    2.78999996
   17.63166618   89.64420319    1.25000000    2.78999996
   17.63472176   91.51139832    1.26999998    2.78999996
   17.63805580   93.14510345    1.28999996    2.76999998
   17.64138794   92.90940094    1.28999996    2.78999996
   17.64444351   81.93969727    1.30999994    2.78999996
   17.64777756   82.78559875    1.28999996    2.78999996
   17.65111160   83.45169830    1.26999998    2.78999996
   17.65222168   94.83229828    1.26999998    2.78999996
   17.65472221   80.40799713    1.25000000    2.78999996
   17.65805435   91.15579987    1.25000000    2.80999994
   17.66110992   84.64499664    1.28999996    2.76999998
   17.66444397   84.99279785    1.26999998    2.80999994
   17.66777802   96.61540222    1.26999998    2.78999996
   17.67083359   84.80629730    1.25000000    2.78999996
   17.67416573   86.55030060    1.25000000    2.78999996
   17.67722130   89.26619720    1.26999998    2.78999996
   17.68055534   81.67160034    1.26999998    2.78999996
   17.68388748   86.22080231    1.23000002    2.78999996
   17.68555450   80.49019623    1.21000004    2.78999996
   17.68750000   80.26419830    1.21000004    2.76999998
   17.69083214   79.88349915    1.21000004    2.76999998
   17.69388771   75.08129883    1.19000006    2.78999996
   17.69722176   81.94110107    1.21000004    2.78999996
   17.70027924   77.44560242    1.23000002    2.78999996
   17.70361137   86.48040009    1.23000002    2.78999996
   17.70694542   85.72019958    1.23000002    2.78999996
   17.71000099   80.00330353    1.23000002    2.78999996
   17.71333504   82.13629913    1.21000004    2.78999996
   17.71666718   79.77220154    1.19000006    2.78999996
   17.71888924   84.80560303    1.16999996    2.78999996
   17.72027779   79.79409790    1.16999996    2.78999996
   17.72361183   92.61689758    1.16999996    2.78999996
   17.72666740   82.18479919    1.16999996    2.78999996
   17.73000145   77.91100311    1.16999996    2.78999996
   17.73305511   79.81580353    1.16999996    2.78999996
   17.73638916   84.87090302    1.16999996    2.78999996
   17.73972321   73.52339935    1.16999996    2.78999996
   17.74277878   83.42279816    1.16999996    2.78999996
   17.74611092   82.71890259    1.16999996    2.78999996
   17.74916649   79.31030273    1.16999996    2.78999996
   17.75222206   80.03790283    1.14999998    2.78999996
   17.75305557   81.50679779    1.14999998    2.78999996
   17.75611115   85.46510315    1.14999998    2.78999996
   17.75944519   80.56670380    1.14999998    2.78999996
   17.76277733   82.54119873    1.19000006    2.78999996
   17.76583290   78.69819641    1.16999996    2.78999996
   17.76916695   83.70719910    1.16999996    2.78999996
   17.77249908   76.43569946    1.16999996    2.80999994
   17.77555466   86.12619781    1.16999996    2.78999996
   17.77888870   93.12069702    1.16999996    2.78999996
   17.78194427   75.99230194    1.16999996    2.78999996
   17.78527641   85.71739960    1.14999998    2.80999994
   17.78583336   81.37960052    1.14999998    2.80999994
   17.78916550   88.42120361    1.19000006    2.78999996
   17.79222107   82.44789886    1.21000004    2.78999996
   17.79555511   80.69349670    1.25000000    2.78999996
   17.79888916   76.15329742    1.26999998    2.78999996
   17.80194283   80.18270111    1.28999996    2.78999996
   17.80527687   78.01570129    1.30999994    2.78999996
   17.80861092   74.05819702    1.33000004    2.78999996
   17.81166649   76.93080139    1.33000004    2.78999996
   17.81499863   77.93849945    1.34000003    2.78999996
   17.81805611   81.44210052    1.33000004    2.78999996
   17.81944466   76.52480316    1.33000004    2.78999996
   17.82194519   75.66470337    1.33000004    2.78999996
   17.82527924   82.24440002    1.33000004    2.78999996
   17.82861137   76.76889801    1.33000004    2.78999996
   17.83166695   83.67189789    1.33000004    2.78999996
   17.83500099   86.71610260    1.34000003    2.76999998
   17.83805656   88.11969757    1.34000003    2.78999996
   17.84138870   89.41490173    1.36000001    2.78999996
   17.84472275   81.44719696    1.38000000    2.78999996
   17.84777832   78.93139648    1.38000000    2.78999996
   17.85111237   78.17179871    1.39999998    2.76999998
   17.85250092   81.97689819    1.39999998    2.78999996
   17.85472298   88.40350342    1.39999998    2.78999996
   17.85777855   82.80709839    1.39999998    2.78999996
   17.86111069   78.74800110    1.41999996    2.78999996
   17.86444473   74.08619690    1.39999998    2.76999998
   17.86750031   82.14920044    1.39999998    2.78999996
   17.87083435   79.29689789    1.39999998    2.76999998
   17.87388992   78.56670380    1.39999998    2.76999998
   17.87722206   80.62480164    1.39999998    2.78999996
   17.88055611   89.41950226    1.39999998    2.76999998
   17.88361168   92.61160278    1.39999998    2.78999996
   17.88583374   90.86679840    1.39999998    2.78999996
   17.88750076   84.05359650    1.39999998    2.76999998
   17.89055634   91.19709778    1.38000000    2.78999996
   17.89388847   89.58280182    1.38000000    2.76999998
   17.89722252   87.84580231    1.38000000    2.76999998
   17.90027809   87.24140167    1.36000001    2.76999998
   17.90361023   77.49500275    1.39999998    2.76999998
   17.90666580   84.31320190    1.39999998    2.78999996
   17.90999985   88.19799805    1.39999998    2.76999998
   17.91333389   92.26080322    1.39999998    2.76999998
   17.91638756   81.11930084    1.41999996    2.76999998
   17.91916656   91.68329620    1.41999996    2.78999996
   17.92027664   79.90409851    1.41999996    2.76999998
   17.92333221   81.43830109    1.39999998    2.76999998
   17.92666626   91.15409851    1.39999998    2.76999998
   17.93000031   88.71170044    1.39999998    2.76999998
   17.93305397   93.95559692    1.39999998    2.80999994
   17.93638802   95.43289948    1.38000000    2.78999996
   17.93972206   85.39040375    1.38000000    2.78999996
   17.94277763   91.59829712    1.36000001    2.78999996
   17.94610977   92.79180145    1.36000001    2.78999996
   17.94916534   91.89649963    1.36000001    2.78999996
   17.95250130   93.07099915    1.36000001    2.78999996
   17.95305634   92.99500275    1.36000001    2.78999996
   17.95611191   91.60150146    1.36000001    2.76999998
   17.95944595   92.28690338    1.36000001    2.76999998
   17.96277809   93.35459900    1.38000000    2.76999998
   17.96583366   98.85230255    1.38000000    2.78999996
   17.96916771   93.91790009    1.39999998    2.76999998
   17.97249985   93.62640381    1.39999998    2.76999998
   17.97555542   84.65460205    1.39999998    2.78999996
   17.97888947   91.58399963    1.38000000    2.78999996
   17.98222351   88.63240051    1.38000000    2.76999998
   18.00166702   95.82820129    1.38000000    2.78999996
   18.00222206   98.74440002    1.38000000    2.78999996
   18.00527763  103.58899689    1.36000001    2.76999998
   18.00861168   98.51820374    1.38000000    2.76999998
   18.01194382   93.41629791    1.38000000    2.76999998
   18.01499939   93.16249847    1.38000000    2.76999998
   18.01833344  100.43699646    1.36000001    2.76999998
   18.02138901   98.64450073    1.34000003    2.78999996
   18.02472115  111.97699738    1.34000003    2.76999998
   18.02805519  100.84200287    1.34000003    2.78999996
   18.03111076  103.00800323    1.33000004    2.76999998
   18.03444481   95.64469910    1.33000004    2.78999996
   18.03555489   99.31099701    1.33000004    2.78999996
   18.03805542   92.86409760    1.33000004    2.78999996
   18.04138756  104.54799652    1.33000004    2.78999996
   18.04472160  101.53500366    1.33000004    2.76999998
   18.04777718  109.42500305    1.30999994    2.76999998
   18.05111122  100.71600342    1.30999994    2.78999996
   18.05416679   91.50869751    1.33000004    2.78999996
   18.05749893   87.57980347    1.33000004    2.76999998
   18.06083298   95.49440002    1.33000004    2.78999996
   18.06388855   95.11620331    1.33000004    2.78999996
   18.06722260   84.59300232    1.33000004    2.76999998
   18.06888962   92.07250214    1.33000004    2.76999998
   18.07083511   99.93830109    1.33000004    2.78999996
   18.07416725  100.36299896    1.33000004    2.76999998
   18.07750130   89.55480194    1.33000004    2.76999998
   18.08055687   88.73500061    1.33000004    2.76999998
   18.08388901   89.16680145    1.33000004    2.78999996
   18.08694458   95.02649689    1.30999994    2.78999996
   18.09027863   87.10469818    1.30999994    2.76999998
   18.09361267   88.76679993    1.30999994    2.76999998
   18.09666824   92.73930359    1.30999994    2.78999996
   18.10000038   87.96089935    1.33000004    2.76999998
   18.10222244   91.48709869    1.33000004    2.76999998
   18.10361099   90.60179901    1.33000004    2.78999996
   18.10694504   82.65200043    1.33000004    2.76999998
   18.11027908   87.29049683    1.33000004    2.76999998
   18.11333466   82.08840179    1.33000004    2.78999996
   18.11666679   92.89479828    1.33000004    2.78999996
   18.11972237  120.16799927    1.33000004    2.78999996
   18.12333298  187.98300171    1.33000004    2.76999998
   18.12638855   -1.00000000    1.34000003    2.76999998
   18.12972260   -1.00000000    1.34000003    2.76999998
   18.13277817   -1.00000000    1.34000003    2.76999998
   18.13555527  103.90799713    1.34000003    2.78999996
   18.13638878   96.14070129    1.34000003    2.78999996
   18.13972282   93.83560181    1.34000003    2.76999998
   18.14305496   87.23600006    1.34000003    2.76999998
   18.14611053   96.73619843    1.34000003    2.75000000
   18.14944458   86.01200104    1.34000003    2.76999998
   18.15277672  102.48699951    1.36000001    2.76999998
   18.15583229   96.72499847    1.36000001    2.76999998
   18.15916634   89.64610291    1.36000001    2.76999998
   18.16222191   92.37529755    1.36000001    2.78999996
   18.16555595   93.42700195    1.38000000    2.76999998
   18.16888809   91.26159668    1.38000000    2.76999998
   18.16916656   90.02549744    1.38000000    2.76999998
   18.17249870   95.88899994    1.39999998    2.76999998
   18.17583275   85.83670044    1.41999996    2.76999998
   18.17888832   99.01200104    1.41999996    2.76999998
   18.18222237   96.29540253    1.41999996    2.78999996
   18.18555450   99.67669678    1.41999996    2.76999998
   18.18861008   96.45420074    1.41999996    2.76999998
   18.19194412   95.85800171    1.41999996    2.76999998
   18.19527626   85.50520325    1.41999996    2.76999998
   18.19833183   98.80169678    1.36000001    2.76999998
   18.20166779   95.72810364    1.36000001    2.78999996
   18.20222282  100.20600128    1.36000001    2.78999996
   18.20499992  115.54900360    1.36000001    2.76999998
   18.20833397   97.37940216    1.36000001    2.76999998
   18.21166801   99.37159729    1.36000001    2.76999998
   18.21472359   90.56500244    1.38000000    2.75000000
   18.21805573  100.81900024    1.39999998    2.76999998
   18.22138977   83.83339691    1.39999998    2.75000000
   18.22444534   93.00930023    1.38000000    2.76999998
   18.22777748   94.18199921    1.38000000    2.75000000
   18.23083305   93.13970184    1.38000000    2.76999998
   18.23416710  102.35199738    1.36000001    2.78999996
   18.23555565  100.82399750    1.36000001    2.78999996
   18.23805618  110.46600342    1.36000001    2.78999996
   18.24111176  102.19799805    1.36000001    2.76999998
   18.24444389  106.11299896    1.36000001    2.76999998
   18.24749947   99.65740204    1.39999998    2.76999998
   18.25083351  107.74400330    1.39999998    2.76999998
   18.25416756   99.45790100    1.41999996    2.76999998
   18.25722313   90.78910065    1.44000006    2.76999998
   18.26055527  103.20700073    1.44000006    2.76999998
   18.26388931  102.38300323    1.46000004    2.76999998
   18.26694489   92.98359680    1.48000002    2.76999998
   18.26888847  108.00199890    1.46000004    2.76999998
   18.27083397   97.18569946    1.46000004    2.76999998
   18.27388954  100.22699738    1.48000002    2.76999998
   18.27722168   95.01000214    1.51999998    2.76999998
   18.28027725   90.25890350    1.51999998    2.75000000
   18.28361130   98.62159729    1.53999996    2.76999998
   18.28694344   90.69770050    1.55999994    2.75000000
   18.28999901  105.01300049    1.58000004    2.76999998
   18.29333305  102.06199646    1.60000002    2.76999998
   18.29666710  100.96900177    1.61000001    2.75000000
   18.29972076   99.37629700    1.61000001    2.76999998
   18.30222130   99.19699860    1.61000001    2.76999998
   18.30360985  104.94400024    1.61000001    2.76999998
   18.30666542   92.01069641    1.63000000    2.76999998
   18.30999947  107.02200317    1.61000001    2.76999998
   18.31333351  100.41000366    1.63000000    2.76999998
   18.31638718   98.72219849    1.61000001    2.76999998
   18.31972313   98.39859772    1.61000001    2.75000000
   18.32277870  104.06099701    1.63000000    2.75000000
   18.32611275   90.46320343    1.61000001    2.75000000
   18.32944489   96.61750031    1.61000001    2.75000000
   18.33250046   97.27220154    1.63000000    2.76999998
   18.33555603   98.91400146    1.61000001    2.76999998
   18.33638954   96.85489655    1.61000001    2.76999998
   18.33944511   94.54260254    1.61000001    2.76999998
   18.34277916  102.42500305    1.63000000    2.76999998
   18.34611130  104.88600159    1.64999998    2.75000000
   18.34916687   98.41880035    1.69000006    2.75000000
   18.35250092  113.43599701    1.71000004    2.75000000
   18.35555649   92.81169891    1.69000006    2.75000000
   18.35888863   88.84670258    1.66999996    2.75000000
   18.36222267   99.50189972    1.66999996    2.75000000
   18.36527824   90.47149658    1.66999996    2.75000000
   18.36861038   85.44899750    1.64999998    2.75000000
   18.36916733   97.83260345    1.64999998    2.75000000
   18.37249947   98.31629944    1.63000000    2.76999998
   18.37555504   98.57420349    1.63000000    2.76999998
   18.37888908   97.04149628    1.64999998    2.76999998
   18.38222313   92.37740326    1.63000000    2.76999998
   18.38527679   96.29959869    1.61000001    2.76999998
   18.38861084   95.69789886    1.61000001    2.75000000
   18.39194489   89.69280243    1.61000001    2.75000000
   18.39500046   89.64489746    1.61000001    2.75000000
   18.39833260   92.30020142    1.58000004    2.75000000
   18.40138817   97.24459839    1.61000001    2.75000000
   18.40250015   91.93190002    1.61000001    2.75000000
   18.40527725   93.05850220    1.61000001    2.75000000
   18.40833282  104.30200195    1.61000001    2.76999998
   18.41194344  109.81500244    1.58000004    2.76999998
   18.41499901  111.51100159    1.58000004    2.75000000
   18.41833305  102.91600037    1.66999996    2.75000000
   18.42138863   95.09230042    1.71000004    2.75000000
   18.42472076  101.76200104    1.80999994    2.75000000
   18.42805481  100.02400208    1.78999996    2.75000000
   18.43111038  102.67800140    1.76999998    2.75000000
   18.43444443  102.60600281    2.03999996    2.75000000
   18.43583298   92.99240112    2.11999989    2.73000002
   18.43805504   93.31870270    2.21000004    2.75000000
   18.44111061  104.59600067    2.28999996    2.73000002
   18.44444275  100.00099945    2.17000008    2.75000000
   18.44777679   97.56659698    2.13000011    2.75000000
   18.45083427  100.89399719    2.09999990    2.75000000
   18.45416832  102.35099792    0.73000002    1.98000002
   18.45722389  103.06500244    0.23000000    0.46000001
   18.46055603  100.23799896    0.13000000    0.25000000
   18.46389008   94.86049652    0.09000000    0.05000000
   18.46694565   95.96469879    0.09000000    0.05000000
   18.46916771  101.10500336    0.09000000    0.05000000
   18.47083473   89.12409973    0.09000000    0.05000000
   18.47389030   87.91929626    0.09000000    0.05000000
   18.47722244  107.58399963    0.09000000    0.05000000
   18.48055649   92.26979828    0.09000000    0.05000000
   18.48361206   91.49459839    0.09000000    0.05000000
   18.48694420   98.17109680    0.09000000    0.05000000
   18.48999977   93.78179932    0.09000000    0.05000000
   18.49333382  110.52400208    0.09000000    0.05000000
   18.49666786   95.67259979    0.09000000    0.05000000
   18.49972153   90.29440308    0.09000000    0.05000000
   18.50250053  105.43499756    0.09000000    0.05000000
   18.50361061  115.56099701    0.09000000    0.05000000
   18.50666618  119.73200226    0.09000000    0.05000000
   18.51000023  107.43099976    0.09000000    0.05000000
   18.51333427  112.80799866    0.09000000    0.05000000
   18.51638794  107.80899811    0.09000000    0.05000000
   18.51972198  104.31999969    0.09000000    0.05000000
   18.52305603   97.31800079    0.09000000    0.05000000
   18.52611160  110.26300049    0.09000000    0.05000000
   18.52944374   93.59149933    0.09000000    0.05000000
   18.53249931  105.97200012    0.09000000    0.05000000
   18.53583336   88.65080261    0.09000000    0.05000000
   18.53638840   91.60379791    0.09000000    0.05000000
   18.53944397   97.10510254    0.09000000    0.05000000
   18.54277802   97.53150177    0.09000000    0.05000000
   18.54611015   97.98339844    0.09000000    0.05000000
   18.54916573  104.82399750    0.09000000    0.05000000
   18.55249977  101.51300049    0.09000000    0.05000000
   18.55583191   99.68730164    0.09000000    0.05000000
   18.55888748   89.87899780    0.09000000    0.05000000
   18.56222153  101.57099915    0.09000000    0.05000000
   18.56527710   97.18360138    0.09000000    0.05000000
   18.56861115   91.41729736    0.09000000    0.05000000
   18.56916809   97.71929932    0.09000000    0.05000000
   18.57222366  100.76499939    0.09000000    0.05000000
   18.57527924   99.57800293    0.09000000    0.05000000
   18.57861137  109.41799927    0.09000000    0.05000000
   18.58194542   98.30709839    0.09000000    0.05000000
   18.58500099   85.74160004    0.09000000    0.05000000
   18.58833313  103.85700226    0.09000000    0.05000000
   18.59166718  107.35700226    0.09000000    0.05000000
   18.59472275   96.85150146    0.09000000    0.05000000
   18.59805679  109.11299896    0.09000000    0.05000000
   18.60111237   90.30329895    0.09000000    0.05000000
   18.60250092   93.72899628    0.09000000    0.05000000
   18.60499954  100.08200073    0.09000000    0.05000000
   18.60805511  100.62999725    0.09000000    0.05000000
   18.61138916   92.16149902    0.09000000    0.05000000
   18.61472321   89.07260132    0.09000000    0.05000000
   18.61777878   84.04579926    0.09000000    0.05000000
   18.62111092   94.49759674    0.09000000    0.05000000
   18.62444496   91.59680176    0.09000000    0.05000000
   18.62750053   95.46659851    0.09000000    0.05000000
   18.63083267   84.71450043    0.09000000    0.05000000
   18.63388824   90.26499939    0.09000000    0.05000000
   18.63583374  102.26000214    0.09000000    0.05000000
   18.63777733  106.81900024    0.09000000    0.05000000
   18.64111137  102.12000275    0.09000000    0.05000000
   18.64416695  112.33000183    0.09000000    0.05000000
   18.64749908  108.51499939    0.09000000    0.05000000
   18.65055466   87.46399689    0.09000000    0.05000000
   18.65388870   89.48069763    0.09000000    0.05000000
   18.65722275   97.24210358    0.09000000    0.05000000
   18.66027832   99.43049622    0.09000000    0.05000000
   18.66361046   97.45069885    0.09000000    0.05000000
   18.66694450   98.48930359    0.09000000    0.05000000
   18.66916656  102.33699799    0.09000000    0.05000000
   18.67055511   97.52339935    0.09000000    0.05000000
   18.67388916   99.79509735    0.09000000    0.05000000
   18.67694473  111.20500183    0.09000000    0.05000000
   18.68027687  110.02200317    0.09000000    0.05000000
   18.68333244  108.50900269    0.09000000    0.05000000
   18.68666649  118.36100006    0.09000000    0.05000000
   18.68999863   99.13649750    0.09000000    0.05000000
   18.69305420   94.53790283    0.09000000    0.05000000
   18.69638824  100.36499786    0.09000000    0.05000000
   18.69972038  109.55000305    0.09000000    0.05000000
   18.70250130  107.47499847    0.09000000    0.05000000
   18.70333481  108.92900085    0.09000000    0.05000000
   18.70639038  114.02999878    0.09000000    0.05000000
   18.70972252  111.44799805    0.09000000    0.05000000
   18.71305656  104.98400116    0.09000000    0.05000000
   18.71611214  104.69200134    0.09000000    0.05000000
   18.71944427  110.50199890    0.09000000    0.05000000
   18.72277832  101.96700287    0.09000000    0.05000000
   18.72583389   92.07669830    0.09000000    0.05000000
   18.72916794  102.29100037    0.09000000    0.05000000
   18.73222351   99.18560028    0.09000000    0.05000000
   18.73555565  106.52700043    0.09000000    0.05000000
   18.73611069  108.10600281    0.09000000    0.05000000
   18.73944473  110.06900024    0.09000000    0.05000000
   18.74250031   99.17630005    0.09000000    0.05000000
   18.74583435  104.90000153    0.09000000    0.05000000
   18.74916649  111.24199677    0.09000000    0.05000000
   18.75222206  106.53099823    0.09000000    0.05000000
   18.75555611   97.81510162    0.09000000    0.05000000
   18.75861168  107.25700378    0.09000000    0.05000000
   18.76194382  106.24299622    0.09000000    0.05000000
   18.76527786  109.99400330    0.09000000    0.05000000
   18.76833344  106.90499878    0.09000000    0.05000000
   18.76944351  112.23500061    0.09000000    0.05000000
   18.77222252  115.42500305    0.09000000    0.05000000
   18.77527809  102.99099731    0.09000000    0.05000000
   18.77861023  114.39299774    0.09000000    0.05000000
   18.78194427  107.46900177    0.09000000    0.05000000
   18.78499985   98.45469666    0.09000000    0.05000000
   18.78833199  105.90399933    0.09000000    0.05000000
   18.79138756  117.22899628    0.09000000    0.05000000
   18.79472160   96.77359772    0.09000000    0.05000000
   18.79805565  107.77899933    0.09000000    0.05000000
   18.80111122  105.02799988    0.09000000    0.05000000
   18.80277634  110.52700043    0.09000000    0.05000000
   18.80499840  108.33100128    0.09000000    0.05000000
   18.80805397  115.05300140    0.09000000    0.05000000
   18.81138802  112.07399750    0.09000000    0.05000000
   18.81472206  100.70899963    0.09000000    0.05000000
   18.81777954  104.26499939    0.09000000    0.05000000
   18.82111168   99.18440247    0.09000000    0.05000000
   18.82416725   97.12129974    0.09000000    0.05000000
   18.82750130   95.22910309    0.09000000    0.05000000
   18.83083344  100.93900299    0.09000000    0.05000000
   18.83388901  109.35500336    0.09000000    0.05000000
   18.83611107   93.31220245    0.09000000    0.05000000
   18.83777809   88.87339783    0.09000000    0.05000000
   18.84083366   96.86820221    0.09000000    0.05000000
   18.84416771  108.44899750    0.09000000    0.05000000
   18.84749985   99.46510315    0.09000000    0.05000000
   18.85055542   92.51650238    0.09000000    0.05000000
   18.85388947   97.67849731    0.09000000    0.05000000
   18.85694504  103.35399628    0.09000000    0.05000000
   18.86027908   99.24900055    0.09000000    0.05000000
   18.86361122  102.71900177    0.09000000    0.05000000
   18.86666679   97.68219757    0.09000000    0.05000000
   18.86944389   98.58789825    0.09000000    0.05000000
   18.87055588  102.00000000    0.09000000    0.05000000
   18.87361145  110.19499969    0.09000000    0.05000000
   18.87694550  107.81600189    0.09000000    0.05000000
   18.88027763  108.97200012    0.09000000    0.05000000
   18.88333321  100.98000336    0.09000000    0.05000000
   18.88666725   98.86129761    0.09000000    0.05000000
   18.88972282  100.11599731    0.09000000    0.05000000
   18.89305496  106.38500214    0.09000000    0.05000000
   18.89638901  111.38200378    0.09000000    0.05000000
   18.89944458  106.14299774    0.09000000    0.05000000
   18.90277672  108.43299866    0.09000000    0.05000000
   18.90333366  109.92299652    0.09000000    0.05000000
   18.90638924  120.82800293    0.09000000    0.05000000
   18.90972137  110.99099731    0.09000000    0.05000000
   18.91305542  102.02500153    0.09000000    0.05000000
   18.91611099  108.43099976    0.09000000    0.05000000
   18.91944313  115.67400360    0.09000000    0.05000000
   18.92249870  104.41899872    0.09000000    0.05000000
   18.92583275  111.73899841    0.09000000    0.05000000
   18.92916679  102.49500275    0.09000000    0.05000000
   18.93222237  114.71499634    0.09000000    0.05000000
   18.93555450  102.37699890    0.09000000    0.05000000
   18.93610954  111.69000244    0.09000000    0.05000000
   18.93916512  107.74600220    0.09000000    0.05000000
   18.94222069  104.33599854    0.09000000    0.05000000
   18.94555473  112.90599823    0.09000000    0.05000000
   18.94888878  114.11399841    0.09000000    0.05000000
   18.95194435  113.58200073    0.09000000    0.05000000
   18.95527840  128.35899353    0.09000000    0.05000000
   18.95833397  105.52500153    0.09000000    0.05000000
   18.96166801  101.93900299    0.09000000    0.05000000
   18.96500015  107.85399628    0.09000000    0.05000000
   18.96805573  109.34799957    0.09000000    0.05000000
   18.96944427  122.67800140    0.09000000    0.05000000
   18.97194481  103.55899811    0.09000000    0.05000000
   18.97500038   98.92939758    0.09000000    0.05000000
   18.97833443   99.90609741    0.09000000    0.05000000
   18.98166656  110.01300049    0.09000000    0.05000000
   18.98472214   97.37750244    0.09000000    0.05000000
   18.98805618  106.76200104    0.09000000    0.05000000
   18.99138832   98.10260010    0.09000000    0.05000000
   18.99444389  107.94699860    0.09000000    0.05000000
   18.99777794  107.19799805    0.09000000    0.05000000
   19.00083351   96.57309723    0.09000000    0.05000000
   19.01833344  102.60700226    0.09000000    0.05000000
   19.02083397   99.47139740    0.09000000    0.05000000
