    HOUR (UT)   FLARE FACTOR    SKY TESTER    SUN TESTER
   11.56166649   -1.00000000   -1.00000000   -1.00000000
   11.59805489  154.94299316    0.00000000    0.00000000
   11.60138893  162.78199768    0.00000000    0.00000000
   11.60472298  151.46499634    0.00000000    0.00000000
   11.60777855  139.59800720    0.00000000    0.00000000
   11.61111164  146.85299683    0.00000000    0.00000000
   11.61416721  126.06600189    0.00000000    0.00000000
   11.61833382  126.06600189    0.00000000    0.00000000
   11.62250042  139.93699646    0.00000000    0.00000000
   11.62583351  128.61300659    0.00000000    0.00000000
   11.62888908  134.71400452    0.00000000    0.00000000
   11.63138866  138.46299744    0.00000000    0.00000000
   11.63277817  161.19999695    0.00000000    0.00000000
   11.63583279  166.95399475    0.00000000    0.00000000
   11.63916683  148.49699402    0.00000000    0.00000000
   11.64249992  144.63900757    0.00000000    0.00000000
   11.64555550  158.92500305    4.90999985    1.88000000
   11.64888859  145.56300354    4.90999985    1.88000000
   11.65194416  147.17300415    4.90999985    1.88000000
   11.65527725  149.49400330    4.90999985    1.88000000
   11.66138840  149.49400330    4.90999985    1.88000000
   11.66527748  139.11199951    4.90999985    1.88000000
   11.66861153  125.32399750    4.90999985    1.88000000
   11.67194462  131.42100525    4.90999985    1.88000000
   11.67500019  142.27200317    4.90999985    1.88000000
   11.67833328  131.91400146    4.90999985    1.88000000
   11.68166733  162.72399902    4.90999985    1.88000000
   11.68472195  147.14500427    4.90999985    1.88000000
   11.68805599  148.45199585    4.90999985    1.88000000
   11.69138908  139.08700562    4.90999985    1.88000000
   11.69444466  124.87500000    4.90999985    1.88000000
   11.69777775  143.38200378    4.90999985    1.88000000
   11.69833374  134.61999512    4.90999985    1.88000000
   11.70416641  134.61999512    4.90999985    1.88000000
   11.70833302  136.73899841    4.90999985    1.88000000
   11.71138859  130.78399658    4.90999985    1.88000000
   11.71472168  163.17799377    4.90999985    1.88000000
   11.71805477  150.13999939    4.90999985    1.88000000
   11.72111034  154.05000305    4.90999985    1.88000000
   11.72444439  139.06500244    4.90999985    1.88000000
   11.72749996  136.14500427    4.90999985    1.88000000
   11.73083305  132.13400269    4.90999985    1.88000000
   11.73166656  132.18600464    4.90999985    1.88000000
   11.73472214  159.39300537    4.90999985    1.88000000
   11.73777771  146.14999390    4.90999985    1.88000000
   11.74111176  131.08500671    4.90999985    1.88000000
   11.74694443  131.08500671    4.90999985    1.88000000
   11.75111103  143.34899902    4.90999985    1.88000000
   11.75444412  143.83799744    4.90999985    1.88000000
   11.75749969  145.74400330    4.90999985    1.88000000
   11.76083374  156.72000122    4.90999985    1.88000000
   11.76388931  143.69000244    4.90999985    1.88000000
   11.76500034  142.00900269    4.90999985    1.88000000
   11.76777744  142.14199829    4.90999985    1.88000000
   11.77083302  141.59100342    4.90999985    1.88000000
   11.77416611  139.89399719    4.90999985    1.88000000
   11.77722168  143.09700012    4.90999985    1.88000000
   11.78055573  129.34700012    4.90999985    1.88000000
   11.78388977  143.34599304    4.90999985    1.88000000
   11.78972244  143.34599304    4.90999985    1.88000000
   11.79388905  135.63400269    4.90999985    1.88000000
   11.79722309  131.77600098    4.90999985    1.88000000
   11.79833412  146.24699402    4.90999985    1.88000000
   11.80083370  127.95400238    4.90999985    1.88000000
   11.80388927  161.05900574    4.90999985    1.88000000
   11.80722237  142.53799438    4.90999985    1.88000000
   11.81027794  142.62600708    4.90999985    1.88000000
   11.81361103  144.90800476    4.90999985    1.88000000
   11.81694412  145.12399292    4.90999985    1.88000000
   11.81999969  150.80799866    4.90999985    1.88000000
   11.82333374  139.41400146    4.90999985    1.88000000
   11.82666683  139.40699768    4.90999985    1.88000000
   11.83277798  139.40699768    4.90999985    1.88000000
   11.83666611  132.47799683    4.90999985    1.88000000
   11.84000015  126.71099854    4.90999985    1.88000000
   11.84333324  132.01600647    4.90999985    1.88000000
   11.84638882  107.15299988    4.90999985    1.88000000
   11.84972191  126.46399689    4.90999985    1.88000000
   11.85305595  115.76300049    4.90999985    1.88000000
   11.85611153  143.92700195    4.90999985    1.88000000
   11.85944462  129.36300659    4.90999985    1.88000000
   11.86277771  127.19300079    4.90999985    1.88000000
   11.86500072  129.36599731    4.90999985    1.88000000
   11.86638927  122.31800079    4.90999985    1.88000000
   11.86944485  138.40199280    4.90999985    1.88000000
   11.87555599  138.40199280    4.90999985    1.88000000
   11.87972260  143.49299622    4.90999985    1.88000000
   11.88277817  130.90499878    4.90999985    1.88000000
   11.88611126  136.97099304    4.90999985    1.88000000
   11.88944435  128.33500671    4.90999985    1.88000000
   11.89249992  128.51199341    4.90999985    1.88000000
   11.89583302  125.78600311    4.90999985    1.88000000
   11.89833355  125.40899658    4.90999985    1.88000000
   11.89944458  135.48500061    4.90999985    1.88000000
   11.90249920  130.06100464    4.90999985    1.88000000
   11.90583324  113.62300110    4.90999985    1.88000000
   11.90888882  111.98899841    4.90999985    1.88000000
   11.91222191  122.49199677    4.90999985    1.88000000
   11.91833401  122.49199677    4.90999985    1.88000000
   11.92250061  123.19599915    4.90999985    1.88000000
   11.92583370  123.40799713    4.90999985    1.88000000
   11.92888927  135.83200073    4.90999985    1.88000000
   11.93166733  140.49899292    4.90999985    1.88000000
   11.93277836  130.43200684    4.90999985    1.88000000
   11.93583298  135.42700195    4.90999985    1.88000000
   11.93916702  131.91999817    4.90999985    1.88000000
   11.94222260  138.19000244    4.90999985    1.88000000
   11.94555569  128.05700684    4.90999985    1.88000000
   11.94888878  138.59800720    4.90999985    1.88000000
   11.95194435  136.09100342    4.90999985    1.88000000
   11.95527744  130.33399963    4.90999985    1.88000000
   11.96111107  130.33399963    4.90999985    1.88000000
   11.96527767  132.90499878    4.90999985    1.88000000
   11.96861076  146.07600403    4.90999985    1.88000000
   11.97166634  132.52799988    4.90999985    1.88000000
   11.97499943  143.00000000    4.90999985    1.88000000
   11.97833252  132.37699890    4.90999985    1.88000000
   11.98138809  139.98599243    4.90999985    1.88000000
   11.98472214  139.42999268    4.90999985    1.88000000
   11.98805618  141.42900085    4.90999985    1.88000000
   11.99111176  139.19700623    4.90999985    1.88000000
   11.99444485  129.24299622    4.90999985    1.88000000
   11.99750042  146.82899475    4.90999985    1.88000000
   11.99833393  134.89799500    4.90999985    1.88000000
   12.00388908  134.89799500    4.90999985    1.88000000
   12.00805569  129.30799866    4.90999985    1.88000000
   12.01138878  150.27499390    4.90999985    1.88000000
   12.01472187  125.82599640    4.90999985    1.88000000
   12.01777744  137.24000549    4.90999985    1.88000000
   12.02111053  128.90100098    4.90999985    1.88000000
   12.02444458  142.16400146    4.90999985    1.88000000
   12.02750015  123.38200378    4.90999985    1.88000000
   12.03083324  130.35200500    4.90999985    1.88000000
   12.03166676  137.29800415    4.90999985    1.88000000
   12.03444481  141.97399902    4.90999985    1.88000000
   12.03750038  141.84800720    4.90999985    1.88000000
   12.04083347  135.81799316    4.90999985    1.88000000
   12.04694462  135.81799316    4.90999985    1.88000000
   12.05111122  154.38699341    4.90999985    1.88000000
   12.05416679  158.79100037    4.90999985    1.88000000
   12.05749989  133.63299561    4.90999985    1.88000000
   12.06083393  148.37699890    4.90999985    1.88000000
   12.06388950  137.70700073    4.90999985    1.88000000
   12.06500053  142.01600647    4.90999985    1.88000000
   12.06777763  151.93699646    4.90999985    1.88000000
   12.07083321  139.77999878    4.90999985    1.88000000
   12.07416630  138.54400635    4.90999985    1.88000000
   12.07750034  136.13900757    4.90999985    1.88000000
   12.08055592  136.31799316    4.90999985    1.88000000
   12.08388901  137.62699890    4.90999985    1.88000000
   12.08972168  137.62699890    4.90999985    1.88000000
   12.09388828  141.92599487    4.90999985    1.88000000
   12.09722233  129.39599609    4.90999985    1.88000000
   12.09833336  128.18499756    4.90999985    1.88000000
   12.10083389  129.24200439    4.90999985    1.88000000
   12.10416698  151.87199402    4.90999985    1.88000000
   12.10722256  137.63499451    4.90999985    1.88000000
   12.11055565  114.25499725    4.90999985    1.88000000
   12.11361122  134.16499329    4.90999985    1.88000000
   12.11694431  145.96499634    4.90999985    1.88000000
   12.12027836  151.05900574    4.90999985    1.88000000
   12.12333393  134.34800720    4.90999985    1.88000000
   12.12666702  150.08999634    4.90999985    1.88000000
   12.13249969  150.08999634    4.90999985    1.88000000
   12.13666630  153.98500061    4.90999985    1.88000000
   12.14000034  145.46800232    4.90999985    1.88000000
   12.14305496  134.55799866    4.90999985    1.88000000
   12.14638901  132.94700623    4.90999985    1.88000000
   12.14972210  149.29899597    4.90999985    1.88000000
   12.15277767  146.50700378    4.90999985    1.88000000
   12.15611076  135.47399902    4.90999985    1.88000000
   12.15916634  139.91099548    4.90999985    1.88000000
   12.16249943  150.44099426    4.90999985    1.88000000
   12.16499996  133.06100464    4.90999985    1.88000000
   12.16638851  120.15599823    4.90999985    1.88000000
   12.16944504  130.66700745    4.90999985    1.88000000
   12.17527771  130.66700745    4.90999985    1.88000000
   12.17944431  124.81199646    4.90999985    1.88000000
   12.18277836  113.43099976    4.90999985    1.88000000
   12.18611145  124.51100159    4.90999985    1.88000000
   12.18916702  125.10900116    4.90999985    1.88000000
   12.19250011  118.98999786    4.90999985    1.88000000
   12.19583321  113.46700287    4.90999985    1.88000000
   12.19833374  122.56300354    4.90999985    1.88000000
   12.19944477  150.32899475    4.90999985    1.88000000
   12.20249939  135.53900146    4.90999985    1.88000000
   12.20583344  137.70599365    4.90999985    1.88000000
   12.20916653  136.47700500    4.90999985    1.88000000
   12.21222210  134.49200439    4.90999985    1.88000000
   12.21833324  134.49200439    4.90999985    1.88000000
   12.22249985  127.14700317    4.90999985    1.88000000
   12.22555542  147.44799805    4.90999985    1.88000000
   12.22888851  135.30799866    4.90999985    1.88000000
   12.23166656  135.04800415    4.90999985    1.88000000
   12.23249912  138.81799316    4.90999985    1.88000000
   12.23555565  138.01699829    4.90999985    1.88000000
   12.23888874  138.36700439    4.90999985    1.88000000
   12.24194431  137.50300598    4.90999985    1.88000000
   12.24527836  129.93200684    4.90999985    1.88000000
   12.24861145  137.18200684    4.90999985    1.88000000
   12.25166702  131.75500488    4.90999985    1.88000000
   12.25500011  132.03199768    4.90999985    1.88000000
   12.26111126  132.03199768    4.90999985    1.88000000
   12.26527786  139.83099365    4.90999985    1.88000000
   12.26833344  132.18299866    4.90999985    1.88000000
   12.27166653  131.31199646    4.90999985    1.88000000
   12.27499962  128.79200745    4.90999985    1.88000000
   12.27805519  124.21199799    4.90999985    1.88000000
   12.28138828  126.40100098    4.90999985    1.88000000
   12.28444481  129.90400696    4.90999985    1.88000000
   12.28777790  122.38800049    4.90999985    1.88000000
   12.29111195  133.46299744    4.90999985    1.88000000
   12.29416752  134.31599426    4.90999985    1.88000000
   12.29750061  131.54499817    4.90999985    1.88000000
   12.29833412  118.71499634    4.90999985    1.88000000
   12.30388927  118.71499634    4.90999985    1.88000000
   12.30805588  132.33799744    4.90999985    1.88000000
   12.31138897  132.05200195    4.90999985    1.88000000
   12.31444454  130.86700439    4.90999985    1.88000000
   12.31777763  134.79299927    4.90999985    1.88000000
   12.32083321  133.21899414    4.90999985    1.88000000
   12.32416630  135.01699829    4.90999985    1.88000000
   12.32750034  132.52000427    4.90999985    1.88000000
   12.33055592  126.07599640    4.90999985    1.88000000
   12.33166695  130.44799805    4.90999985    1.88000000
   12.33444405  129.64500427    4.90999985    1.88000000
   12.33749962  130.84399414    4.90999985    1.88000000
   12.34083271  129.32899475    4.90999985    1.88000000
   12.34666634  129.32899475    4.90999985    1.88000000
   12.35083389  125.61699677    4.90999985    1.88000000
   12.35416698  132.75599670    4.90999985    1.88000000
   12.35750008  129.10600281    4.90999985    1.88000000
   12.36055565  122.71700287    4.90999985    1.88000000
   12.36388969  117.51699829    4.90999985    1.88000000
   12.36500072  117.48200226    4.90999985    1.88000000
   12.36750031  122.17500305    4.90999985    1.88000000
   12.37055588  130.99600220    4.90999985    1.88000000
   12.37388897  118.42199707    4.90999985    1.88000000
   12.37722206  124.63700104    4.90999985    1.88000000
   12.38027763  127.58000183    4.90999985    1.88000000
   12.38361073  139.58099365    4.90999985    1.88000000
   12.38972187  139.58099365    4.90999985    1.88000000
   12.39388847  133.00500488    4.90999985    1.88000000
   12.39694405  133.45500183    4.90999985    1.88000000
   12.39833355  145.17100525    4.90999985    1.88000000
   12.40055561  132.87399292    4.90999985    1.88000000
   12.40361118  155.30900574    4.90999985    1.88000000
   12.40694427  140.92900085    4.90999985    1.88000000
   12.41027737  136.28799438    4.90999985    1.88000000
   12.41333294  126.20500183    4.90999985    1.88000000
   12.41666698  132.47999573    4.90999985    1.88000000
   12.42000008  132.78199768    4.90999985    1.88000000
   12.42305565  125.72000122    4.90999985    1.88000000
   12.42638874  127.28600311    4.90999985    1.88000000
   12.43249989  127.28600311    4.90999985    1.88000000
   12.43666649  126.03299713    4.90999985    1.88000000
   12.43972206  118.79599762    4.90999985    1.88000000
   12.44305515  135.69200134    4.90999985    1.88000000
   12.44638920  128.77699280    4.90999985    1.88000000
   12.44944477  119.88099670    4.90999985    1.88000000
   12.45277786  115.61499786    4.90999985    1.88000000
   12.45611095  113.92900085    4.90999985    1.88000000
   12.45916653  113.67299652    4.90999985    1.88000000
   12.46249962  119.14099884    4.90999985    1.88000000
   12.46500015  113.73699951    4.90999985    1.88000000
   12.46611118  123.29000092    4.90999985    1.88000000
   12.46916580  118.15399933    4.90999985    1.88000000
   12.47527695  118.15399933    4.90999985    1.88000000
   12.47944355  116.48000336    4.90999985    1.88000000
   12.48277760  121.93099976    4.90999985    1.88000000
   12.48583317  128.81700134    4.90999985    1.88000000
   12.48916721  123.52200317    4.90999985    1.88000000
   12.49250031  130.60200500    4.90999985    1.88000000
   12.49555588  119.81300354    4.90999985    1.88000000
   12.49833393  119.47499847    4.90999985    1.88000000
   12.49944496  127.05699921    4.90999985    1.88000000
   12.50249958  125.74600220    4.90999985    1.88000000
   12.50583363  113.73999786    4.90999985    1.88000000
   12.50916672  117.64900208    4.90999985    1.88000000
   12.51222229  122.50399780    4.90999985    1.88000000
   12.51805496  122.50399780    4.90999985    1.88000000
   12.52222157  131.76600647    4.90999985    1.88000000
   12.52555561  116.37100220    4.90999985    1.88000000
   12.52861118  129.73300171    4.90999985    1.88000000
   12.53166676  124.14399719    4.90999985    1.88000000
   12.53249931  124.52400208    4.90999985    1.88000000
   12.53583336  124.47399902    4.90999985    1.88000000
   12.53888893  128.55499268    4.90999985    1.88000000
   12.54222298  125.69499969    4.90999985    1.88000000
   12.54527855  126.12100220    4.90999985    1.88000000
   12.54861164  115.52400208    4.90999985    1.88000000
   12.55194473  116.03299713    4.90999985    1.88000000
   12.55500031  121.38099670    4.90999985    1.88000000
   12.56111145  121.38099670    4.90999985    1.88000000
   12.56527805  128.57800293    4.90999985    1.88000000
   12.56833363  114.74400330    4.90999985    1.88000000
   12.57166672  127.77799988    4.90999985    1.88000000
   12.57472229  129.94500732    4.90999985    1.88000000
   12.57805538  135.44599915    4.90999985    1.88000000
   12.58138847  125.16699982    4.90999985    1.88000000
   12.58444405  144.26800537    4.90999985    1.88000000
   12.58777714  128.94700623    4.90999985    1.88000000
   12.59083271  125.40499878    4.90999985    1.88000000
   12.59416676  132.93400574    4.90999985    1.88000000
   12.59749985  130.14399719    4.90999985    1.88000000
   12.59833336  134.96800232    4.90999985    1.88000000
   12.61916637  134.96800232    4.90999985    1.88000000
   12.62305546  128.63900757    4.90999985    1.88000000
   12.62638855  120.96399689    4.90999985    1.88000000
   12.62972260  123.44899750    4.90999985    1.88000000
   12.63166714  127.45899963    4.90999985    1.88000000
   12.63333321  132.58399963    4.90999985    1.88000000
   12.63666630  127.57299805    4.90999985    1.88000000
   12.63972187  129.39999390    4.90999985    1.88000000
   12.64305496  129.82899475    4.90999985    1.88000000
   12.64638901  128.96800232    4.90999985    1.88000000
   12.64944458  128.63000488    4.90999985    1.88000000
   12.65277767  129.63800049    4.90999985    1.88000000
   12.65583324  130.47599792    4.90999985    1.88000000
   12.66166592  130.47599792    4.90999985    1.88000000
   12.66583252  137.69000244    4.90999985    1.88000000
   12.66916656  137.28500366    4.90999985    1.88000000
   12.67222214  133.22999573    4.90999985    1.88000000
   12.67555618  136.12899780    4.90999985    1.88000000
   12.67888927  136.20799255    4.90999985    1.88000000
   12.68194485  129.95500183    4.90999985    1.88000000
   12.68527794  135.50300598    4.90999985    1.88000000
   12.68861103  138.10699463    4.90999985    1.88000000
   12.69166660  133.82200623    4.90999985    1.88000000
   12.69499969  131.53199768    4.90999985    1.88000000
   12.69805527  119.08699799    4.90999985    1.88000000
   12.69861126  128.78900146    4.90999985    1.88000000
   12.70472240  128.78900146    4.90999985    1.88000000
   12.70861053  135.50999451    4.90999985    1.88000000
   12.71194458  124.68099976    4.90999985    1.88000000
   12.71527767  117.88600159    4.90999985    1.88000000
   12.71833324  128.09399414    4.90999985    1.88000000
   12.72166634  134.48599243    4.90999985    1.88000000
   12.72499943  121.45099640    4.90999985    1.88000000
   12.72805500  131.38299561    4.90999985    1.88000000
   12.73138809  132.95100403    4.90999985    1.88000000
   12.73194408  130.45399475    4.90999985    1.88000000
   12.73500061  125.82800293    4.90999985    1.88000000
   12.73833370  124.54000092    4.90999985    1.88000000
   12.74138927  129.54499817    4.90999985    1.88000000
   12.74750042  129.54499817    4.90999985    1.88000000
   12.75166702  124.37599945    4.90999985    1.88000000
   12.75472260  130.56199646    4.90999985    1.88000000
   12.75805569  129.55200195    4.90999985    1.88000000
   12.76138878  129.17100525    4.90999985    1.88000000
   12.76444435  129.38499451    4.90999985    1.88000000
   12.76527786  129.82400513    4.90999985    1.88000000
   12.76805496  122.76200104    4.90999985    1.88000000
   12.77138901  127.70400238    4.90999985    1.88000000
   12.77444458  129.74099731    4.90999985    1.88000000
   12.77777767  123.56999969    4.90999985    1.88000000
   12.78111076  131.55099487    4.90999985    1.88000000
   12.78416729  129.78199768    4.90999985    1.88000000
   12.79027843  129.78199768    4.90999985    1.88000000
   12.79444504  130.00599670    4.90999985    1.88000000
   12.79777813  131.38299561    4.90999985    1.88000000
   12.79861164  130.84199524    4.90999985    1.88000000
   12.80138874  131.66400146    4.90999985    1.88000000
   12.80472279  140.22000122    4.90999985    1.88000000
   12.80777836  140.75100708    4.90999985    1.88000000
   12.81111145  126.61900330    4.90999985    1.88000000
   12.81444454  140.27200317    4.90999985    1.88000000
   12.81750011  131.14300537    4.90999985    1.88000000
   12.82083321  128.81399536    4.90999985    1.88000000
   12.82388878  129.50900269    4.90999985    1.88000000
   12.82722187  127.93599701    4.90999985    1.88000000
   12.83305550  127.93599701    4.90999985    1.88000000
   12.83722210  133.21600342    4.90999985    1.88000000
   12.84055519  135.08900452    4.90999985    1.88000000
   12.84361076  133.06199646    4.90999985    1.88000000
   12.84694386  132.17199707    4.90999985    1.88000000
   12.85027790  143.26199341    4.90999985    1.88000000
   12.85333347  134.13900757    4.90999985    1.88000000
   12.85666752  133.77400208    4.90999985    1.88000000
   12.86000061  142.08099365    4.90999985    1.88000000
   12.86305618  137.06300354    4.90999985    1.88000000
   12.86527824  132.38099670    4.90999985    1.88000000
   12.86666679  144.52200317    4.90999985    1.88000000
   12.86999989  139.46800232    4.90999985    1.88000000
   12.87611103  139.46800232    4.90999985    1.88000000
   12.88000011  137.02600098    4.90999985    1.88000000
   12.88333321  134.50399780    4.90999985    1.88000000
   12.88666630  127.63099670    4.90999985    1.88000000
   12.88972187  137.18299866    4.90999985    1.88000000
   12.89305496  131.94900513    4.90999985    1.88000000
   12.89638901  132.86999512    4.90999985    1.88000000
   12.89861107  138.82899475    4.90999985    1.88000000
   12.89999962  139.76300049    4.90999985    1.88000000
   12.90333271  135.46699524    4.90999985    1.88000000
   12.90638828  127.33799744    4.90999985    1.88000000
   12.90972137  137.48800659    4.90999985    1.88000000
   12.91305542  141.38200378    4.90999985    1.88000000
   12.91888905  141.38200378    4.90999985    1.88000000
   12.92305565  149.60800171    4.90999985    1.88000000
   12.92611122  148.26400757    4.90999985    1.88000000
   12.92944431  142.85899353    4.90999985    1.88000000
   12.93194485  136.75999451    4.90999985    1.88000000
   12.93305588  144.88099670    4.90999985    1.88000000
   12.93638897  138.97599792    4.90999985    1.88000000
   12.93944454  142.40299988    4.90999985    1.88000000
   12.94277763  147.24600220    4.90999985    1.88000000
   12.94611073  146.24600220    4.90999985    1.88000000
   12.94916630  145.19299316    4.90999985    1.88000000
   12.95249939  147.37800598    4.90999985    1.88000000
   12.95555496  151.43699646    4.90999985    1.88000000
   12.96166611  151.43699646    4.90999985    1.88000000
   12.96583271  132.74200439    4.90999985    1.88000000
   12.96916580  136.22700500    4.90999985    1.88000000
   12.97222137  134.50999451    4.90999985    1.88000000
   12.97555542  139.13400269    4.90999985    1.88000000
   12.97861099  140.97200012    4.90999985    1.88000000
   12.98194408  137.79899597    4.90999985    1.88000000
   12.98527813  143.66799927    4.90999985    1.88000000
   12.98833370  138.90499878    4.90999985    1.88000000
   12.99166679  138.27900696    4.90999985    1.88000000
   12.99499989  139.66099548    4.90999985    1.88000000
   12.99805546  129.81799316    4.90999985    1.88000000
   12.99888897  138.43699646    4.90999985    1.88000000
   13.00444412  138.43699646    4.90999985    1.88000000
   13.00861073  135.35899353    4.90999985    1.88000000
   13.01194477  138.63699341    4.90999985    1.88000000
   13.01500034  135.62500000    4.90999985    1.88000000
   13.01833344  141.58799744    4.90999985    1.88000000
   13.02166653  145.84700012    4.90999985    1.88000000
   13.02472210  142.23100281    4.90999985    1.88000000
   13.02805519  139.80200195    4.90999985    1.88000000
   13.03138828  140.27999878    4.90999985    1.88000000
   13.03222179  143.57400513    4.90999985    1.88000000
   13.03472233  148.09500122    4.90999985    1.88000000
   13.03805637  139.29200745    4.90999985    1.88000000
   13.04111195  140.36599731    4.90999985    1.88000000
   13.04750061  140.36599731    4.90999985    1.88000000
   13.05138874  140.02999878    4.90999985    1.88000000
   13.05472279  135.23500061    4.90999985    1.88000000
   13.05805588  140.00700378    4.90999985    1.88000000
   13.06111145  136.90600586    4.90999985    1.88000000
   13.06444454  142.44700623    4.90999985    1.88000000
   13.06555557  141.94799805    4.90999985    1.88000000
   13.06805515  129.60699463    4.90999985    1.88000000
   13.07138920  128.83999634    4.90999985    1.88000000
   13.07444477  136.11900330    4.90999985    1.88000000
   13.07777786  128.47500610    4.90999985    1.88000000
   13.08111095  129.14399719    4.90999985    1.88000000
   13.08416653  129.80700684    4.90999985    1.88000000
   13.09027767  129.80700684    4.90999985    1.88000000
   13.09444427  132.12300110    4.90999985    1.88000000
   13.09749985  120.77999878    4.90999985    1.88000000
   13.09888840  139.22399902    4.90999985    1.88000000
   13.10111141  138.85099792    4.90999985    1.88000000
   13.10444450  124.47699738    4.90999985    1.88000000
   13.10750008  131.22599792    4.90999985    1.88000000
   13.11083412  126.62599945    4.90999985    1.88000000
   13.11416721  126.77999878    4.90999985    1.88000000
   13.11722279  120.38700104    4.90999985    1.88000000
   13.12055588  130.06900024    4.90999985    1.88000000
   13.12388897  135.62699890    4.90999985    1.88000000
   13.12694454  146.05000305    4.90999985    1.88000000
   13.13305569  146.05000305    4.90999985    1.88000000
   13.13722229  133.23300171    4.90999985    1.88000000
   13.14055538  134.69099426    4.90999985    1.88000000
   13.14361095  134.63299561    4.90999985    1.88000000
   13.14694405  141.04899597    4.90999985    1.88000000
   13.15027714  139.34899902    4.90999985    1.88000000
   13.15333271  134.14599609    4.90999985    1.88000000
   13.15666676  122.70700073    4.90999985    1.88000000
   13.15972137  128.43299866    4.90999985    1.88000000
   13.16305542  133.94900513    4.90999985    1.88000000
   13.16555500  146.24600220    4.90999985    1.88000000
   13.16666698  141.69400024    4.90999985    1.88000000
   13.17000008  148.09899902    4.90999985    1.88000000
   13.17611122  148.09899902    4.90999985    1.88000000
   13.18000031  138.59199524    4.90999985    1.88000000
   13.18333340  125.59700012    4.90999985    1.88000000
   13.18666649  134.63099670    4.90999985    1.88000000
   13.18972206  132.36099243    4.90999985    1.88000000
   13.19305515  134.71099854    4.90999985    1.88000000
   13.19611073  131.00199890    4.90999985    1.88000000
   13.19888878  135.43099976    4.90999985    1.88000000
   13.19972229  139.08000183    4.90999985    1.88000000
   13.20305538  134.19299316    4.90999985    1.88000000
   13.20638847  130.75900269    4.90999985    1.88000000
   13.20944405  133.92700195    4.90999985    1.88000000
   13.21277714  134.74400330    4.90999985    1.88000000
   13.21888828  134.74400330    4.90999985    1.88000000
   13.22277737  128.72999573    4.90999985    1.88000000
   13.22611046  124.72000122    4.90999985    1.88000000
   13.22944355  135.52299500    4.90999985    1.88000000
   13.23222160  137.62399292    4.90999985    1.88000000
   13.23305511  131.35400391    4.90999985    1.88000000
   13.23638916  137.56399536    4.90999985    1.88000000
   13.23944473  135.05000305    4.90999985    1.88000000
   13.24277782  137.32899475    4.90999985    1.88000000
   13.24611092  132.10699463    4.90999985    1.88000000
   13.24916649  130.61000061    4.90999985    1.88000000
   13.25249958  133.57699585    4.90999985    1.88000000
   13.25583363  131.86500549    4.90999985    1.88000000
   13.26166630  131.86500549    4.90999985    1.88000000
   13.26583290  126.92700195    4.90999985    1.88000000
   13.26888847  130.05099487    4.90999985    1.88000000
   13.27222157  122.08399963    4.90999985    1.88000000
   13.27555561  119.50399780    4.90999985    1.88000000
   13.27861118  131.63000488    4.90999985    1.88000000
   13.28194427  135.93299866    4.90999985    1.88000000
   13.28500080  135.74600220    4.90999985    1.88000000
   13.28833389  133.34300232    4.90999985    1.88000000
   13.29166698  138.03199768    4.90999985    1.88000000
   13.29472256  140.69099426    4.90999985    1.88000000
   13.29805565  137.45500183    4.90999985    1.88000000
   13.29888916  135.24699402    4.90999985    1.88000000
   13.30444431  135.24699402    4.90999985    1.88000000
   13.30861092  132.27799988    4.90999985    1.88000000
   13.31194496  124.91300201    4.90999985    1.88000000
   13.31500053  134.97900391    4.90999985    1.88000000
   13.31833363  134.93600464    4.90999985    1.88000000
   13.32166672  135.88800049    4.90999985    1.88000000
   13.32472229  133.05700684    4.90999985    1.88000000
   13.32805538  142.66799927    4.90999985    1.88000000
   13.33138847  135.08799744    4.90999985    1.88000000
   13.33222198  137.72500610    4.90999985    1.88000000
   13.33472157  136.45700073    4.90999985    1.88000000
   13.33805561  125.67099762    4.90999985    1.88000000
   13.34138870  136.67599487    4.90999985    1.88000000
   13.34722233  136.67599487    4.90999985    1.88000000
   13.35138893  124.18599701    4.90999985    1.88000000
   13.35472298  139.66200256    4.90999985    1.88000000
   13.35777855  141.75999451    4.90999985    1.88000000
   13.36111164  126.68000031    4.90999985    1.88000000
   13.36444473  127.36199951    4.90999985    1.88000000
   13.36555576  134.41099548    4.90999985    1.88000000
   13.36777782  126.19300079    4.90999985    1.88000000
   13.37111092  121.09100342    4.90999985    1.88000000
   13.37444496  116.95999908    4.90999985    1.88000000
   13.37750053  131.84199524    4.90999985    1.88000000
   13.38083363  120.46399689    4.90999985    1.88000000
   13.38388920  132.55999756    4.90999985    1.88000000
   13.39027786  132.55999756    4.90999985    1.88000000
   13.39444447  137.53500366    4.90999985    1.88000000
   13.39750004  135.30099487    4.90999985    1.88000000
   13.39888859  134.58099365    4.90999985    1.88000000
   13.40111065  138.46400452    4.90999985    1.88000000
   13.40444374  129.01199341    4.90999985    1.88000000
   13.40777779  126.55300140    4.90999985    1.88000000
   13.41083336  132.57699585    4.90999985    1.88000000
   13.41416645  128.83900452    4.90999985    1.88000000
   13.41722298  128.07600403    4.90999985    1.88000000
   13.42055607  135.86000061    4.90999985    1.88000000
   13.42388916  121.68699646    4.90999985    1.88000000
   13.42694473  135.66099548    4.90999985    1.88000000
   13.43305588  135.66099548    4.90999985    1.88000000
   13.43722248  123.56700134    4.90999985    1.88000000
   13.44027805  127.98500061    4.90999985    1.88000000
   13.44361115  131.27799988    4.90999985    1.88000000
   13.44694424  127.77999878    4.90999985    1.88000000
   13.44999981  118.79399872    4.90999985    1.88000000
   13.45333290  128.03399658    4.90999985    1.88000000
   13.45638847  132.74200439    4.90999985    1.88000000
   13.45972157  140.52699280    4.90999985    1.88000000
   13.46305561  137.47900391    4.90999985    1.88000000
   13.46555519  129.91099548    4.90999985    1.88000000
   13.46638870  133.85200500    4.90999985    1.88000000
   13.46972179  131.82600403    4.90999985    1.88000000
   13.47583294  131.82600403    4.90999985    1.88000000
   13.47999954  132.81300354    4.90999985    1.88000000
   13.48333359  128.66299438    4.90999985    1.88000000
   13.48638916  136.04299927    4.90999985    1.88000000
   13.48972225  131.13000488    4.90999985    1.88000000
   13.49305534  127.47699738    4.90999985    1.88000000
   13.49611092  137.94999695    4.90999985    1.88000000
   13.49888897  133.60499573    4.90999985    1.88000000
   13.49972248  138.87399292    4.90999985    1.88000000
   13.50305557  144.62300110    4.90999985    1.88000000
   13.50638866  136.00500488    4.90999985    1.88000000
   13.50944424  143.62399292    4.90999985    1.88000000
   13.51277733  132.29100037    4.90999985    1.88000000
   13.51861095  132.29100037    4.90999985    1.88000000
   13.52277756  132.74800110    4.90999985    1.88000000
   13.52611065  139.83500671    4.90999985    1.88000000
   13.52944374  134.60000610    4.90999985    1.88000000
   13.53222179  133.77299500    4.90999985    1.88000000
   13.53277779  131.86399841    4.90999985    1.88000000
   13.53611183  140.35499573    4.90999985    1.88000000
   13.53944492  138.32000732    4.90999985    1.88000000
   13.54250050  130.96600342    4.90999985    1.88000000
   13.54583359  135.58099365    4.90999985    1.88000000
   13.54888916  124.47100067    4.90999985    1.88000000
   13.55222225  131.17900085    4.90999985    1.88000000
   13.55555534  132.01600647    4.90999985    1.88000000
   13.56166649  132.01600647    4.90999985    1.88000000
   13.56555557  118.09200287    4.90999985    1.88000000
   13.56888866  134.11300659    4.90999985    1.88000000
   13.57222176  137.02099609    4.90999985    1.88000000
   13.57527733  134.57000732    4.90999985    1.88000000
   13.57861137  142.66900635    4.90999985    1.88000000
   13.58194447  143.09399414    4.90999985    1.88000000
   13.58500004  130.50300598    4.90999985    1.88000000
   13.58833313  135.02900696    4.90999985    1.88000000
   13.59138870  138.68099976    4.90999985    1.88000000
   13.59472179  141.42900085    4.90999985    1.88000000
   13.59805489  129.00300598    4.90999985    1.88000000
   13.59888840  123.15599823    4.90999985    1.88000000
   13.60444450  123.15599823    4.90999985    1.88000000
   13.60861111  133.33799744    4.90999985    1.88000000
   13.61166668  132.05099487    4.90999985    1.88000000
   13.61500072  146.86199951    4.90999985    1.88000000
   13.63249969  134.63600159    4.90999985    1.88000000
   13.63500023  142.70199585    4.90999985    1.88000000
   13.63805580  130.85000610    4.90999985    1.88000000
   13.64138889  135.69200134    4.90999985    1.88000000
   13.64750004  135.69200134    4.90999985    1.88000000
   13.65166664  133.35299683    4.90999985    1.88000000
   13.65472221  137.84100342    4.90999985    1.88000000
   13.65805531  138.66200256    4.90999985    1.88000000
   13.66138840  120.66100311    4.90999985    1.88000000
   13.66444397  115.72599792    4.90999985    1.88000000
   13.66583252  125.29599762    4.90999985    1.88000000
   13.66833401  132.82800293    4.90999985    1.88000000
   13.67138958  131.20199585    4.90999985    1.88000000
   13.67472267  138.91600037    4.90999985    1.88000000
   13.67805576  128.10699463    4.90999985    1.88000000
   13.68111134  131.23699951    4.90999985    1.88000000
   13.68444443  127.50099945    4.90999985    1.88000000
   13.69027805  127.50099945    4.90999985    1.88000000
   13.69444466  131.25999451    4.90999985    1.88000000
   13.69777775  117.09400177    4.90999985    1.88000000
   13.69916630  134.15899658    4.90999985    1.88000000
   13.70111084  132.60600281    4.90999985    1.88000000
   13.70444393  123.29199982    4.90999985    1.88000000
   13.70777798  128.38299561    4.90999985    1.88000000
   13.71083355  124.33899689    4.90999985    1.88000000
   13.71416664  133.74800110    4.90999985    1.88000000
   13.71749973  132.71499634    4.90999985    1.88000000
   13.72055531  135.50199890    4.90999985    1.88000000
   13.72388840  137.68600464    4.90999985    1.88000000
   13.72694397  140.81300354    4.90999985    1.88000000
   13.73305511  140.81300354    4.90999985    1.88000000
   13.73722267  136.11500549    4.90999985    1.88000000
   13.74055576  128.52799988    4.90999985    1.88000000
   13.74361134  128.99099731    4.90999985    1.88000000
   13.74694443  132.75300598    4.90999985    1.88000000
   13.75027752  134.41799927    4.90999985    1.88000000
   13.75333309  148.40199280    4.90999985    1.88000000
   13.75666714  114.46600342    4.90999985    1.88000000
   13.75972176  119.34100342    4.90999985    1.88000000
   13.76305580  109.54699707    4.90999985    1.88000000
   13.76583290  133.65600586    4.90999985    1.88000000
   13.76694393  124.79900360    4.90999985    1.88000000
   13.76999950  130.73599243    4.90999985    1.88000000
   13.77583313  130.73599243    4.90999985    1.88000000
   13.77999973  123.15100098    4.90999985    1.88000000
   13.78333378  116.34300232    4.90999985    1.88000000
   13.78666687  118.77700043    4.90999985    1.88000000
   13.78972244  117.63999939    4.90999985    1.88000000
   13.79305553  122.69999695    4.90999985    1.88000000
   13.79611111  138.09399414    4.90999985    1.88000000
   13.79916668  123.56900024    4.90999985    1.88000000
   13.80000019  128.14300537    4.90999985    1.88000000
   13.80305576  131.99400330    4.90999985    1.88000000
   13.80638885  119.29900360    4.90999985    1.88000000
   13.80972195  124.01699829    4.90999985    1.88000000
   13.81277752  129.49600220    4.90999985    1.88000000
   13.81888866  129.49600220    4.90999985    1.88000000
   13.82305527  125.87699890    4.90999985    1.88000000
   13.82611084  123.85600281    4.90999985    1.88000000
   13.82944393  128.19200134    4.90999985    1.88000000
   13.83249950   95.55300140    4.90999985    1.88000000
   13.83305550  122.38800049    4.90999985    1.88000000
   13.83638859  124.63099670    4.90999985    1.88000000
   13.83944416  120.62100220    4.90999985    1.88000000
   13.84277725  125.62599945    4.90999985    1.88000000
   13.84611034  120.13099670    4.90999985    1.88000000
   13.84916592  109.25599670    4.90999985    1.88000000
   13.85249996  110.65200043    4.90999985    1.88000000
   13.85555553  125.50199890    4.90999985    1.88000000
   13.86166668  125.50199890    4.90999985    1.88000000
   13.86583328  121.42500305    4.90999985    1.88000000
   13.86638927  121.54799652    4.90999985    1.88000000
   13.86944485  126.27400208    4.90999985    1.88000000
   13.87277794  129.96200562    4.90999985    1.88000000
   13.87611103  117.62500000    4.90999985    1.88000000
   13.87916660  127.25199890    4.90999985    1.88000000
   13.88249969  134.90499878    4.90999985    1.88000000
   13.88555527  126.96800232    4.90999985    1.88000000
   13.88888836  133.50999451    4.90999985    1.88000000
   13.89222240  137.16400146    4.90999985    1.88000000
   13.89527798  136.85699463    4.90999985    1.88000000
   13.89861107  133.01199341    4.90999985    1.88000000
   13.89916611  136.74699402    4.90999985    1.88000000
   13.90444374  136.74699402    4.90999985    1.88000000
   13.90861034  134.70700073    4.90999985    1.88000000
   13.91194439  133.72599792    4.90999985    1.88000000
   13.91499996  137.25000000    4.90999985    1.88000000
   13.91833401  129.23699951    4.90999985    1.88000000
   13.92166710  122.90299988    4.90999985    1.88000000
   13.92472267  131.74899292    4.90999985    1.88000000
   13.92805576  124.19599915    4.90999985    1.88000000
   13.93111134  119.80200195    4.90999985    1.88000000
   13.93249989  123.23699951    4.90999985    1.88000000
   13.93500042  124.74600220    4.90999985    1.88000000
   13.93805599  120.94499969    4.90999985    1.88000000
   13.94138908  129.07699585    4.90999985    1.88000000
   13.94722271  129.07699585    4.90999985    1.88000000
   13.95138836  123.40200043    4.90999985    1.88000000
   13.95472240  123.00900269    4.90999985    1.88000000
   13.95805550  131.00000000    4.90999985    1.88000000
   13.96111107  134.15600586    4.90999985    1.88000000
   13.96444416  120.56800079    4.90999985    1.88000000
   13.96583271  127.77999878    4.90999985    1.88000000
   13.96805477  125.30400085    4.90999985    1.88000000
   13.97111034  105.93299866    4.90999985    1.88000000
   13.97444439  123.65899658    4.90999985    1.88000000
   13.97777748  132.44900513    4.90999985    1.88000000
   13.98083305  133.92199707    4.90999985    1.88000000
   13.98416710  132.23599243    4.90999985    1.88000000
   13.99027824  132.23599243    4.90999985    1.88000000
   13.99444485  127.17299652    4.90999985    1.88000000
   13.99750042  125.79699707    4.90999985    1.88000000
   13.99916649  136.90499878    4.90999985    1.88000000
   14.00138855  120.08000183    4.90999985    1.88000000
   14.00444412  128.51499939    4.90999985    1.88000000
   14.00777817  130.48599243    4.90999985    1.88000000
   14.01111126  126.85800171    4.90999985    1.88000000
   14.01416683  115.41999817    4.90999985    1.88000000
   14.01749992  129.28300476    4.90999985    1.88000000
   14.02055550  124.62300110    4.90999985    1.88000000
   14.02388859  127.30300140    4.90999985    1.88000000
   14.02722168  112.28199768    4.90999985    1.88000000
   14.03305531  112.28199768    4.90999985    1.88000000
   14.03722286  136.53100586    4.90999985    1.88000000
   14.04027843  114.40699768    4.90999985    1.88000000
   14.04361153  127.78099823    4.90999985    1.88000000
   14.04694462  105.56600189    4.90999985    1.88000000
   14.05000019  113.33599854    4.90999985    1.88000000
   14.05333328  114.69699860    4.90999985    1.88000000
   14.05666733  122.38899994    4.90999985    1.88000000
   14.05972195  108.65699768    4.90999985    1.88000000
   14.06305599  113.12799835    4.90999985    1.88000000
   14.06583309  121.30500031    4.90999985    1.88000000
   14.06666660  123.15599823    4.90999985    1.88000000
   14.06972218  121.35399628    4.90999985    1.88000000
   14.07583332  121.35399628    4.90999985    1.88000000
   14.07999992  106.73500061    4.90999985    1.88000000
   14.08333302  127.37599945    4.90999985    1.88000000
   14.08638859  122.09600067    4.90999985    1.88000000
   14.08972168  123.06600189    4.90999985    1.88000000
   14.09305477  119.44599915    4.90999985    1.88000000
   14.09611034  116.67400360    4.90999985    1.88000000
   14.09916592  120.25099945    4.90999985    1.88000000
   14.10000038  128.06100464    4.90999985    1.88000000
   14.10305595  125.51699829    4.90999985    1.88000000
   14.10638905  118.53600311    4.90999985    1.88000000
   14.10972214  113.57099915    4.90999985    1.88000000
   14.11277771  110.24099731    4.90999985    1.88000000
   14.11861134  110.24099731    4.90999985    1.88000000
   14.12277794  124.22799683    4.90999985    1.88000000
   14.12611103  126.85700226    4.90999985    1.88000000
   14.12944412  129.00900269    4.90999985    1.88000000
   14.13249969  120.68699646    4.90999985    1.88000000
   14.13305569  123.91400146    4.90999985    1.88000000
   14.13611126  127.29199982    4.90999985    1.88000000
   14.13944435  124.89399719    4.90999985    1.88000000
   14.14277744  116.10800171    4.90999985    1.88000000
   14.14583302  115.09999847    4.90999985    1.88000000
   14.14916611  130.14900208    4.90999985    1.88000000
   14.15222168  120.59300232    4.90999985    1.88000000
   14.15555477  125.29299927    4.90999985    1.88000000
   14.16166592  125.29299927    4.90999985    1.88000000
   14.16583252  122.74900055    4.90999985    1.88000000
   14.16611099  115.65200043    4.90999985    1.88000000
   14.16944504  124.11900330    4.90999985    1.88000000
   14.17277813  125.01200104    4.90999985    1.88000000
   14.17611122  123.52500153    4.90999985    1.88000000
   14.17916679  120.37100220    4.90999985    1.88000000
   14.18249989  117.60399628    4.90999985    1.88000000
   14.18555546  117.47599792    4.90999985    1.88000000
   14.18888855  114.07399750    4.90999985    1.88000000
   14.19222260  118.42400360    4.90999985    1.88000000
   14.19527817  116.25299835    4.90999985    1.88000000
   14.19861126  127.57800293    4.90999985    1.88000000
   14.19972229  123.86000061    4.90999985    1.88000000
   14.20444393  123.86000061    4.90999985    1.88000000
   14.20861053  125.57399750    4.90999985    1.88000000
   14.21166611  124.57499695    4.90999985    1.88000000
   14.21500015  129.60699463    4.90999985    1.88000000
   14.21833324  124.25399780    4.90999985    1.88000000
   14.22138882  118.72899628    4.90999985    1.88000000
   14.22472191  125.21900177    4.90999985    1.88000000
   14.22805500  122.80400085    4.90999985    1.88000000
   14.23111057  123.75000000    4.90999985    1.88000000
   14.23305511  117.73799896    4.90999985    1.88000000
   14.23472214  119.63200378    4.90999985    1.88000000
   14.23805618  113.03700256    4.90999985    1.88000000
   14.24111176  118.17400360    4.90999985    1.88000000
   14.24722290  118.17400360    4.90999985    1.88000000
   14.25138855  122.75199890    4.90999985    1.88000000
   14.25472260  125.99299622    4.90999985    1.88000000
   14.25777817  117.89099884    4.90999985    1.88000000
   14.26111126  110.02799988    4.90999985    1.88000000
   14.26444435  110.98600006    4.90999985    1.88000000
   14.26638889  107.40100098    4.90999985    1.88000000
   14.26777744  114.83499908    4.90999985    1.88000000
   14.27111053  112.60500336    4.90999985    1.88000000
   14.27416611  108.02400208    4.90999985    1.88000000
   14.27750015  113.31199646    4.90999985    1.88000000
   14.28083324  114.80599976    4.90999985    1.88000000
   14.28388977  114.53900146    4.90999985    1.88000000
   14.29027843  114.53900146    4.90999985    1.88000000
   14.29416752  108.65699768    4.90999985    1.88000000
   14.29750061  109.83699799    4.90999985    1.88000000
   14.29972267  105.58799744    4.90999985    1.88000000
   14.30111122  122.87000275    4.90999985    1.88000000
   14.30444431  130.11300659    4.90999985    1.88000000
   14.30777836  123.76399994    4.90999985    1.88000000
   14.31083393  122.12999725    4.90999985    1.88000000
   14.31416702  114.60500336    4.90999985    1.88000000
   14.31722260  129.78799438    4.90999985    1.88000000
   14.32055569  131.18899536    4.90999985    1.88000000
   14.32388878  117.34500122    4.90999985    1.88000000
   14.32694435  109.26599884    4.90999985    1.88000000
   14.33305550  109.26599884    4.90999985    1.88000000
   14.33722210  120.70700073    4.90999985    1.88000000
   14.34027767  116.81999969    4.90999985    1.88000000
   14.34361076  128.80700684    4.90999985    1.88000000
   14.34666634  100.26499939    4.90999985    1.88000000
   14.35000038  109.81099701    4.90999985    1.88000000
   14.35333347  123.31199646    4.90999985    1.88000000
   14.35638905  129.41799927    4.90999985    1.88000000
   14.35972214  120.41899872    4.90999985    1.88000000
   14.36305618  121.95500183    4.90999985    1.88000000
   14.36611176  106.21299744    4.90999985    1.88000000
   14.36805534  111.95300293    4.90999985    1.88000000
   14.36999989  115.43699646    4.90999985    1.88000000
   14.37583351  115.43699646    4.90999985    1.88000000
   14.38000011  117.35500336    4.90999985    1.88000000
   14.38305569  124.02899933    4.90999985    1.88000000
   14.38638878  104.49199677    4.90999985    1.88000000
   14.38972187  116.60800171    4.90999985    1.88000000
   14.39277744  107.54799652    4.90999985    1.88000000
   14.39611053  119.37200165    4.90999985    1.88000000
   14.39944458  127.88400269    4.90999985    1.88000000
   14.40138817  118.84400177    4.90999985    1.88000000
   14.40305519  124.70200348    4.90999985    1.88000000
   14.40611076  120.15899658    4.90999985    1.88000000
   14.40944386  116.39199829    4.90999985    1.88000000
   14.41249943  111.63899994    4.90999985    1.88000000
   14.41861153  111.63899994    4.90999985    1.88000000
   14.42277813  113.55100250    4.90999985    1.88000000
   14.42611122  105.61799622    4.90999985    1.88000000
   14.42916679  130.40899658    4.90999985    1.88000000
   14.43249989  113.23799896    4.90999985    1.88000000
   14.43500042  118.06400299    4.90999985    1.88000000
   14.43611145  112.72599792    4.90999985    1.88000000
   14.43944454  122.23400116    4.90999985    1.88000000
   14.44277763  100.89800262    4.90999985    1.88000000
   14.44583321  114.17600250    4.90999985    1.88000000
   14.44916630  107.16300201    4.90999985    1.88000000
   14.45222187  116.57800293    4.90999985    1.88000000
   14.45555496  112.28199768    4.90999985    1.88000000
   14.46138859  112.28199768    4.90999985    1.88000000
   14.46555519  112.96499634    4.90999985    1.88000000
   14.46833324  112.54199982    4.90999985    1.88000000
   14.46916580  125.30599976    4.90999985    1.88000000
   14.47249985  117.75399780    4.90999985    1.88000000
   14.47583294  108.10199738    4.90999985    1.88000000
   14.47888851  107.79699707    4.90999985    1.88000000
   14.48222160  121.47899628    4.90999985    1.88000000
   14.48527813  113.20300293    4.90999985    1.88000000
   14.48861122  104.73100281    4.90999985    1.88000000
   14.49194431  117.11299896    4.90999985    1.88000000
   14.49499989  122.03500366    4.90999985    1.88000000
   14.49833393  117.38700104    4.90999985    1.88000000
   14.50444412  117.38700104    4.90999985    1.88000000
   14.50861073  117.08599854    4.90999985    1.88000000
   14.51166630  112.37599945    4.90999985    1.88000000
   14.51500034  122.63300323    4.90999985    1.88000000
   14.51805496  116.66600037    4.90999985    1.88000000
   14.52138901  115.18399811    4.90999985    1.88000000
   14.52472210  116.30100250    4.90999985    1.88000000
   14.52805519  110.67199707    4.90999985    1.88000000
   14.53111076  123.96099854    4.90999985    1.88000000
   14.53444481  124.12599945    4.90999985    1.88000000
   14.53527832  110.04900360    4.90999985    1.88000000
   14.53805637  116.73000336    4.90999985    1.88000000
   14.54111195  119.94400024    4.90999985    1.88000000
   14.54722309  119.94400024    4.90999985    1.88000000
   14.55138874  115.10099792    4.90999985    1.88000000
   14.55444431  126.27799988    4.90999985    1.88000000
   14.55777836  122.90599823    4.90999985    1.88000000
   14.56111145  110.22699738    4.90999985    1.88000000
   14.56416702  116.48899841    4.90999985    1.88000000
   14.56750011  115.34300232    4.90999985    1.88000000
   14.56861115  117.84999847    4.90999985    1.88000000
   14.57111073  110.76799774    4.90999985    1.88000000
   14.57416630  113.35700226    4.90999985    1.88000000
   14.57750034  109.32800293    4.90999985    1.88000000
   14.58083344  114.30400085    4.90999985    1.88000000
   14.58388901  120.88500214    4.90999985    1.88000000
   14.59000015  120.88500214    4.90999985    1.88000000
   14.59416676  120.40200043    4.90999985    1.88000000
   14.59749985  123.83000183    4.90999985    1.88000000
   14.60055637  115.03700256    4.90999985    1.88000000
   14.60222244  107.72699738    4.90999985    1.88000000
   14.60416698  119.85800171    4.90999985    1.88000000
   14.60750008  116.41600037    4.90999985    1.88000000
   14.61083412  124.06300354    4.90999985    1.88000000
   14.61388969  100.71299744    4.90999985    1.88000000
   14.61722279  120.42199707    4.90999985    1.88000000
   14.62027836  109.05500031    4.90999985    1.88000000
   14.62361145  109.19599915    4.90999985    1.88000000
   14.62694454  117.42099762    4.90999985    1.88000000
   14.63277817  117.42099762    4.90999985    1.88000000
   14.65138817  110.18199921    4.90999985    1.88000000
   14.65444374  123.11299896    4.90999985    1.88000000
   14.65777779  120.80000305    4.90999985    1.88000000
   14.66111088  108.55300140    4.90999985    1.88000000
   14.66416645  116.14600372    4.90999985    1.88000000
   14.66750050  111.91000366    4.90999985    1.88000000
   14.67055607  112.29399872    4.90999985    1.88000000
   14.67611122  112.29399872    4.90999985    1.88000000
   14.68000031  113.61499786    4.90999985    1.88000000
   14.68333340  123.62599945    4.90999985    1.88000000
   14.68444443  125.40000153    4.90999985    1.88000000
   14.68694496  135.44099426    4.90999985    1.88000000
   14.69027805  136.17500305    4.90999985    1.88000000
   14.69361115  123.34400177    4.90999985    1.88000000
   14.69666672  132.83399963    4.90999985    1.88000000
   14.69999981  121.13899994    4.90999985    1.88000000
   14.70333290  124.55999756    4.90999985    1.88000000
   14.70638847   97.77839661    4.90999985    1.88000000
   14.70972157  144.52900696    4.90999985    1.88000000
   14.71277714  145.92500305    4.90999985    1.88000000
   14.71888828  145.92500305    4.90999985    1.88000000
   14.72305489  137.86199951    4.90999985    1.88000000
   14.72611046  144.16499329    4.90999985    1.88000000
   14.72944355  156.55099487    4.90999985    1.88000000
   14.73277760  149.34700012    4.90999985    1.88000000
   14.73583317  142.36700439    4.90999985    1.88000000
   14.73916721  137.38400269    4.90999985    1.88000000
   14.74222279  167.31399536    4.90999985    1.88000000
   14.74555588  137.47900391    4.90999985    1.88000000
   14.74888897  153.32000732    4.90999985    1.88000000
   14.75111103  163.51400757    4.90999985    1.88000000
   14.75222206  184.49800110    4.90999985    1.88000000
   14.75555515  147.28700256    4.90999985    1.88000000
   14.76166630  147.28700256    4.90999985    1.88000000
   14.76583290  136.50100708    4.90999985    1.88000000
   14.76916599  135.38099670    4.90999985    1.88000000
   14.77222157  178.78199768    4.90999985    1.88000000
   14.77555561  204.01400757    4.90999985    1.88000000
   14.77861118  130.92399597    4.90999985    1.88000000
   14.78194427  155.67500305    4.90999985    1.88000000
   14.78444481  161.99800110    4.90999985    1.88000000
   14.78555584  183.46000671    4.90999985    1.88000000
   14.78888893  205.56300354    4.90999985    1.88000000
   14.79222298  147.33000183    4.90999985    1.88000000
   14.79527855  182.52299500    4.90999985    1.88000000
   14.79861164  198.68800354    4.90999985    1.88000000
   14.80444431  198.68800354    4.90999985    1.88000000
   14.80861092  200.73800659    4.90999985    1.88000000
   14.81194496  269.41699219    4.90999985    1.88000000
   14.81500053  173.19900513    4.90999985    1.88000000
   14.81777763  163.45300293    4.90999985    1.88000000
   14.81861115  194.09100342    4.90999985    1.88000000
   14.82194424  285.71099854    4.90999985    1.88000000
   14.82527733  375.58999634    4.90999985    1.88000000
   14.82722187  345.66198730    4.90999985    1.88000000
   14.82833290  480.67800903    4.90999985    1.88000000
   14.82972240  590.94799805    4.90999985    1.88000000
   14.83111095  434.53601074    4.90999985    1.88000000
   14.83249950  455.74700928    4.90999985    1.88000000
   14.83388901  509.74398804    4.90999985    1.88000000
   14.83527756  389.90200806    4.90999985    1.88000000
   14.83666611  277.98001099    4.90999985    1.88000000
   14.83805561  306.65499878    4.90999985    1.88000000
   14.83944416  370.32299805    4.90999985    1.88000000
   14.84083271  308.58499146    4.90999985    1.88000000
   14.84222221  450.04098511    4.90999985    1.88000000
   14.84361076  548.97698975    4.90999985    1.88000000
   14.84499931  258.95199585    4.90999985    1.88000000
   14.84638882  135.75900269    4.90999985    1.88000000
   14.84666634  200.73800659    4.90999985    1.88000000
   14.84666634  269.41699219    4.90999985    1.88000000
   14.84694386  173.19900513    4.90999985    1.88000000
   14.84694386  194.09100342    4.90999985    1.88000000
   14.84694386  285.71099854    4.90999985    1.88000000
   14.84722233  375.58999634    4.90999985    1.88000000
   14.84722233  147.33000183    4.90999985    1.88000000
   14.84722233  182.52299500    4.90999985    1.88000000
   14.84749985  198.68800354    4.90999985    1.88000000
   14.84805489   54.12149811    4.90999985    1.88000000
   14.85111141   -1.00000000    4.90999985    1.88000000
   14.85444450   -1.00000000    4.90999985    1.88000000
   14.85750008   -1.00000000    4.90999985    1.88000000
   14.86083412   -1.00000000    4.90999985    1.88000000
   14.86722279   -1.00000000    4.90999985    1.88000000
   14.87138939   -1.00000000   -1.00000000   -1.00000000
   14.87472248   23.57019997    4.90999985    1.88000000
   14.87805557   43.71609879    4.90999985    1.88000000
   14.88027763   62.78870010    4.90999985    1.88000000
   14.88166714   83.05950165    4.90999985    1.88000000
   14.88500023   21.66449928    4.90999985    1.88000000
   14.88805580   23.57019997    4.90999985    1.88000000
   14.89138889   44.44800186    4.90999985    1.88000000
   14.89472198  117.16400146    4.90999985    1.88000000
   14.89777756  129.63600159    4.90999985    1.88000000
   14.90111065   86.08740234    4.90999985    1.88000000
   14.90444374   80.83940125    4.90999985    1.88000000
   14.91027737   80.83940125    4.90999985    1.88000000
   14.91444397  143.98899841    4.90999985    1.88000000
   14.91750050  101.21900177    4.90999985    1.88000000
   14.92083359  108.75399780    4.90999985    1.88000000
   14.92388916  174.12199402    4.90999985    1.88000000
   14.92722225  178.70700073    4.90999985    1.88000000
   14.93055630   44.21969986    4.90999985    1.88000000
   14.93361092   -1.00000000    4.90999985    1.88000000
   14.93694496   -1.00000000   -1.00000000   -1.00000000
   14.94027805  535.30999756    4.90999985    1.88000000
   14.94222260  333.42401123    4.90999985    1.88000000
   14.94333363  105.91899872    4.90999985    1.88000000
   14.94361115  108.75399780    4.90999985    1.88000000
   14.94361115  174.12199402    4.90999985    1.88000000
   14.94361115  178.70700073    4.90999985    1.88000000
   14.94388866   44.21969986    4.90999985    1.88000000
   14.94388866   -1.00000000    4.90999985    1.88000000
   14.94388866   -1.00000000   -1.00000000   -1.00000000
   14.94416714  535.30999756    4.90999985    1.88000000
   14.94416714  143.98899841    4.90999985    1.88000000
   14.94416714  101.21900177    4.90999985    1.88000000
   14.94527817   -1.00000000    4.90999985    1.88000000
   14.94861126  136.11199951    4.90999985    1.88000000
   14.95194435   38.99520111    4.90999985    1.88000000
   14.95499992   -1.00000000   -1.00000000   -1.00000000
   14.95833302   -1.00000000    4.90999985    1.88000000
   14.96416664   -1.00000000    4.90999985    1.88000000
   14.96833324   -1.00000000    4.90999985    1.88000000
   14.97166634   -1.00000000    4.90999985    1.88000000
   14.97472191   -1.00000000    4.90999985    1.88000000
   14.97722149   33.01119995    4.90999985    1.88000000
   14.97861099   56.47359848    4.90999985    1.88000000
   14.98194408   -1.00000000    4.90999985    1.88000000
   14.98500061   59.00419998    4.90999985    1.88000000
   14.98833370   80.60900116    4.90999985    1.88000000
   14.99166679   44.55250168    4.90999985    1.88000000
   14.99472237   79.81520081    4.90999985    1.88000000
   14.99805546   45.64609909    4.90999985    1.88000000
   15.00111103   94.32230377    4.90999985    1.88000000
   15.00722218   94.32230377    4.90999985    1.88000000
   15.01138878  111.15100098    4.90999985    1.88000000
   15.01444435   -1.00000000    4.90999985    1.88000000
   15.01777744   -1.00000000    4.90999985    1.88000000
   15.02083302   -1.00000000    4.90999985    1.88000000
   15.02416611   -1.00000000    4.90999985    1.88000000
   15.02750015   -1.00000000    4.90999985    1.88000000
   15.03055573   -1.00000000    4.90999985    1.88000000
   15.03388977   -1.00000000    4.90999985    1.88000000
   15.03694534   -1.00000000    4.90999985    1.88000000
   15.04027843   -1.00000000    4.90999985    1.88000000
   15.04361153   -1.00000000    4.90999985    1.88000000
   15.05388927   -1.00000000    4.90999985    1.88000000
   15.05722237   -1.00000000    4.90999985    1.88000000
   15.06055546   -1.00000000    4.90999985    1.88000000
   15.06361103   -1.00000000    4.90999985    1.88000000
   15.06694412   -1.00000000    4.90999985    1.88000000
   15.06999969   -1.00000000    4.90999985    1.88000000
   15.07333374   -1.00000000    4.90999985    1.88000000
   15.07666683   -1.00000000    4.90999985    1.88000000
   15.07999992   -1.00000000    4.90999985    1.88000000
   15.08333302   -1.00000000    4.90999985    1.88000000
   15.08638859   -1.00000000    4.90999985    1.88000000
   15.09694386   -1.00000000    4.90999985    1.88000000
   15.10000038   -1.00000000    4.90999985    1.88000000
   15.10333347   -1.00000000    4.90999985    1.88000000
   15.10666752   -1.00000000    4.90999985    1.88000000
   15.10972214   -1.00000000    4.90999985    1.88000000
   15.11333370   -1.00000000    4.90999985    1.88000000
   15.11666679   -1.00000000    4.90999985    1.88000000
   15.11972237   -1.00000000    4.90999985    1.88000000
   15.12305546   -1.00000000    4.90999985    1.88000000
   15.12611103   -1.00000000    4.90999985    1.88000000
   15.12944412   -1.00000000    4.90999985    1.88000000
   15.13555527   -1.00000000    4.90999985    1.88000000
