    HOUR (UT)   FLARE FACTOR    SKY TESTER    SUN TESTER
   12.21444416   -1.00000000   -1.00000000   -1.00000000
   12.23416710   99.05139923    3.09999990    1.64999998
   12.23944473  126.45200348    3.09999990    1.64999998
   12.24250031   90.13739777    3.09999990    1.66999996
   12.24583340  109.68199921    3.09999990    1.64999998
   12.24916649  105.36000061    3.09999990    1.64999998
   12.25222206   97.19409943    3.09999990    1.64999998
   12.25555515  131.27499390    3.09999990    1.64999998
   12.25888920  124.86299896    3.09999990    1.66999996
   12.26194477  121.45800018    3.07999992    1.66999996
   12.26527786  171.50100708    3.07999992    1.66999996
   12.26749992  152.67599487    3.07999992    1.66999996
   12.26888847  178.58599854    3.07999992    1.69000006
   12.27194405  192.44200134    3.07999992    1.69000006
   12.27527714  166.39599609    3.05999994    1.69000006
   12.27833271  190.32699585    3.05999994    1.69000006
   12.28166676  229.52600098    3.05999994    1.69000006
   12.28500080  213.83799744    3.05999994    1.69000006
   12.28805637  269.95300293    3.05999994    1.69000006
   12.29138947  252.18699646    3.05999994    1.71000004
   12.29472256  242.63400269    3.05999994    1.71000004
   12.29777813  269.07800293    3.07999992    1.71000004
   12.30083370  320.25000000    3.07999992    1.71000004
   12.30166721  300.12600708    3.07999992    1.71000004
   12.30361176  335.08099365    3.07999992    1.73000002
   12.30500031  295.92999268    3.07999992    1.71000004
   12.30638885  333.36898804    3.07999992    1.73000002
   12.30777836  325.26699829    3.05999994    1.71000004
   12.30916691  326.63900757    3.05999994    1.71000004
   12.31055546  182.72999573    3.05999994    1.71000004
   12.31055546  269.07800293    3.07999992    1.71000004
   12.31055546  300.12600708    3.07999992    1.71000004
   12.31083393  166.39599609    3.05999994    1.69000006
   12.31083393  190.32699585    3.05999994    1.69000006
   12.31083393  229.52600098    3.05999994    1.69000006
   12.31111145  213.83799744    3.05999994    1.69000006
   12.31111145  269.95300293    3.05999994    1.69000006
   12.31111145  252.18699646    3.05999994    1.71000004
   12.31138897  242.63400269    3.05999994    1.71000004
   12.31194496  183.90400696    3.05999994    1.73000002
   12.31527805  185.19299316    3.03999996    1.73000002
   12.31833363  195.55799866    3.01999998    1.73000002
   12.32166672  212.40100098    3.00000000    1.73000002
   12.32472229  215.52499390    2.98000002    1.75000000
   12.33138847  215.52499390    2.94000006    1.75000000
   12.33555508  180.15199280    2.91000009    1.76999998
   12.33861065  188.82699585    2.91000009    1.76999998
   12.34194374  167.04699707    2.89000010    1.76999998
   12.34444427  195.06799316    2.86999989    1.76999998
   12.34555531  170.83500671    2.86999989    1.76999998
   12.34888840  147.32699585    2.84999990    1.78999996
   12.35222244  184.21499634    2.82999992    1.78999996
   12.35527802  174.24699402    2.80999994    1.78999996
   12.35861111  156.53100586    2.78999996    1.78999996
   12.36166668  156.37199402    2.78999996    1.78999996
   12.36500072  165.10000610    2.76999998    1.80999994
   12.36833382  153.96000671    2.75000000    1.80999994
   12.37416649  153.96000671    2.73000002    1.80999994
   12.37833309  161.00500488    2.69000006    1.80999994
   12.38138866  151.78300476    2.69000006    1.83000004
   12.38472176  156.75000000    2.67000008    1.83000004
   12.38805580  152.83599854    2.66000009    1.83000004
   12.39111137  141.03199768    2.64000010    1.85000002
   12.39444447  144.54400635    2.64000010    1.83000004
   12.39777756  161.64599609    2.64000010    1.85000002
   12.40083313  188.69599915    2.61999989    1.85000002
   12.40416622  151.44900513    2.61999989    1.85000002
   12.40722179  142.02400208    2.59999990    1.86000001
   12.41055489  146.17700195    2.59999990    1.85000002
   12.41111088  148.39999390    2.59999990    1.86000001
   12.41694450  148.39999390    2.57999992    1.86000001
   12.42111111  126.65299988    2.55999994    1.86000001
   12.42444515  158.66799927    2.53999996    1.86000001
   12.42750072  161.42799377    2.53999996    1.86000001
   12.43083382  138.20100403    2.50000000    1.86000001
   12.43416691  148.55099487    2.50000000    1.86000001
   12.43722248  129.85400391    2.48000002    1.88000000
   12.44055557  130.13200378    2.48000002    1.86000001
   12.44361115  142.75100708    2.46000004    1.88000000
   12.44444466  151.12699890    2.46000004    1.88000000
   12.44750023  138.01899719    2.46000004    1.88000000
   12.45055580  138.44700623    2.44000006    1.89999998
   12.45388889  142.37899780    2.42000008    1.89999998
   12.45972157  142.37899780    2.40000010    1.89999998
   12.46388912  139.87100220    2.39000010    1.89999998
   12.46722221  142.75900269    2.39000010    1.89999998
   12.47055531  136.76699829    2.36999989    1.89999998
   12.47361088  132.62600708    2.36999989    1.91999996
   12.47694397  124.15299988    2.34999990    1.91999996
   12.47777748  135.42700195    2.34999990    1.91999996
   12.48055553  120.48799896    2.32999992    1.91999996
   12.48361111  114.51899719    2.32999992    1.94000006
   12.48694515  123.77899933    2.30999994    1.91999996
   12.49027824  142.90299988    2.28999996    1.94000006
   12.49333382  134.48399353    2.28999996    1.94000006
   12.49666691  134.29499817    2.30999994    1.94000006
   12.50277805  134.29499817    2.28999996    1.94000006
   12.50694466  133.39999390    2.28999996    1.94000006
   12.51000023  145.77299500    2.26999998    1.94000006
   12.51111126  120.02100372    2.25000000    1.96000004
   12.51388931  126.36100006    2.25000000    1.96000004
   12.51694393  125.92600250    2.23000002    1.94000006
   12.52027798  125.09100342    2.23000002    1.94000006
   12.52361107  128.97000122    2.23000002    1.94000006
   12.52666664  125.37500000    2.23000002    1.96000004
   12.52999973  127.50499725    2.23000002    1.96000004
   12.53305531  139.41000366    2.21000004    1.98000002
   12.53638935  136.45300293    2.21000004    1.96000004
   12.53972244  128.12899780    2.21000004    1.98000002
   12.54555607  128.12899780    2.19000006    1.98000002
   12.54972267  122.19000244    2.19000006    1.98000002
   12.55277824  117.49500275    2.17000008    1.98000002
   12.55611134  124.32099915    2.15000010    1.98000002
   12.55944443  116.97100067    2.15000010    2.00000000
   12.56250000  116.41000366    2.15000010    1.98000002
   12.56583309  120.76300049    2.13000011    1.98000002
   12.56888866  122.52100372    2.13000011    1.98000002
   12.57222176  119.95200348    2.11999989    2.00000000
   12.57555580  126.79000092    2.09999990    2.00000000
   12.57777786  123.77100372    2.09999990    2.00000000
   12.57916641  118.74500275    2.09999990    2.00000000
   12.58222198  125.24600220    2.09999990    2.01999998
   12.58833313  125.24600220    2.07999992    2.01999998
   12.59249973  121.17700195    2.07999992    2.01999998
   12.59583282  126.56600189    2.05999994    2.00000000
   12.59888840  119.84500122    2.05999994    2.01999998
   12.60222244  115.81600189    2.03999996    2.01999998
   12.60527802  123.66400146    2.01999998    2.01999998
   12.60861111  114.84899902    2.01999998    2.03999996
   12.61111164  124.39800262    2.03999996    2.03999996
   12.61222267  125.30400085    2.01999998    2.03999996
   12.61527824  133.33700562    2.01999998    2.01999998
   12.61861134  110.79799652    2.00000000    2.03999996
   12.62194443  123.46099854    2.00000000    2.05999994
   12.62500000  109.10600281    1.98000002    2.01999998
   12.63111115  109.10600281    2.00000000    2.05999994
   12.63527775  122.80899811    2.00000000    2.03999996
   12.63861084  131.36199951    2.00000000    2.03999996
   12.64166641  117.95899963    2.00000000    2.05999994
   12.64444447  115.66500092    2.00000000    2.05999994
   12.64555550  122.83999634    2.00000000    2.05999994
   12.64861107  128.40199280    2.00000000    2.05999994
   12.65194416  121.92500305    2.01999998    2.05999994
   12.65527725  119.05500031    1.98000002    2.05999994
   12.65833282  134.92399597    2.00000000    2.05999994
   12.66166592  141.09700012    1.98000002    2.05999994
   12.66499996  125.90399933    2.00000000    2.05999994
   12.66805553  122.49199677    2.00000000    2.07999992
   12.67416668  122.49199677    2.00000000    2.05999994
   12.67805576  129.81700134    1.98000002    2.07999992
   12.68138885  111.34200287    2.00000000    2.07999992
   12.68500042  119.08300018    1.98000002    2.07999992
   12.68805599  121.93900299    1.98000002    2.07999992
   12.69138908  136.08999634    1.98000002    2.09999990
   12.69444466  118.25299835    1.96000004    2.09999990
   12.69777775  124.43000031    1.96000004    2.07999992
   12.70111084  129.93600464    1.96000004    2.07999992
   12.70444393  121.62300110    1.96000004    2.07999992
   12.70777798  124.68599701    1.94000006    2.09999990
   12.71083355  138.96400452    1.94000006    2.09999990
   12.71138859  130.75199890    1.94000006    2.09999990
   12.71694374  130.75199890    1.94000006    2.09999990
   12.72111034  134.11399841    1.94000006    2.09999990
   12.72499943  115.13400269    1.94000006    2.09999990
   12.72861099  123.24299622    1.91999996    2.09999990
   12.73194408  121.16600037    1.94000006    2.09999990
   12.73527813  118.90299988    1.91999996    2.09999990
   12.73833370  116.90899658    1.91999996    2.09999990
   12.74166679  130.66600037    1.91999996    2.11999989
   12.74472237  120.53199768    1.94000006    2.11999989
   12.74527836  126.09600067    1.91999996    2.11999989
   12.74861145  120.28199768    1.91999996    2.11999989
   12.75166702  117.61299896    1.91999996    2.11999989
   12.75500011  119.63999939    1.94000006    2.09999990
   12.75972176  119.63999939    1.94000006    2.11999989
   12.76388931  115.04199982    1.94000006    2.13000011
   12.76722240  129.57699585    1.91999996    2.11999989
   12.77027798  114.39499664    1.89999998    2.13000011
   12.77361107  129.74099731    1.91999996    2.13000011
   12.77666664  120.98699951    1.89999998    2.13000011
   12.77805519  128.40499878    1.88000000    2.13000011
   12.78055573  116.80000305    1.89999998    2.13000011
   12.78361130  121.12599945    1.89999998    2.15000010
   12.78694534  118.66500092    1.89999998    2.13000011
   12.79027843  126.08200073    1.89999998    2.13000011
   12.79361153  127.18599701    1.89999998    2.13000011
   12.79666710  131.71400452    1.89999998    2.13000011
   12.80249977  131.71400452    1.91999996    2.13000011
   12.80666733  122.86399841    1.89999998    2.13000011
   12.81000042  116.43099976    1.91999996    2.15000010
   12.81138897  115.49099731    1.89999998    2.15000010
   12.81361103  121.68299866    1.89999998    2.15000010
   12.81694412  131.17999268    1.89999998    2.15000010
   12.82027817  126.19999695    1.89999998    2.15000010
   12.82361126  117.97200012    1.88000000    2.15000010
   12.82666683  124.45099640    1.88000000    2.13000011
   12.82999992  122.11299896    1.89999998    2.15000010
   12.83305550  123.11499786    1.88000000    2.17000008
   12.83638859  118.19899750    1.88000000    2.15000010
   12.83972168  123.53700256    1.88000000    2.17000008
   12.84555531  123.53700256    1.88000000    2.17000008
   12.84972191  125.73500061    1.89999998    2.17000008
   12.85277843  119.67299652    1.91999996    2.17000008
   12.85611153  121.38700104    1.88000000    2.17000008
   12.85916710  128.88800049    1.89999998    2.17000008
   12.86250019  123.19100189    1.86000001    2.15000010
   12.86583328  126.34300232    1.86000001    2.17000008
   12.86916637  123.48100281    1.86000001    2.17000008
   12.87250042  121.79100037    1.86000001    2.17000008
   12.87583351  114.84899902    1.85000002    2.17000008
   12.87805557  128.89999390    1.86000001    2.17000008
   12.87972260  125.43399811    1.86000001    2.17000008
   12.88305569  113.83000183    1.86000001    2.19000006
   12.88833332  113.83000183    1.83000004    2.19000006
   12.89249992  113.82800293    1.85000002    2.17000008
   12.89555550  114.93800354    1.83000004    2.19000006
   12.89972210  122.06700134    1.85000002    2.19000006
   12.90333271  124.02999878    1.83000004    2.19000006
   12.90666676  117.30999756    1.85000002    2.19000006
   12.90999985  115.00900269    1.83000004    2.17000008
   12.91166592  123.83599854    1.85000002    2.19000006
   12.91388893  120.37500000    1.85000002    2.19000006
   12.91722298  113.51300049    1.85000002    2.21000004
   12.92027855  117.16999817    1.86000001    2.19000006
   12.92361164  118.86799622    1.85000002    2.19000006
   12.92694473  114.43900299    1.86000001    2.21000004
   12.93111134  114.43900299    1.88000000    2.19000006
   12.93527794  120.97499847    1.88000000    2.19000006
   12.93833351  117.07900238    1.86000001    2.19000006
   12.94166660  100.55400085    1.88000000    2.21000004
   12.94472218  109.26399994    1.86000001    2.21000004
   12.94527817  123.30899811    1.86000001    2.21000004
   12.94833374  127.63999939    1.85000002    2.19000006
   12.95166683  120.03399658    1.86000001    2.21000004
   12.95499992  117.56199646    1.86000001    2.21000004
   12.95805550  122.04100037    1.86000001    2.21000004
   12.96138859  119.74299622    1.86000001    2.21000004
   12.96472168  112.30599976    1.88000000    2.23000002
   12.96777725  114.16699982    1.88000000    2.21000004
   12.97388840  114.16699982    1.86000001    2.21000004
   12.97805500  112.65100098    1.86000001    2.23000002
   12.97861099  106.49099731    1.86000001    2.23000002
   12.98194408  114.24900055    1.85000002    2.23000002
   12.98500061  102.10199738    1.86000001    2.21000004
   12.98833370  110.59999847    1.88000000    2.23000002
   12.99138927  106.92600250    1.88000000    2.23000002
   12.99472237  108.34700012    1.86000001    2.21000004
   12.99805546  106.76000214    1.88000000    2.21000004
   13.00111103  117.05000305    1.86000001    2.23000002
   13.00444412  109.27100372    1.88000000    2.23000002
   13.00777817  112.43800354    1.86000001    2.23000002
   13.01083374  108.66100311    1.88000000    2.25000000
   13.01138878  106.36599731    1.88000000    2.23000002
   13.01694393  106.36599731    1.88000000    2.25000000
   13.02083302  108.23000336    1.88000000    2.23000002
   13.02416611  105.90299988    1.88000000    2.25000000
   13.02750015  106.89800262    1.88000000    2.25000000
   13.03055573  111.94999695    1.89999998    2.25000000
   13.03388977  106.69599915    1.88000000    2.25000000
   13.03722286  108.69699860    1.86000001    2.23000002
   13.04027843  109.56199646    1.88000000    2.25000000
   13.04361153  107.96900177    1.89999998    2.23000002
   13.04472256  109.90399933    1.89999998    2.23000002
   13.04722309  110.52300262    1.88000000    2.25000000
   13.05055618  113.96199799    1.89999998    2.25000000
   13.05361176  107.72799683    1.89999998    2.25000000
   13.05972195  107.72799683    1.88000000    2.25000000
   13.06388950  122.37400055    1.88000000    2.25000000
   13.06694412  110.86100006    1.89999998    2.25000000
   13.07027817  114.23999786    1.91999996    2.25000000
   13.07361126  113.49299622    1.91999996    2.25000000
   13.07666683  111.20300293    1.91999996    2.25000000
   13.07805538  112.97799683    1.94000006    2.25000000
   13.08027744  104.49099731    1.91999996    2.25000000
   13.08361053  102.90299988    1.91999996    2.25000000
   13.08666611  106.61699677    1.91999996    2.26999998
   13.09000015  108.68000031    1.94000006    2.25000000
   13.09305477  111.64099884    1.91999996    2.26999998
   13.09638882  108.27100372    1.96000004    2.26999998
   13.10249996  108.27100372    1.94000006    2.26999998
   13.10666752  112.84600067    1.91999996    2.25000000
   13.10972214   98.13059998    1.91999996    2.25000000
   13.11138916  110.03600311    1.91999996    2.25000000
   13.11361122  110.13200378    1.91999996    2.26999998
   13.11694431   91.02639771    1.94000006    2.26999998
   13.11999989  102.12100220    1.94000006    2.25000000
   13.12333393  102.82700348    1.96000004    2.26999998
   13.12638855  101.75099945    1.94000006    2.28999996
   13.12972260  105.84899902    1.94000006    2.26999998
   13.13305569  105.02100372    1.91999996    2.26999998
   13.13611126  110.68099976    1.94000006    2.26999998
   13.13944435  109.98899841    1.94000006    2.28999996
   13.14527798  109.98899841    1.91999996    2.28999996
   13.14944458  111.86599731    1.91999996    2.26999998
   13.15277767  107.93499756    1.96000004    2.26999998
   13.15583324  105.47299957    1.96000004    2.28999996
   13.15916634  105.51499939    1.98000002    2.28999996
   13.16249943  100.57399750    2.03999996    2.28999996
   13.16555500  104.04799652    2.05999994    2.28999996
   13.16888905  105.97799683    2.09999990    2.28999996
   13.17194462  108.46199799    2.11999989    2.28999996
   13.17527771  108.17299652    2.13000011    2.28999996
   13.17805576  120.74099731    2.17000008    2.28999996
   13.17888927  114.77400208    2.15000010    2.28999996
   13.18222237  121.88400269    2.15000010    2.26999998
   13.18805599  121.88400269    2.11999989    2.28999996
   13.19222260  109.23699951    2.11999989    2.30999994
   13.19555569  108.36599731    2.07999992    2.28999996
   13.19888878  108.71900177    2.03999996    2.30999994
   13.20194435  110.30400085    2.05999994    2.30999994
   13.20527744  108.02100372    2.01999998    2.28999996
   13.20833302  112.30300140    2.01999998    2.28999996
   13.21138859  110.21199799    1.96000004    2.30999994
   13.21222210  109.90399933    1.98000002    2.28999996
   13.21555519  114.65599823    1.96000004    2.30999994
   13.21861076  105.69499969    1.94000006    2.30999994
   13.22194386  101.95500183    1.89999998    2.28999996
   13.22499943  109.41400146    1.89999998    2.30999994
   13.23111057  109.41400146    1.86000001    2.28999996
   13.25166702  106.19999695    1.69000006    2.32999992
   13.25472260  117.01699829    1.69000006    2.32999992
   13.25805569  112.64800262    1.69000006    2.30999994
   13.26138878  118.23799896    1.66999996    2.32999992
   13.26444435  120.51100159    1.64999998    2.32999992
   13.26777744  125.79199982    1.66999996    2.32999992
   13.27416611  125.79199982    1.64999998    2.32999992
   13.27833271  119.57700348    1.63000000    2.30999994
   13.28138828  119.32800293    1.63000000    2.32999992
   13.28472233  113.89399719    1.61000001    2.34999990
   13.28500080  119.63899994    1.61000001    2.34999990
   13.28833389  118.63700104    1.60000002    2.32999992
   13.29166698  117.29199982    1.61000001    2.32999992
   13.29472256  115.62300110    1.60000002    2.32999992
   13.29805565  112.85399628    1.58000004    2.32999992
   13.30111122  109.84700012    1.58000004    2.32999992
   13.30444431  102.31700134    1.55999994    2.32999992
   13.30777836  101.44100189    1.51999998    2.32999992
   13.31083393  105.38200378    1.53999996    2.32999992
   13.31694412  105.38200378    1.48000002    2.32999992
   13.32111073  103.23500061    1.48000002    2.32999992
   13.32416630  109.75499725    1.44000006    2.34999990
   13.32750034  112.05699921    1.48000002    2.36999989
   13.33083344  121.82599640    1.48000002    2.34999990
   13.33388901  106.08599854    1.46000004    2.34999990
   13.33722210   99.56099701    1.44000006    2.32999992
   13.34055519  103.28199768    1.44000006    2.32999992
   13.34361076  109.81800079    1.50000000    2.34999990
   13.34694386  114.95400238    1.41999996    2.34999990
   13.35027790  113.37100220    1.44000006    2.36999989
   13.35194492   96.84310150    1.41999996    2.34999990
   13.35388947  104.66999817    1.41999996    2.34999990
   13.35972214  104.66999817    1.38000000    2.36999989
   13.36388969  112.88600159    1.41999996    2.32999992
   13.36722279  124.21299744    1.41999996    2.32999992
   13.37027836  110.95899963    1.38000000    2.34999990
   13.37361145  106.12500000    1.36000001    2.34999990
   13.37694454  107.59600067    1.30999994    2.34999990
   13.38000011  107.27200317    1.14999998    2.34999990
   13.38333321  120.77999878    1.03999996    2.36999989
   13.38527775  100.70800018    0.94000000    2.34999990
   13.38694477  117.75700378    0.83999997    2.34999990
   13.39000034  112.86799622    0.70999998    2.36999989
   13.39333344  103.98000336    0.63000000    2.36999989
   13.39666653  107.79100037    0.63000000    2.36999989
   13.40249920  107.79100037    0.61000001    2.36999989
   13.40666676  115.01499939    0.58999997    2.36999989
   13.40999985  107.41999817    0.56999999    2.36999989
   13.41333294  119.65399933    0.55000001    2.36999989
   13.41638851   94.49220276    0.52999997    2.36999989
   13.41888905   96.93350220    0.51999998    2.36999989
   13.42027855   97.08209991    0.50000000    2.36999989
   13.42333412  100.43599701    0.47999999    2.36999989
   13.42666721  104.04100037    0.44000000    2.36999989
   13.43000031   98.40180206    0.41999999    2.36999989
   13.43305588  104.12200165    0.38000000    2.36999989
   13.43638897  109.34899902    0.36000001    2.39000010
   13.43944454  101.36299896    0.55000001    2.36999989
   13.44555569  101.36299896    1.26999998    2.36999989
   13.44972229  111.34400177    1.39999998    2.36999989
   13.45222187  108.57399750    1.39999998    2.36999989
   13.45333290  119.59200287    1.38000000    2.36999989
   13.45638847  110.41699982    1.28999996    2.39000010
   13.45972157  118.40399933    1.26999998    2.39000010
   13.46277714  111.55200195    1.26999998    2.39000010
   13.46611118  111.17299652    1.26999998    2.39000010
   13.58777714   -1.00000000   -1.00000000   -1.00000000
   13.68361092   -1.00000000   -1.00000000   -1.00000000
   13.77944374   -1.00000000   -1.00000000   -1.00000000
   13.88833332   -1.00000000   -1.00000000   -1.00000000
   13.99000072   -1.00000000   -1.00000000   -1.00000000
   14.09666634   -1.00000000   -1.00000000   -1.00000000
   14.23249912   -1.00000000   -1.00000000   -1.00000000
   14.32777786   -1.00000000   -1.00000000   -1.00000000
   14.42888927   -1.00000000   -1.00000000   -1.00000000
   14.47916603   70.58969879    0.94000000    2.55999994
   14.48222160  117.77500153    0.94000000    2.55999994
   14.48555565  106.01699829    0.94000000    2.55999994
   14.48888874  107.81999969    0.94000000    2.55999994
   14.49194431  107.94599915    0.94000000    2.55999994
   14.49527836  116.38600159    0.94000000    2.55999994
   14.49944496  116.38600159    0.94000000    2.55999994
   14.50361156  107.41100311    0.94000000    2.55999994
   14.50666714  114.05100250    0.94000000    2.55999994
   14.51000023  105.65499878    0.92000002    2.55999994
   14.51249981  108.64199829    0.92000002    2.55999994
   14.51361084  109.97799683    0.92000002    2.55999994
   14.51694393  104.78199768    0.92000002    2.55999994
   14.51999950  110.80400085    0.89999998    2.55999994
   14.52333355  105.82800293    0.88000000    2.55999994
   14.52666664  109.25700378    0.88000000    2.55999994
   14.52972221  111.37799835    0.88000000    2.57999992
   14.53305531  115.24600220    0.88000000    2.55999994
   14.53638935  117.38700104    0.88000000    2.55999994
   14.54222298  117.38700104    0.88000000    2.57999992
   14.54638958  108.02300262    0.88000000    2.57999992
   14.54944515  109.50599670    0.89999998    2.55999994
   14.55277824  129.05700684    0.89999998    2.55999994
   14.55611134   99.04239655    0.89999998    2.55999994
   14.55916691  107.20800018    0.89999998    2.55999994
   14.56250000  118.36199951    0.92000002    2.55999994
   14.56583309   97.18260193    0.92000002    2.55999994
   14.56888866  116.77899933    0.89999998    2.55999994
   14.57222176  108.60800171    0.92000002    2.55999994
   14.57527733   94.73429871    0.92000002    2.55999994
   14.57861137  117.97899628    0.94000000    2.55999994
   14.57916641  122.64299774    0.94000000    2.55999994
   14.58500004  122.64299774    0.94000000    2.55999994
   14.58916664   96.48840332    0.94000000    2.55999994
   14.59249973   91.61399841    0.94000000    2.57999992
   14.59555531  101.25800323    0.94000000    2.55999994
   14.59888840  101.74500275    0.95999998    2.55999994
   14.60222244  115.71800232    0.95999998    2.57999992
   14.60527802  106.38899994    0.98000002    2.55999994
   14.60861111  107.86100006    0.98000002    2.57999992
   14.61194515  109.14900208    1.00000000    2.55999994
   14.61250019  117.63200378    1.00000000    2.55999994
   14.61555576  113.90299988    1.00000000    2.55999994
   14.61861134   91.85919952    1.00000000    2.55999994
   14.62194443   94.15100098    1.00000000    2.55999994
   14.62777805   94.15100098    1.01999998    2.57999992
   14.63194466   98.07189941    1.01999998    2.55999994
   14.63527775  107.38400269    1.01999998    2.55999994
   14.63861084  110.08899689    1.01999998    2.55999994
   14.64166641  108.18299866    1.01999998    2.55999994
   14.64499950  114.28299713    1.01999998    2.57999992
   14.64583302  114.74299622    1.01999998    2.55999994
   14.64861107  117.91899872    1.00000000    2.57999992
   14.65166664  127.66600037    1.00000000    2.55999994
   14.65499973  110.02500153    1.00000000    2.55999994
   14.65833282   93.03790283    1.00000000    2.55999994
   14.66138840  114.78800201    1.00000000    2.57999992
   14.66472149  110.62599945    1.00000000    2.55999994
   14.67083359  110.62599945    1.00000000    2.57999992
   14.67500019  119.11699677    1.00000000    2.57999992
   14.67805576  107.87400055    1.00000000    2.57999992
   14.67916679   98.28199768    1.00000000    2.55999994
   14.68194485  105.32099915    1.00000000    2.57999992
   14.68500042  112.97399902    1.00000000    2.55999994
   14.68833351  108.60700226    0.98000002    2.57999992
   14.69166660  105.65499878    0.98000002    2.55999994
   14.69472218  110.92900085    1.00000000    2.55999994
   14.69805527  121.22499847    0.98000002    2.55999994
   14.70111084  105.39900208    0.98000002    2.55999994
   14.70444393  116.96900177    0.98000002    2.55999994
   14.70777798  110.83899689    0.98000002    2.55999994
   14.71361065  110.83899689    0.98000002    2.55999994
   14.71777725  110.73200226    0.98000002    2.55999994
   14.72083282  112.88300323    0.98000002    2.57999992
   14.72416592  112.13700104    0.98000002    2.57999992
   14.72749996  112.30999756    0.98000002    2.55999994
   14.73055553  113.18099976    0.95999998    2.55999994
   14.73388958  106.58799744    0.95999998    2.55999994
   14.73722267   97.44799805    0.95999998    2.57999992
   14.74027824  112.11199951    0.95999998    2.57999992
   14.74361134  106.89800262    0.95999998    2.57999992
   14.74583340  118.03299713    0.95999998    2.57999992
   14.74722290  107.36000061    0.95999998    2.57999992
   14.75027752  105.84200287    0.95999998    2.57999992
   14.75638866  105.84200287    0.95999998    2.55999994
   14.76055527  109.07800293    0.95999998    2.57999992
   14.76388931  104.11599731    0.95999998    2.55999994
   14.76694393  104.62799835    0.95999998    2.57999992
   14.77027798  105.02100372    0.95999998    2.55999994
   14.77361107  109.74900055    0.95999998    2.57999992
   14.77666664  102.75700378    0.98000002    2.57999992
   14.77916622   98.74050140    0.98000002    2.57999992
   14.78055573   91.30030060    0.98000002    2.57999992
   14.78361130   90.86759949    0.95999998    2.57999992
   14.78694534   90.10279846    0.95999998    2.57999992
   14.79027843   91.53250122    0.95999998    2.59999990
   14.79333401  103.31300354    0.94000000    2.57999992
   14.79916668  103.31300354    0.92000002    2.59999990
   14.80333328   90.84239960    0.92000002    2.57999992
   14.80666733   88.80879974    0.92000002    2.59999990
   14.81000042  101.51300049    0.89999998    2.57999992
   14.81250000  100.53800201    0.89999998    2.59999990
   14.81361103  102.61799622    0.89999998    2.57999992
   14.81666660  102.61699677    0.89999998    2.55999994
   14.81999969   94.87259674    0.89999998    2.59999990
   14.82333374   84.63600159    0.89999998    2.57999992
   14.82638836   91.72109985    0.89999998    2.57999992
   14.82972240   85.33339691    0.89999998    2.57999992
   14.83277798   92.50409698    0.89999998    2.57999992
   14.83611107  102.75299835    0.92000002    2.59999990
   14.84222221  102.75299835    0.92000002    2.59999990
   14.84638882  101.41600037    0.89999998    2.57999992
   14.84944439   95.06279755    0.89999998    2.57999992
   14.85277843   92.42359924    0.89999998    2.59999990
   14.85611153   97.39099884    0.89999998    2.59999990
   14.85916710  100.34500122    0.89999998    2.57999992
   14.86250019   98.03019714    0.89999998    2.57999992
   14.86555576  101.04599762    0.89999998    2.59999990
   14.86888885  100.87100220    0.89999998    2.59999990
   14.87222195  114.52300262    0.89999998    2.57999992
   14.87527752   99.71080017    0.89999998    2.59999990
   14.87861156  102.10299683    0.89999998    2.59999990
   14.87916660  103.08499908    0.89999998    2.59999990
   14.88500023  103.08499908    0.92000002    2.57999992
   14.88916683   94.76909637    0.92000002    2.55999994
   14.89222240   98.95300293    0.92000002    2.59999990
   14.89555550   90.50119781    0.92000002    2.57999992
   14.89888859   89.23570251    0.94000000    2.57999992
   14.90194416   86.02500153    0.94000000    2.59999990
   14.90527725   94.83679962    0.94000000    2.57999992
   14.90861034  125.96600342    0.94000000    2.59999990
   14.91166592  101.22699738    0.94000000    2.59999990
   14.91249943   97.50270081    0.94000000    2.59999990
   14.91555500  104.63300323    0.95999998    2.57999992
   14.91861153   74.89479828    0.94000000    2.57999992
   14.92194462  102.79699707    0.95999998    2.59999990
   14.92777824  102.79699707    0.94000000    2.59999990
   14.93194485  100.51399994    0.94000000    2.57999992
   14.93527794  112.35700226    0.92000002    2.59999990
   14.93833351  106.28900146    0.92000002    2.59999990
   14.94166660   99.87889862    0.92000002    2.59999990
   14.94499969   95.45010376    0.92000002    2.59999990
   14.94583321   98.45909882    0.89999998    2.59999990
   14.94861126   98.80529785    0.89999998    2.59999990
   14.95166683   86.76770020    0.88000000    2.59999990
   14.95499992   93.23619843    0.88000000    2.59999990
   14.95833302   96.89469910    0.88000000    2.59999990
   14.96138859   96.59989929    0.88000000    2.59999990
   14.96472168   92.89689636    0.88000000    2.59999990
   14.97055531   92.89689636    0.89999998    2.59999990
   14.97472191  101.93000031    0.89999998    2.55999994
   14.97805500   98.85870361    0.89999998    2.59999990
   14.97916603   95.30829620    0.92000002    2.57999992
   14.98166656   98.20950317    0.92000002    2.59999990
   14.98472214  104.10900116    0.92000002    2.59999990
   14.98805618  103.34100342    0.94000000    2.59999990
   14.99138927   94.41609955    0.94000000    2.59999990
   14.99472237   90.63369751    0.94000000    2.59999990
   14.99805546  103.03600311    0.94000000    2.59999990
   15.00111103  100.75099945    0.94000000    2.59999990
   15.00444412  102.71399689    0.94000000    2.57999992
   15.00777817  101.98500061    0.94000000    2.57999992
   15.01361084  101.98500061    0.94000000    2.55999994
   15.01777744   98.12069702    0.94000000    2.59999990
   15.02083302   96.87969971    0.94000000    2.59999990
   15.02416611   92.10469818    0.94000000    2.59999990
   15.02722168   97.64440155    0.95999998    2.57999992
   15.03055573   86.52369690    0.95999998    2.59999990
   15.03388977   86.70320129    0.95999998    2.59999990
   15.03694534   94.78119659    0.95999998    2.59999990
   15.04027843   87.38610077    0.95999998    2.59999990
   15.04361153   97.80590057    0.95999998    2.59999990
   15.04583359   89.83750153    0.95999998    2.59999990
   15.04722309  103.25199890    0.95999998    2.57999992
   15.05055618  105.05100250    0.94000000    2.59999990
   15.05638885  105.05100250    0.94000000    2.59999990
   15.06055546  100.04299927    0.94000000    2.59999990
   15.06361103   89.01959991    0.94000000    2.57999992
   15.06694412   89.95310211    0.92000002    2.59999990
   15.07027817   91.97630310    0.92000002    2.59999990
   15.07361126   98.58740234    0.92000002    2.59999990
   15.07666683   93.06950378    0.92000002    2.59999990
   15.07916641   87.22290039    0.89999998    2.59999990
   15.08027744   89.89869690    0.89999998    2.61999989
   15.08361053   84.79830170    0.89999998    2.59999990
   15.08666611   80.40529633    0.88000000    2.59999990
   15.09000015   89.66259766    0.88000000    2.57999992
   15.09305477   98.94029999    0.88000000    2.59999990
   15.09916592   98.94029999    0.88000000    2.61999989
   15.10333347   86.79519653    0.88000000    2.61999989
   15.10666752   97.17019653    0.88000000    2.59999990
   15.10972214   85.87390137    0.89999998    2.59999990
   15.11250019   92.37789917    0.88000000    2.59999990
   15.11361122   81.90840149    0.88000000    2.61999989
   15.11694431   79.42939758    0.88000000    2.61999989
   15.11999989   83.31279755    0.88000000    2.59999990
   15.12333393   85.02880096    0.88000000    2.59999990
   15.12638855   87.46440125    0.88000000    2.61999989
   15.12972260   94.13800049    0.88000000    2.59999990
   15.13305569   92.98130035    0.89999998    2.59999990
   15.13611126  108.70600128    0.89999998    2.59999990
   15.14194393  108.70600128    0.89999998    2.59999990
   15.14611053   98.53299713    0.89999998    2.59999990
   15.14944458   83.79589844    0.89999998    2.59999990
   15.15249920   85.29889679    0.89999998    2.59999990
   15.15583324   89.81469727    0.89999998    2.59999990
   15.15916634   83.94039917    0.92000002    2.59999990
   15.16222191   83.78790283    0.92000002    2.59999990
   15.16555500   81.16159821    0.89999998    2.61999989
   15.16888905   85.58010101    0.89999998    2.59999990
   15.17194462   82.75599670    0.89999998    2.61999989
   15.17527771   80.19869995    0.89999998    2.59999990
   15.17861176   80.64289856    0.89999998    2.59999990
   15.17916679   85.36260223    0.89999998    2.61999989
   15.18500042   85.36260223    0.89999998    2.59999990
   15.18888855   79.13909912    0.88000000    2.61999989
   15.19222260   86.90180206    0.88000000    2.64000010
   15.19555569   94.32430267    0.86000001    2.61999989
   15.19861126   92.69979858    0.86000001    2.59999990
   15.20194435  101.04799652    0.86000001    2.61999989
   15.20527744   94.00839996    0.86000001    2.61999989
   15.20833302   95.86810303    0.86000001    2.61999989
   15.21166611   95.57369995    0.86000001    2.59999990
   15.21249962   82.68379974    0.86000001    2.59999990
   15.21527767   91.43959808    0.86000001    2.61999989
   15.21861076   84.61380005    0.86000001    2.61999989
   15.22166634   93.58090210    0.86000001    2.61999989
   15.22777748   93.58090210    0.88000000    2.61999989
   15.23194408   98.17209625    0.88000000    2.61999989
   15.23500061  105.29299927    0.88000000    2.61999989
   15.23833370   94.98519897    0.89999998    2.61999989
   15.24166679   99.08860016    0.89999998    2.61999989
   15.24472237  103.40000153    0.89999998    2.59999990
   15.24583340   95.20970154    0.89999998    2.61999989
   15.24833393   95.81240082    0.89999998    2.61999989
   15.25166702   91.11430359    0.88000000    2.61999989
   15.25472260   92.81739807    0.88000000    2.61999989
   15.25805569   91.92160034    0.88000000    2.64000010
   15.26111126   86.44989777    0.88000000    2.61999989
   15.26444435   80.68009949    0.88000000    2.61999989
   15.27055550   80.68009949    0.88000000    2.64000010
   15.27472210   86.47799683    0.88000000    2.61999989
   15.27805519   87.35829926    0.89999998    2.64000010
   15.27916622   85.52120209    0.89999998    2.64000010
   15.28166676   94.62229919    0.89999998    2.59999990
   15.28500080   89.91680145    0.89999998    2.59999990
   15.28805637   99.91439819    0.89999998    2.64000010
   15.29138947   97.04509735    0.89999998    2.59999990
   15.29444504   98.17150116    0.89999998    2.59999990
   15.29777813   98.67050171    0.89999998    2.61999989
   15.30111122   96.47949982    0.89999998    2.61999989
   15.30416679   89.14279938    0.89999998    2.61999989
   15.30749989  101.01999664    0.88000000    2.61999989
   15.31333351  101.01999664    0.89999998    2.59999990
   15.31750011   99.96600342    0.89999998    2.64000010
   15.32083321   92.06050110    0.89999998    2.61999989
   15.32388878   94.52929688    0.88000000    2.61999989
   15.32722187   90.29779816    0.86000001    2.61999989
   15.33055592   98.89929962    0.86000001    2.61999989
   15.33361053   97.10520172    0.88000000    2.61999989
   15.33694458   87.11550140    0.88000000    2.61999989
   15.34027767   86.78659821    0.88000000    2.61999989
   15.34333324   99.72650146    0.89999998    2.64000010
   15.34583282  102.89199829    0.89999998    2.61999989
   15.34694386   95.48989868    0.89999998    2.61999989
   15.35027790   97.73500061    0.89999998    2.61999989
   15.35638905   97.73500061    0.92000002    2.61999989
   15.36027813  106.12200165    0.89999998    2.64000010
   15.36361122   99.69680023    0.89999998    2.61999989
   15.36694431   93.43009949    0.89999998    2.61999989
   15.36999989   94.40350342    0.89999998    2.64000010
   15.37333393   90.93939972    0.88000000    2.64000010
   15.37666702   94.07879639    0.88000000    2.61999989
   15.37916660   92.78489685    0.88000000    2.64000010
   15.38027763   97.73560333    0.86000001    2.61999989
   15.38361073   94.26490021    0.88000000    2.64000010
   15.38666630   96.51290131    0.88000000    2.61999989
   15.39000034   90.18489838    0.88000000    2.61999989
   15.39333344   88.05359650    0.88000000    2.64000010
   15.39916611   88.05359650    0.88000000    2.61999989
   15.40333271  100.67099762    0.88000000    2.64000010
   15.40638828   92.26200104    0.89999998    2.61999989
   15.40972137   94.95449829    0.89999998    2.61999989
   15.41249943  101.61599731    0.89999998    2.61999989
   15.41333294   98.22519684    0.89999998    2.61999989
   15.41666698   97.30840302    0.89999998    2.61999989
   15.41972256   99.06089783    0.89999998    2.61999989
   15.42305565  101.69599915    0.89999998    2.61999989
   15.42638874   95.47200012    0.89999998    2.61999989
   15.42944431  102.15499878    0.88000000    2.61999989
   15.43277836   99.50859833    0.86000001    2.61999989
   15.43583298  100.16699982    0.86000001    2.61999989
   15.44194412  100.16699982    0.83999997    2.61999989
   15.44611073   98.82330322    0.83999997    2.64000010
   15.44944477   87.99700165    0.83999997    2.64000010
   15.45249939   94.19259644    0.83999997    2.61999989
   15.45583344   83.13829803    0.83999997    2.64000010
   15.45888901   88.02200317    0.81999999    2.61999989
   15.46222210   90.32969666    0.83999997    2.64000010
   15.46555519   86.09790039    0.83999997    2.64000010
   15.46861076   94.51280212    0.83999997    2.61999989
   15.47194386   87.96600342    0.83999997    2.64000010
   15.47527695   89.07679749    0.83999997    2.64000010
   15.47833252   98.16529846    0.83999997    2.64000010
   15.47916603   87.43350220    0.83999997    2.64000010
   15.50000000   87.43350220    0.83999997    2.64000010
   15.50416660   88.62529755    0.83999997    2.64000010
   15.50749969   85.54229736    0.86000001    2.61999989
   15.51055527   83.13980103    0.86000001    2.64000010
   15.51249981   85.28810120    0.86000001    2.64000010
   15.51416683   87.74620056    0.86000001    2.64000010
   15.51749992   87.60890198    0.86000001    2.64000010
   15.52055550   83.82779694    0.88000000    2.64000010
   15.52388859   88.22350311    0.88000000    2.64000010
   15.52722168   85.27580261    0.88000000    2.61999989
   15.53027725   88.05599976    0.88000000    2.61999989
   15.53361130   87.46720123    0.88000000    2.64000010
   15.53694534   90.89969635    0.88000000    2.61999989
   15.54277802   90.89969635    0.88000000    2.64000010
   15.54694462   88.01650238    0.89999998    2.64000010
   15.55000019   92.88680267    0.89999998    2.64000010
   15.55333328   99.54070282    0.89999998    2.61999989
   15.55666733   92.78029633    0.89999998    2.64000010
   15.55972195   92.18609619    0.89999998    2.64000010
   15.56305599   97.05770111    0.88000000    2.64000010
   15.56638908   91.29930115    0.88000000    2.64000010
   15.56944466   95.13050079    0.88000000    2.64000010
   15.57277775   90.48139954    0.86000001    2.64000010
   15.57583332   86.82579803    0.86000001    2.61999989
   15.57916641   87.66519928    0.86000001    2.64000010
   15.57972240   81.71140289    0.86000001    2.64000010
   15.58555508   81.71140289    0.83999997    2.64000010
   15.58972168   87.13999939    0.83999997    2.64000010
   15.59305477   86.78990173    0.83999997    2.64000010
   15.59611034   99.64389801    0.83999997    2.64000010
   15.59944439   85.95570374    0.83999997    2.64000010
   15.60277843   84.76879883    0.83999997    2.64000010
   15.60583401   87.78829956    0.83999997    2.64000010
   15.60916710   92.97029877    0.86000001    2.64000010
   15.61222267   80.98000336    0.86000001    2.64000010
   15.61305618   83.49230194    0.86000001    2.64000010
   15.61611176   86.10579681    1.38000000    2.64000010
   15.61916637   84.37570190    0.98000002    2.64000010
   15.62250042   89.48090363    0.89999998    2.64000010
   15.62833309   89.48090363    1.00000000    2.64000010
   15.63249969   88.44660187    0.95999998    2.64000010
   15.63583279   94.25389862    0.98000002    2.61999989
   15.63916683   83.03520203    0.98000002    2.64000010
   15.64222240   87.72049713    0.94000000    2.61999989
   15.64555550   88.39469910    0.94000000    2.61999989
   15.64638901   81.51879883    0.94000000    2.64000010
   15.64916611   84.87580109    0.94000000    2.64000010
   15.65222168   84.96499634    0.92000002    2.64000010
   15.65555477   77.13089752    0.88000000    2.64000010
   15.65888882   81.01229858    0.88000000    2.64000010
   15.66194439   88.05729675    0.88000000    2.64000010
   15.66527748   86.00330353    0.88000000    2.64000010
   15.67138958   86.00330353    0.86000001    2.64000010
   15.67555618   91.11910248    0.86000001    2.64000010
   15.67861176   93.20619965    0.86000001    2.64000010
   15.67972279   84.43299866    0.86000001    2.64000010
   15.68249989   94.16359711    0.86000001    2.64000010
   15.68555546   86.89430237    0.86000001    2.64000010
   15.68888855   93.27120209    0.86000001    2.64000010
   15.69222260   93.43080139    0.86000001    2.64000010
   15.69527817   84.67919922    0.86000001    2.64000010
   15.69861126   87.21990204    0.86000001    2.64000010
   15.70166683   98.76499939    0.86000001    2.64000010
   15.70499992   82.98999786    0.86000001    2.64000010
   15.70833302   92.11650085    0.83999997    2.64000010
   15.71416664   92.11650085    0.83999997    2.64000010
   15.71833324   88.96060181    0.83999997    2.64000010
   15.72138882   87.13919830    0.83999997    2.66000009
   15.72472191   87.06400299    0.81999999    2.64000010
   15.72805500   93.37100220    0.81999999    2.64000010
   15.73111057   87.20819855    0.83999997    2.64000010
   15.73444462   87.26989746    0.83999997    2.64000010
   15.73777771   82.22419739    0.81999999    2.64000010
   15.74083328   77.02410126    0.81999999    2.64000010
   15.74416733   93.77459717    0.81999999    2.66000009
   15.74638939   92.15339661    0.81999999    2.64000010
   15.74777794   91.49810028    0.80000001    2.64000010
   15.75083351   89.06790161    0.80000001    2.64000010
   15.75694466   89.06790161    0.79000002    2.66000009
   15.76111126   94.13189697    0.79000002    2.64000010
   15.76444435   92.47799683    0.79000002    2.66000009
   15.76749992   96.56919861    0.79000002    2.64000010
   15.77083302   96.55599976    0.79000002    2.64000010
   15.77416611   92.86309814    0.79000002    2.64000010
   15.77722168   97.50099945    0.79000002    2.64000010
   15.77972221   86.60310364    0.79000002    2.64000010
   15.78111076   89.93250275    0.79000002    2.66000009
   15.78416729   88.79660034    0.79000002    2.64000010
   15.78750038   89.54879761    0.76999998    2.64000010
   15.79083347   86.95980072    0.76999998    2.64000010
   15.79388905   89.93379974    0.76999998    2.64000010
   15.79972267   89.93379974    0.76999998    2.66000009
   15.80388927   85.09860229    0.76999998    2.64000010
   15.80722237   80.46769714    0.76999998    2.64000010
   15.81055546   85.20719910    0.76999998    2.64000010
   15.81305599   82.13420105    0.76999998    2.64000010
   15.81416702   82.64980316    0.76999998    2.64000010
   15.81722260   90.37809753    0.79000002    2.64000010
   15.82055569   77.94309998    0.79000002    2.64000010
   15.82388878   79.71230316    0.79000002    2.64000010
   15.82694435   82.43679810    0.79000002    2.64000010
   15.83027744   87.56159973    0.79000002    2.64000010
   15.83361053   85.03939819    0.80000001    2.64000010
   15.83666611   86.56629944    0.80000001    2.64000010
   15.84277725   86.56629944    0.80000001    2.64000010
   15.84666634   95.20590210    0.80000001    2.64000010
   15.85000038   86.01049805    0.80000001    2.64000010
   15.85333347   91.55719757    0.79000002    2.64000010
   15.85638905   97.35559845    0.79000002    2.64000010
   15.85972214   95.15229797    0.76999998    2.66000009
   15.86305618   93.13069916    0.76999998    2.66000009
   15.86611176   93.85140228    0.76999998    2.64000010
   15.86944485   91.28050232    0.75000000    2.64000010
   15.87250042   93.75859833    0.75000000    2.64000010
   15.87583351   87.79109955    0.75000000    2.64000010
   15.87916660   93.62270355    0.75000000    2.64000010
   15.87972260   91.53299713    0.73000002    2.64000010
   15.88555527   91.53299713    0.73000002    2.64000010
   15.88972187   92.84140015    0.73000002    2.67000008
   15.89277744   88.47219849    0.73000002    2.66000009
   15.89611053   92.87380219    0.73000002    2.66000009
   15.89944458   94.07929993    0.73000002    2.66000009
   15.90249920   95.25090027    0.73000002    2.64000010
   15.90583324   83.90699768    0.73000002    2.64000010
   15.90888882   96.27670288    0.75000000    2.64000010
   15.91222191   92.55449677    0.75000000    2.64000010
   15.91305542   94.71459961    0.75000000    2.64000010
   15.91583252   92.67400360    0.75000000    2.64000010
   15.91888905   86.71859741    0.75000000    2.67000008
   15.92222214   95.66200256    0.76999998    2.64000010
   15.92833328   95.66200256    0.79000002    2.66000009
   15.93249989   95.61940002    0.79000002    2.66000009
   15.93583298   96.83580017    0.80000001    2.64000010
   15.93888855   96.00189972    0.80000001    2.64000010
   15.94222260   91.14569855    0.81999999    2.64000010
   15.94555569   88.76390076    0.83999997    2.64000010
   15.94638920   85.12010193    0.83999997    2.64000010
   15.94916630   93.30090332    0.83999997    2.64000010
   15.95222187   83.14869690    0.83999997    2.66000009
   15.95555496   95.97709656    0.83999997    2.64000010
   15.95888901   87.28240204    0.83999997    2.64000010
   15.96194458   87.11519623    0.81999999    2.64000010
   15.96527767   87.61289978    0.83999997    2.66000009
   15.97111034   87.61289978    0.80000001    2.64000010
   15.97527695   93.74949646    0.80000001    2.64000010
   15.97861099   88.12500000    0.80000001    2.64000010
   15.97972202   92.46669769    0.80000001    2.64000010
   15.98222160   92.17019653    0.80000001    2.64000010
   15.98527813   82.18299866    0.80000001    2.64000010
   15.98861122   77.38719940    0.80000001    2.64000010
   15.99194431   87.33630371    0.81999999    2.64000010
   15.99499989   86.53820038    0.81999999    2.66000009
   15.99833393   87.96140289    0.83999997    2.64000010
   16.00166702   90.70629883    0.81999999    2.64000010
   16.00472260   93.61540222    0.81999999    2.66000009
   16.00805473   89.14330292    0.80000001    2.64000010
   16.01416588   89.14330292    0.81999999    2.64000010
   16.01805496   83.30159760    0.81999999    2.66000009
   16.02138901   86.46399689    0.83999997    2.66000009
   16.02472115   86.38770294    0.83999997    2.64000010
   16.02777672   86.96610260    0.83999997    2.64000010
   16.03111076   84.64890289    0.86000001    2.66000009
   16.03444481   95.12989807    0.86000001    2.66000009
   16.03750038   85.42980194    0.86000001    2.64000010
   16.04083252   90.64540100    0.88000000    2.64000010
   16.04388809   85.91300201    0.88000000    2.64000010
   16.04638863   92.48629761    0.88000000    2.64000010
   16.04777718   88.74629974    0.88000000    2.61999989
   16.05083275   84.14600372    0.89999998    2.64000010
   16.05694389   84.14600372    0.89999998    2.64000010
   16.06110954   85.21549988    0.88000000    2.64000010
   16.06416512   90.96549988    0.89999998    2.66000009
   16.06750107   83.90219879    0.86000001    2.66000009
   16.07055664   85.54640198    0.86000001    2.66000009
   16.07389069   84.30919647    0.83999997    2.66000009
   16.07722282   93.08950043    0.83999997    2.64000010
   16.07972336   79.48639679    0.81999999    2.64000010
   16.08083344   85.46109772    0.81999999    2.64000010
   16.08416748   89.62699890    0.81999999    2.64000010
   16.08722305   82.29399872    0.80000001    2.64000010
   16.09055710   83.17819977    0.79000002    2.64000010
   16.09388924   88.09649658    0.76999998    2.66000009
   16.09972191   88.09649658    0.75000000    2.66000009
   16.10388947   84.28130341    0.75000000    2.66000009
   16.10722351   81.29370117    0.76999998    2.66000009
   16.11027908   79.52909851    0.76999998    2.66000009
   16.11305618   87.91359711    0.76999998    2.66000009
   16.11416626   83.93730164    0.76999998    2.66000009
   16.11750031   97.17819977    0.76999998    2.66000009
   16.12055588   84.15570068    0.76999998    2.66000009
   16.12388992   84.67600250    0.76999998    2.64000010
   16.12694550   82.69529724    0.76999998    2.66000009
   16.13027763   76.78199768    0.75000000    2.66000009
   16.13361168   81.19229889    0.75000000    2.66000009
   16.13666725   80.32099915    0.75000000    2.66000009
   16.14249992   80.32099915    0.75000000    2.66000009
   16.14666748   82.59249878    0.75000000    2.66000009
   16.14999962   80.32340240    0.75000000    2.66000009
   16.15305519   83.89160156    0.75000000    2.66000009
   16.15638924   87.28320313    0.76999998    2.66000009
   16.15972137   90.82389832    0.76999998    2.64000010
   16.16277695   85.47709656    0.76999998    2.66000009
   16.16611099   82.39820099    0.79000002    2.67000008
   16.16944313   89.50830078    0.79000002    2.64000010
   16.17249870   79.63069916    0.79000002    2.66000009
   16.17583275   85.46119690    0.79000002    2.66000009
   16.17888832   86.09809875    0.76999998    2.64000010
   16.17972183   83.83059692    0.79000002    2.66000009
   16.18555450   83.83059692    0.76999998    2.67000008
   16.18972206   83.03160095    0.76999998    2.66000009
   16.19277763   83.04830170    0.76999998    2.64000010
   16.19610977   84.06839752    0.76999998    2.64000010
   16.19916534   84.35160065    0.76999998    2.66000009
   16.20250130   81.65850067    0.76999998    2.66000009
   16.20583344   80.93099976    0.76999998    2.66000009
   16.20888901   80.69229889    0.76999998    2.66000009
   16.21222305   80.80940247    0.76999998    2.64000010
   16.21305656   79.23870087    0.76999998    2.64000010
   16.21583366   92.36000061    0.76999998    2.66000009
   16.21888924   86.61370087    0.76999998    2.66000009
   16.22222328   85.62789917    0.76999998    2.64000010
   16.22833443   85.62789917    0.76999998    2.66000009
   16.23250008   86.05850220    0.76999998    2.66000009
   16.23555565   81.30079651    0.76999998    2.66000009
   16.23888969   88.00849915    0.76999998    2.67000008
   16.24194527   88.39980316    0.75000000    2.66000009
   16.24527740   82.38770294    0.75000000    2.66000009
   16.24638939   79.89980316    0.75000000    2.66000009
   16.24888992   92.16760254    0.75000000    2.67000008
   16.25194359   78.85160065    0.75000000    2.66000009
   16.25527763   85.17479706    0.75000000    2.64000010
   16.25861168   84.90110016    0.75000000    2.66000009
   16.26166725   92.78690338    0.75000000    2.66000009
   16.26499939   88.66269684    0.75000000    2.66000009
   16.27111053   88.66269684    0.75000000    2.66000009
   16.27527809   87.10890198    0.76999998    2.66000009
   16.27833366   82.05169678    0.76999998    2.66000009
   16.27972221   86.39469910    0.79000002    2.66000009
   16.28222275   82.31719971    0.76999998    2.66000009
   16.28527641   87.66870117    0.79000002    2.64000010
   16.28861046   81.81469727    0.79000002    2.66000009
   16.29194450   86.23449707    0.79000002    2.66000009
   16.29500008   83.90840149    0.79000002    2.66000009
   16.29833221   78.90139771    0.81999999    2.64000010
   16.30166626   80.30709839    0.79000002    2.67000008
   16.30472183   74.86299896    0.79000002    2.66000009
   16.30805397   76.53459930    0.76999998    2.67000008
   16.31388855   76.53459930    0.76999998    2.66000009
   16.31805611   85.57520294    0.76999998    2.67000008
   16.32139015   79.39369965    0.76999998    2.66000009
   16.32444572   86.47470093    0.76999998    2.66000009
   16.32777786   81.50199890    0.75000000    2.66000009
   16.33111191   77.80919647    0.75000000    2.67000008
   16.33444595   83.89929962    0.75000000    2.66000009
   16.33750153   78.74079895    0.75000000    2.66000009
   16.34083366   87.82859802    0.75000000    2.64000010
   16.34388924   81.85800171    0.75000000    2.66000009
   16.34638977   83.82530212    0.75000000    2.66000009
   16.34777832   82.51000214    0.75000000    2.66000009
   16.35111237   76.86530304    0.75000000    2.67000008
   16.35666656   76.86530304    0.75000000    2.64000010
   16.36083412   81.48249817    0.75000000    2.66000009
   16.36416626   82.67579651    0.75000000    2.66000009
   16.36750031   78.50080109    0.73000002    2.67000008
   16.37055588   84.98000336    0.73000002    2.66000009
   16.37388992   82.98909760    0.73000002    2.67000008
   16.37694550   82.94200134    0.73000002    2.67000008
   16.37972260   83.13069916    0.73000002    2.66000009
   16.38083267   80.93009949    0.73000002    2.66000009
   16.38416672   77.30709839    0.73000002    2.66000009
   16.38722229   78.31600189    0.73000002    2.66000009
   16.39055634   80.96209717    0.73000002    2.66000009
   16.39388847   82.97840118    0.73000002    2.66000009
   16.39972115   82.97840118    0.73000002    2.66000009
   16.40388870   83.01920319    0.73000002    2.67000008
   16.40694427   83.59190369    0.70999998    2.67000008
   16.41027832   85.48040009    0.70999998    2.67000008
   16.41305542   87.94450378    0.70999998    2.67000008
   16.41388893   81.03949738    0.70999998    2.67000008
   16.41722107   80.18820190    0.70999998    2.66000009
   16.42027664   85.68930054    0.70999998    2.67000008
   16.42361069   81.56890106    0.73000002    2.67000008
   16.42694473   81.06420135    0.73000002    2.67000008
   16.43000031   83.63379669    0.73000002    2.67000008
   16.43333244   85.35179901    0.73000002    2.64000010
   16.43638802   87.64880371    0.73000002    2.66000009
   16.44249916   87.64880371    0.70999998    2.67000008
   16.44666672   87.15339661    0.70999998    2.67000008
   16.45000076   83.73930359    0.70999998    2.66000009
   16.45305634   90.09629822    0.70999998    2.66000009
   16.45639038   86.89399719    0.70999998    2.67000008
   16.45944595   87.77200317    0.70999998    2.66000009
   16.46277809   86.94699860    0.70999998    2.66000009
   16.46611214   82.75849915    0.69000000    2.66000009
   16.46916771   81.31639862    0.69000000    2.67000008
   16.47249985   83.79119873    0.70999998    2.64000010
   16.47555542   80.10489655    0.70999998    2.66000009
   16.47888947   85.75789642    0.69000000    2.66000009
   16.47972298   83.95149994    0.69000000    2.67000008
   16.48527718   83.95149994    0.69000000    2.67000008
   16.48944473   82.24539948    0.69000000    2.67000008
   16.49277878   85.02629852    0.67000002    2.67000008
   16.49583435   83.90129852    0.67000002    2.67000008
   16.51361084   78.39949799    0.67000002    2.67000008
   16.51583290   77.80339813    0.67000002    2.66000009
   16.51916695   83.10900116    0.69000000    2.67000008
   16.52249908   83.11029816    0.69000000    2.66000009
   16.52833366   83.11029816    0.69000000    2.66000009
   16.53249931   84.11540222    0.69000000    2.66000009
   16.53583336   81.81849670    0.70999998    2.67000008
   16.53888893   74.86000061    0.70999998    2.67000008
   16.54222107   78.79100037    0.73000002    2.64000010
   16.54555511   78.92880249    0.73000002    2.67000008
   16.54666710   82.29509735    0.73000002    2.67000008
   16.54916573   77.08650208    0.73000002    2.66000009
   16.55249977   76.01059723    0.73000002    2.66000009
   16.55555534   86.22090149    0.79000002    2.66000009
   16.55888748   75.97229767    0.70999998    2.67000008
   16.56222153   78.83090210    0.70999998    2.66000009
   16.56527710   76.12560272    0.70999998    2.67000008
   16.57111168   76.12560272    0.70999998    2.66000009
   16.57527924   78.40010071    0.70999998    2.67000008
   16.57861137   74.36060333    0.73000002    2.67000008
   16.58000183   84.26029968    0.73000002    2.66000009
   16.58222389   77.47119904    0.73000002    2.66000009
   16.58555603   82.03690338    0.73000002    2.66000009
   16.58861160   85.44979858    0.73000002    2.67000008
   16.59194565   83.97260284    0.75000000    2.66000009
   16.59527779   80.98010254    0.75000000    2.67000008
   16.59833336   79.14550018    0.75000000    2.67000008
   16.60166740   81.02140045    0.75000000    2.67000008
   16.60499954   89.11609650    0.75000000    2.66000009
   16.60805511   83.41269684    0.75000000    2.66000009
   16.61416626   83.41269684    0.75000000    2.67000008
   16.61805534   80.12819672    0.73000002    2.64000010
   16.62138939   85.36759949    0.75000000    2.66000009
   16.62472153   86.01570129    0.76999998    2.66000009
   16.62777710   81.00769806    0.83999997    2.67000008
   16.63111115   80.49089813    1.23000002    2.66000009
   16.63444519   87.90409851    1.34000003    2.66000009
   16.63750076   82.58460236    2.84999990    2.64000010
   16.64083290   77.44329834    2.82999992    2.64000010
   16.64388847   78.49759674    3.00000000    2.61999989
   16.64666748   87.82679749    2.71000004    2.64000010
   16.64777756   78.56390381    2.80999994    2.61999989
   16.65111160   78.30000305    2.76999998    2.64000010
   16.65694427   78.30000305    2.26999998    2.64000010
   16.66110992   78.49420166    2.44000006    2.66000009
   16.66416550   78.38829803    2.78999996    2.61999989
   16.66749954   82.61209869    3.51999998    2.66000009
   16.67083359   90.11129761    2.98000002    2.64000010
   16.67388916   88.98439789    2.84999990    2.61999989
   16.67722130   82.17199707    2.96000004    2.64000010
   16.68000031   80.23989868    2.84999990    2.64000010
   16.68083191   78.63899994    2.61999989    2.64000010
   16.68416595   86.44750214    1.53999996    2.66000009
   16.68750000   90.81819916    1.36000001    2.66000009
   16.69055557   85.43489838    1.63000000    2.67000008
   16.69388771   81.68460083    1.61000001    2.67000008
   16.69972038   81.68460083    1.48000002    2.64000010
   16.70388985   88.38159943    2.01999998    2.61999989
   16.70722389   84.75099945    2.50000000    2.66000009
   16.71027946   84.79199982    2.39000010    2.64000010
   16.71333504   81.52970123    2.64000010    2.64000010
   16.71389008   77.33940125    2.91000009    2.66000009
   16.71722221   89.49949646    3.51999998    2.61999989
   16.72027779   84.35679626    4.00000000    2.61999989
   16.72361183   94.08439636    4.44999981    2.64000010
   16.72694588   85.41889954    4.90999985    2.51999998
   16.73000145   92.88919830    4.90999985    2.50000000
   16.73333359   82.74659729    4.90999985    2.51999998
   16.73638916   87.51419830    4.90999985    2.51999998
   16.74250031   87.51419830    4.90999985    2.59999990
   16.74666786   86.07610321    4.90999985    2.50000000
   16.74722290   87.79360199    4.90999985    2.53999996
   16.75055504   77.39779663    4.90999985    2.48000002
   16.75361061   85.29789734    4.90999985    2.55999994
   16.75694466   78.70159912    4.90999985    2.57999992
   16.76027870   84.92700195    3.73000002    2.64000010
   16.76333427   84.59770203    4.05999994    2.61999989
   16.76666641   85.09999847    3.30999994    2.67000008
   16.77000046   79.82659912    2.80999994    2.64000010
   16.77305603   86.30809784    3.75000000    2.66000009
   16.77638817   83.27490234    4.15999985    2.59999990
   16.77944374   77.29630280    4.63999987    2.59999990
   16.78000069   86.34529877    4.63999987    2.59999990
   16.78555489   86.34529877    3.59999990    2.64000010
   16.78944397   81.42549896    3.61999989    2.59999990
   16.79277802   88.11060333    4.30999994    2.64000010
   16.79611015   83.67539978    3.76999998    2.64000010
   16.79916573   89.49019623    2.96000004    2.64000010
   16.80249977   84.16580200    2.57999992    2.64000010
   16.80583191   85.85179901    2.17000008    2.64000010
   16.80888748   83.37920380    2.13000011    2.66000009
   16.81222153   78.70739746    1.98000002    2.66000009
   16.81361008   79.65329742    1.86000001    2.67000008
   16.81583214   86.93289948    2.09999990    2.66000009
   16.81916809   77.35189819    2.01999998    2.66000009
   16.82222366   82.43530273    1.60000002    2.64000010
   16.82833481   82.43530273    0.94000000    2.66000009
   16.83250046   77.49780273    1.05999994    2.67000008
   16.83555603   76.49189758    0.98000002    2.66000009
   16.83889008   79.56379700    1.01999998    2.66000009
   16.84222221   78.79090118    0.92000002    2.66000009
   16.84527779   82.21379852    0.88000000    2.66000009
   16.84694481   80.54599762    0.83999997    2.66000009
   16.84889030   80.14170074    0.88000000    2.64000010
   16.85222244   79.13950348    0.94000000    2.67000008
   16.85527802   83.95099640    1.01999998    2.66000009
   16.85861206   78.48940277    1.00000000    2.66000009
   16.86194420   84.71869659    1.00000000    2.67000008
   16.86499977   82.51679993    1.21000004    2.67000008
   16.87111092   82.51679993    4.03999996    2.64000010
   16.87527847   80.60350037    4.90999985    2.59999990
   16.87833405   77.98410034    4.90999985    2.59999990
   16.88027763   76.91059875    4.90999985    2.59999990
   16.88194466   91.45359802    4.90999985    2.57999992
   16.88527679   79.63189697    4.90999985    2.48000002
   16.88833237   76.09600067    4.90999985    2.53999996
   16.89166641   75.09059906    4.90999985    2.55999994
   16.89500046   77.67910004    4.90999985    2.51999998
   16.89805603   79.52390289    4.90999985    2.48000002
   16.90138817   79.82360077    4.90999985    2.51999998
   16.90472221   77.41970062    4.90999985    2.44000006
   16.90777779   79.14739990    4.90999985    2.50000000
   16.91388893   79.14739990    4.90999985    2.59999990
   16.91805458   85.78389740    4.90999985    2.55999994
   16.92138863   88.04290009    4.90999985    2.53999996
   16.92444420   75.28369904    4.90999985    2.57999992
   16.92777634   80.87329865    4.51000023    2.59999990
   16.93111038   73.73680115    2.94000006    2.66000009
   16.93416595   92.19860077    2.51999998    2.64000010
   16.93750000   82.97409821    2.50000000    2.64000010
   16.94083214   78.55960083    2.61999989    2.64000010
   16.94388771   80.65950012    1.61000001    2.67000008
   16.94694328   82.98590088    1.13000000    2.67000008
   16.94749832   84.49220276    1.07000005    2.67000008
   16.95083427   81.40660095    1.00000000    2.67000008
   16.95694542   81.40660095    0.69000000    2.67000008
   16.96083450   83.24140167    0.61000001    2.67000008
   16.96416664   79.33950043    0.58999997    2.67000008
   16.96750069   82.84919739    0.58999997    2.67000008
   16.97055626   87.37010193    0.58999997    2.67000008
   16.97389030   83.54440308    0.61000001    2.67000008
   16.97722244   83.42040253    0.61000001    2.67000008
   16.98027802   90.42240143    0.61000001    2.67000008
   16.98055649   90.15460205    0.61000001    2.67000008
   16.98388863   81.28639984    0.63000000    2.67000008
   16.98694420   81.81089783    0.63000000    2.67000008
   16.99027824   80.37640381    0.64999998    2.67000008
   16.99361229   81.96749878    0.64999998    2.66000009
   16.99972153   81.96749878    0.67000002    2.67000008
   17.00388908   79.28880310    0.69000000    2.66000009
   17.00694466   80.12930298    0.69000000    2.67000008
   17.01027870   90.44879913    0.69000000    2.66000009
   17.01361084   77.73899841    0.70999998    2.66000009
   17.01388931   82.85479736    0.70999998    2.66000009
   17.01722145   85.48680115    0.70999998    2.67000008
   17.02027702   83.94850159    0.70999998    2.67000008
   17.02361107   90.35729980    0.70999998    2.66000009
   17.02694511   78.60269928    0.70999998    2.66000009
   17.03000069   80.82559967    0.70999998    2.66000009
   17.03333282   78.23780060    0.70999998    2.67000008
   17.03666687   79.23909760    0.70999998    2.66000009
   17.04249954   79.23909760    0.70999998    2.66000009
   17.04666710   82.19680023    0.70999998    2.67000008
   17.04722214   84.60279846    0.70999998    2.66000009
   17.05027771   81.51889801    0.70999998    2.67000008
   17.05360985   82.47090149    0.70999998    2.66000009
   17.05694389   82.20040131    0.70999998    2.66000009
   17.05999947   74.28389740    0.70999998    2.66000009
   17.06333351   85.44840240    0.70999998    2.66000009
   17.06666756   84.59760284    0.70999998    2.66000009
   17.06972313   77.70619965    0.70999998    2.66000009
   17.07305717   81.48480225    0.70999998    2.67000008
   17.07611275   91.32710266    0.70999998    2.67000008
   17.07944489   84.39569855    0.69000000    2.67000008
   17.08055687   83.05529785    0.69000000    2.67000008
   17.08527756   83.05529785    0.69000000    2.67000008
   17.08944511   84.05719757    0.69000000    2.67000008
   17.09277916   82.14810181    0.69000000    2.67000008
   17.09583473   84.68699646    0.69000000    2.67000008
   17.09916687   84.85929871    0.69000000    2.67000008
   17.10250092   78.09310150    0.69000000    2.66000009
   17.10555649   83.89550018    0.69000000    2.66000009
   17.10888863   76.81130219    0.69000000    2.67000008
   17.11222267   84.63369751    0.69000000    2.66000009
   17.11388969   82.87629700    0.69000000    2.66000009
   17.11555672   80.92520142    0.69000000    2.66000009
   17.11888885   79.31250000    0.69000000    2.67000008
   17.12222290   86.66519928    0.69000000    2.66000009
   17.12833405   86.66519928    0.69000000    2.67000008
   17.13222313   88.05970001    0.69000000    2.67000008
   17.13555527   86.23329926    0.69000000    2.66000009
   17.13888931   87.44349670    0.69000000    2.67000008
   17.14194489   81.28639984    0.69000000    2.66000009
   17.14527702   76.29869843    0.69000000    2.67000008
   17.14722252   86.31829834    0.69000000    2.66000009
   17.14861107   85.40309906    0.69000000    2.67000008
   17.15194321   78.06590271    0.69000000    2.67000008
   17.15527725   84.90979767    0.69000000    2.67000008
   17.15833282   79.59729767    0.69000000    2.67000008
   17.16166687   78.47530365    0.70999998    2.66000009
   17.16499901   78.58679962    0.70999998    2.67000008
   17.17111015   78.58679962    0.70999998    2.67000008
   17.17527771   86.41000366    0.73000002    2.66000009
   17.17833328   88.94059753    0.73000002    2.66000009
   17.18055534   83.89990234    0.73000002    2.66000009
   17.18222237   87.36910248    0.73000002    2.66000009
   17.18527603   81.65139771    0.75000000    2.67000008
   17.18861008   82.63909912    0.75000000    2.66000009
   17.19166565   88.62930298    0.75000000    2.66000009
   17.19499969   80.13320160    0.75000000    2.66000009
   17.19833183   90.09480286    0.75000000    2.67000008
   17.20138931   83.71859741    0.76999998    2.67000008
   17.20472336   80.30889893    0.76999998    2.66000009
   17.20805550   82.75800323    0.79000002    2.64000010
   17.21389008   82.75800323    1.14999998    2.64000010
   17.21805573   77.70410156    0.94000000    2.66000009
   17.22111130   78.19259644    0.89999998    2.67000008
   17.22444534   83.12860107    0.80000001    2.66000009
   17.22777748   80.50720215    0.79000002    2.64000010
   17.23083305   85.77159882    0.79000002    2.66000009
   17.23416710   78.60549927    0.79000002    2.66000009
   17.23750114   84.19380188    0.79000002    2.66000009
   17.24055672   80.70960236    0.76999998    2.64000010
   17.24388885   76.12300110    0.79000002    2.66000009
   17.24694443   80.80010223    0.83999997    2.66000009
   17.24888992   86.69120026    0.86000001    2.67000008
   17.25083351   85.86499786    1.76999998    2.66000009
   17.25666618   85.86499786    4.90999985    2.57999992
   17.26083374   88.09100342    4.17999983    2.64000010
   17.26416588   78.65570068    4.30999994    2.64000010
   17.26722145   86.11239624    4.00000000    2.66000009
   17.27055550   86.75659943    4.90999985    2.59999990
   17.27388954   84.80799866    4.90999985    2.57999992
   17.27694511   91.96130371    4.90999985    2.55999994
   17.28027725   85.55349731    4.90999985    2.53999996
   17.28222275   88.78379822    4.90999985    2.61999989
   17.28388786   87.46150208    4.90999985    2.51999998
   17.28694344   92.36029816    4.90999985    2.53999996
   17.29027748   90.86419678    4.90999985    2.51999998
   17.29361153   78.56009674    4.90999985    2.51999998
   17.29972076   78.56009674    4.90999985    2.55999994
   17.30360985   84.51470184    4.90999985    2.55999994
   17.30694389   79.89849854    4.90999985    2.48000002
   17.31027794   88.30280304    4.90999985    2.51999998
   17.31333351   81.57189941    4.90999985    2.50000000
   17.31583214   90.53459930    4.90999985    2.44000006
   17.31722260   79.69319916    4.90999985    2.44000006
   17.32027817   81.17320251    4.90999985    2.50000000
   17.32361221   86.03430176    4.90999985    2.46000004
   17.32666779   89.26260376    4.90999985    2.51999998
   17.33000183   79.67209625    4.90999985    2.48000002
   17.33333397   84.56549835    4.90999985    2.57999992
   17.33638954   89.74749756    4.90999985    2.55999994
   17.34250069   89.74749756    4.90999985    2.48000002
   17.34666824   -1.00000000    4.90999985    2.59999990
   17.35000038   -1.00000000    4.28999996    2.64000010
   17.35333443   87.31269836    4.69999981    2.64000010
   17.35639000   86.65180206    4.90999985    2.57999992
   17.35972214   87.67620087    4.90999985    2.55999994
   17.36305618   94.12519836    4.90999985    2.57999992
   17.36611176   83.59020233    4.90999985    2.53999996
   17.36944389   86.66300201    4.90999985    2.55999994
   17.37277794   84.72029877    4.90999985    2.61999989
   17.37583351   89.94709778    4.90999985    2.51999998
   17.37916756   73.14379883    4.90999985    2.48000002
   17.38527679   73.14379883    4.90999985    2.51999998
   17.38944435   79.59980011    4.90999985    2.44000006
   17.39249992   76.58550262    4.90999985    2.50000000
   17.39583397   -1.00000000    4.90999985    2.59999990
   17.39916611   -1.00000000    4.21999979    2.53999996
   17.40222168   84.36019897    4.00000000    2.64000010
   17.40555573   82.91709900    2.64000010    2.61999989
   17.40888786   76.52310181    2.91000009    2.64000010
   17.41194344   83.20339966    1.41999996    2.66000009
   17.41527748   83.15139771    1.34000003    2.64000010
   17.41611099   88.84279633    1.38000000    2.64000010
   17.41888809   82.52249908    1.36000001    2.66000009
   17.42222214   80.23660278    1.58000004    2.66000009
   17.42805481   80.23660278    1.85000002    2.64000010
   17.43222237   85.63009644    2.05999994    2.64000010
   17.43555450   86.31960297    1.64999998    2.66000009
   17.43861008   82.16139984    1.25000000    2.64000010
   17.44194412   87.95439911    0.80000001    2.67000008
   17.44527626   -1.00000000    0.76999998    2.67000008
   17.44833183   85.10880280    0.75000000    2.66000009
   17.44944382   86.08779907    0.75000000    2.67000008
   17.45194435   90.36360168    0.76999998    2.64000010
   17.45527840   83.65019989    0.76999998    2.66000009
   17.45833397   82.95729828    0.79000002    2.66000009
   17.46166801   82.55609894    0.76999998    2.66000009
   17.46472359   82.17600250    0.76999998    2.64000010
   17.47111130   82.17600250    0.80000001    2.66000009
   17.47500038   84.04350281    0.81999999    2.67000008
   17.47833443   89.83799744    0.80000001    2.66000009
   17.48166656   79.15840149    0.80000001    2.67000008
   17.48305511   83.44110107    0.80000001    2.67000008
   17.48527718   83.47129822    0.83999997    2.66000009
   17.48833275   87.70729828    0.79000002    2.64000010
   17.49166679   86.36489868    0.79000002    2.66000009
   17.49500084   -1.00000000    0.79000002    2.66000009
   17.49805641   -1.00000000    0.79000002    2.66000009
   17.50138855   87.12409973    0.80000001    2.67000008
   17.50444412   78.07250214    1.07000005    2.66000009
   17.50777817   84.93620300    1.11000001    2.66000009
   17.51388931   84.93620300    1.48000002    2.66000009
   17.53222275   86.70400238    0.76999998    2.66000009
   17.53555489   80.39900208    0.76999998    2.64000010
   17.53861046   78.18350220    0.95999998    2.66000009
   17.54194450   82.62500000    1.03999996    2.64000010
   17.54500008   -1.00000000    2.34999990    2.59999990
   17.54833221   -1.00000000    2.76999998    2.64000010
   17.55166626  279.26098633    2.76999998    2.61999989
   17.55694389  279.26098633    1.36000001    2.67000008
   17.56110954   84.26820374    1.14999998    2.66000009
   17.56416512   79.66210175    1.33000004    2.66000009
   17.56527710   82.52649689    1.48000002    2.64000010
   17.56805611   86.27780151    1.53999996    2.66000009
   17.57111168   83.79669952    1.83000004    2.64000010
   17.57444572   85.28230286    1.94000006    2.64000010
   17.57750130   83.32550049    1.60000002    2.66000009
   17.58083344   77.88169861    1.46000004    2.64000010
   17.58416748   87.02999878    0.80000001    2.66000009
   17.58722305   82.22200012    0.70999998    2.66000009
   17.59055710   81.20010376    0.73000002    2.66000009
   17.59388924   97.38420105    0.92000002    2.66000009
   17.60388947   -1.00000000    1.51999998    2.66000009
   17.60694504   -1.00000000    1.50000000    2.64000010
   17.61027908   84.24859619    1.61000001    2.64000010
   17.61361122   79.86689758    1.39999998    2.66000009
   17.61666679   90.82959747    1.33000004    2.66000009
   17.62000084   90.94300079    1.33000004    2.66000009
   17.62305641   92.26599884    1.26999998    2.66000009
   17.62638855   88.82129669    1.26999998    2.66000009
   17.62972260   85.64219666    1.30999994    2.66000009
   17.63194466   87.77749634    0.67000002    2.67000008
   17.63333321   87.18569946    0.67000002    2.66000009
   17.63638878   88.97619629    0.67000002    2.66000009
   17.64666748   -1.00000000    0.70999998    2.67000008
   17.64999962   -1.00000000    0.70999998    2.66000009
   17.65305519   -1.00000000    0.75000000    2.66000009
   17.65638924   87.14279938    1.66999996    2.64000010
   17.65972137   84.42900085    1.80999994    2.64000010
   17.66277695   74.14340210    1.78999996    2.66000009
   17.66527748   81.17130280    2.28999996    2.66000009
   17.66666603   80.41139984    2.39000010    2.66000009
   17.66972160   76.60410309    2.48000002    2.64000010
   17.67305565   84.83090210    2.80999994    2.64000010
   17.67611122   86.70030212    3.07999992    2.64000010
   17.67944336   83.97399902    3.64000010    2.61999989
   17.68555450   83.97399902    4.86999989    2.59999990
   17.68972206   -1.00000000    4.67999983    2.59999990
   17.69277763   -1.00000000    3.84999990    2.61999989
   17.69610977   -1.00000000    3.09999990    2.61999989
   17.69944382   -1.00000000    2.23000002    2.66000009
   17.70277786   -1.00000000    1.83000004    2.66000009
   17.70611191   88.54080200    1.61000001    2.64000010
   17.70916748   88.84169769    1.60000002    2.64000010
   17.71250153   91.79830170    1.75000000    2.64000010
   17.71555710   80.06140137    2.21000004    2.64000010
   17.71888924   92.87550354    2.39000010    2.64000010
   17.72222328   87.73049927    2.59999990    2.64000010
   17.72833443   87.73049927    2.69000006    2.64000010
   17.73250008   82.57129669    2.36999989    2.64000010
   17.73611069   89.70880127    3.28999996    2.61999989
   17.73916626   -1.00000000    4.46999979    2.59999990
   17.74250031   -1.00000000    4.90999985    2.59999990
   17.74555588   -1.00000000    4.90999985    2.59999990
   17.74888992   -1.00000000    4.55999994    2.61999989
   17.75222206   -1.00000000    4.80000019    2.55999994
   17.75527763   71.63439941    4.88999987    2.55999994
   17.75861168   84.18000031    4.90999985    2.59999990
   17.76194382   83.40110016    4.82999992    2.61999989
   17.76499939   89.22129822    4.90999985    2.57999992
   17.76555634   93.13050079    4.90999985    2.59999990
   17.77111053   93.13050079    4.90999985    2.30999994
   17.77527809   87.46749878    4.90999985    2.07999992
   17.77861023   83.93180084    4.90999985    2.71000004
   17.78166580   86.58450317    4.90999985    2.59999990
   17.78499985   83.37840271    4.90999985    2.61999989
   17.78833199   -1.00000000    4.90999985    2.59999990
   17.79138756   -1.00000000    4.00000000    2.64000010
   17.79472160   -1.00000000    2.84999990    2.61999989
   17.79777718   -1.00000000    2.13000011    2.64000010
   17.80138779   -1.00000000    1.66999996    2.66000009
   17.80472183   92.56469727    1.28999996    2.66000009
   17.80805397   81.86190033    1.23000002    2.66000009
   17.81388855   81.86190033    1.25000000    2.64000010
   17.81805611   86.73380280    0.89999998    2.66000009
   17.82139015   78.87259674    0.70999998    2.64000010
   17.82472229   76.69580078    0.69000000    2.66000009
   17.82777786   82.96219635    0.69000000    2.64000010
   17.83111191   84.56719971    0.70999998    2.64000010
   17.83222389   77.43489838    0.70999998    2.66000009
   17.83472252   86.26100159    0.70999998    2.66000009
   17.83777809   78.69799805    0.70999998    2.66000009
   17.84111214   80.74400330    0.70999998    2.66000009
   17.84444427   82.77749634    0.73000002    2.66000009
   17.84749985   76.86009979    0.73000002    2.66000009
   17.85083389   75.04900360    0.73000002    2.66000009
   17.85694504   75.04900360    0.73000002    2.64000010
   17.86111069   78.11280060    0.73000002    2.66000009
   17.86416626   83.35189819    0.73000002    2.66000009
   17.86555672   84.25650024    0.70999998    2.64000010
   17.86777878   84.93679810    0.70999998    2.66000009
   17.87083435   78.91860199    0.70999998    2.66000009
   17.87416649   85.54219818    0.70999998    2.66000009
   17.87750053   80.51450348    0.69000000    2.64000010
   17.88055611   76.38420105    0.70999998    2.64000010
   17.88388824   80.49009705    0.69000000    2.66000009
   17.88722229   89.15689850    0.69000000    2.66000009
   17.89027786   -1.00000000    0.69000000    2.64000010
   17.89361191   -1.00000000    0.69000000    2.64000010
   17.90388870   -1.00000000    0.70999998    2.66000009
   17.90694427   97.86340332    0.70999998    2.66000009
   17.91027832   92.69000244    0.70999998    2.66000009
   17.91361046   92.62159729    0.70999998    2.66000009
   17.91666603  101.51799774    0.69000000    2.64000010
   17.92000008   91.63929749    0.69000000    2.66000009
   17.92305565   86.70010376    0.69000000    2.64000010
   17.92638779   83.76529694    0.69000000    2.66000009
   17.92972183   89.36360168    0.69000000    2.64000010
   17.93222237   85.75360107    0.67000002    2.64000010
   17.93333244   96.26319885    0.67000002    2.64000010
   17.93638802   87.39099884    0.67000002    2.64000010
   17.94249916   87.39099884    0.69000000    2.64000010
   17.94666672   88.90470123    0.69000000    2.64000010
   17.95000076   94.20050049    0.69000000    2.66000009
   17.95333481   85.87339783    0.69000000    2.64000010
   17.95639038   88.97250366    0.70999998    2.64000010
   17.95972252   85.84279633    0.70999998    2.66000009
   17.96277809   85.84889984    0.73000002    2.64000010
   17.96555710   86.66259766    0.73000002    2.64000010
   17.96666718   86.44280243    0.73000002    2.64000010
   17.97000122   99.96649933    0.75000000    2.64000010
   17.97305679   86.91089630    0.75000000    2.64000010
   17.97638893   88.59929657    0.75000000    2.64000010
   17.97944450   85.77159882    0.75000000    2.64000010
   17.98527718   85.77159882    0.75000000    2.64000010
   17.98944473   -1.00000000    0.75000000    2.64000010
   18.03861046   -1.00000000   -1.00000000   -1.00000000
