    HOUR (UT)   FLARE FACTOR    SKY TESTER    SUN TESTER
   12.57055569   -1.00000000   -1.00000000   -1.00000000
   12.60194492  145.49200439    2.89000010    2.55999994
   12.60527802  144.99699402    2.89000010    2.55999994
   12.60861111  153.53100586    2.91000009    2.55999994
   12.61166668  140.77499390    2.91000009    2.55999994
   12.61500072  147.43699646    2.93000007    2.55999994
   12.61805534  142.79699707    2.94000006    2.53999996
   12.62222195  142.79699707    2.94000006    2.53999996
   12.62638855  153.47500610    2.93000007    2.53999996
   12.62972260  128.83999634    2.91000009    2.57999992
   12.63305569  129.52000427    2.89000010    2.55999994
   12.63527775  134.11199951    2.86999989    2.55999994
   12.63666630  142.88499451    2.86999989    2.55999994
   12.63972187  136.41200256    2.89000010    2.57999992
   12.64305496  138.63299561    2.89000010    2.55999994
   12.64638901  156.74400330    2.89000010    2.55999994
   12.64944458  148.61099243    2.89000010    2.55999994
   12.65305519  140.82699585    2.91000009    2.55999994
   12.65694427  140.82699585    2.91000009    2.55999994
   12.66111088  135.47900391    2.91000009    2.55999994
   12.66527748  139.73699951    2.93000007    2.55999994
   12.66833401  134.37600708    2.93000007    2.55999994
   12.66888905  140.00000000    2.93000007    2.55999994
   12.67194462  140.05099487    2.93000007    2.55999994
   12.67500019  135.81399536    2.93000007    2.55999994
   12.67833328  141.03199768    2.94000006    2.55999994
   12.68166733  137.38699341    2.94000006    2.53999996
   12.68500042  133.47700500    2.94000006    2.55999994
   12.69166660  133.47700500    2.93000007    2.55999994
   12.69583321  134.85200500    2.91000009    2.55999994
   12.69888878  139.15899658    2.91000009    2.55999994
   12.70222187  135.95100403    2.91000009    2.57999992
   12.70277786  142.00300598    2.89000010    2.55999994
   12.70583344  134.52999878    2.89000010    2.57999992
   12.70916653  130.64199829    2.89000010    2.55999994
   12.71249962  121.47299957    2.86999989    2.55999994
   12.71555519  111.93199921    2.86999989    2.57999992
   12.71888828  130.20799255    2.86999989    2.55999994
   12.72222137  130.16600037    2.86999989    2.55999994
   12.72611046  130.16600037    2.84999990    2.57999992
   12.73027706  127.79399872    2.82999992    2.55999994
   12.73361111  126.48100281    2.80999994    2.57999992
   12.73555565  125.16300201    2.80999994    2.57999992
   12.73722267  124.93599701    2.80999994    2.59999990
   12.74055576  135.74000549    2.78999996    2.57999992
   12.74361134  143.78999329    2.76999998    2.57999992
   12.74694443  143.12100220    2.76999998    2.57999992
   12.75000000  118.83899689    2.75000000    2.59999990
   12.75333309  135.30599976    2.73000002    2.59999990
   12.75666714  139.48899841    2.73000002    2.57999992
   12.76083374  139.48899841    2.71000004    2.57999992
   12.76500034  129.63400269    2.69000006    2.59999990
   12.76805496  122.81400299    2.69000006    2.59999990
   12.76888847  129.34599304    2.69000006    2.59999990
   12.77166653  140.28900146    2.67000008    2.59999990
   12.77499962  118.95300293    2.66000009    2.61999989
   12.77805519  134.80700684    2.66000009    2.57999992
   12.78138828  130.13900757    2.66000009    2.59999990
   12.78444481  126.88899994    2.64000010    2.59999990
   12.78777790  147.35000610    2.61999989    2.61999989
   12.79111195  130.83900452    2.59999990    2.61999989
   12.79527855  130.83900452    2.57999992    2.61999989
   12.79944515  132.34700012    2.57999992    2.59999990
   12.80222225  134.23500061    2.57999992    2.61999989
   12.80305576  136.19500732    2.55999994    2.61999989
   12.80611134  128.16099548    2.57999992    2.61999989
   12.80944443  134.77099609    2.55999994    2.59999990
   12.81277752  128.85400391    2.55999994    2.61999989
   12.81583309  131.23899841    2.53999996    2.61999989
   12.81916618  137.51800537    2.53999996    2.64000010
   12.82250023  133.58599854    2.53999996    2.61999989
   12.82555580  130.44900513    2.53999996    2.61999989
   12.82972240  130.44900513    2.53999996    2.61999989
   12.83388901  144.35000610    2.53999996    2.61999989
   12.83555508  145.67900085    2.53999996    2.64000010
   12.83749962  134.50000000    2.51999998    2.61999989
   12.84055519  129.46400452    2.51999998    2.61999989
   12.84388828  133.24499512    2.50000000    2.61999989
   12.84722233  132.01199341    2.50000000    2.61999989
   12.85027790  134.82000732    2.48000002    2.64000010
   12.85361195  147.15299988    2.48000002    2.64000010
   12.85694504  140.81700134    2.50000000    2.59999990
   12.86000061  143.27200317    2.50000000    2.61999989
   12.86416721  143.27200317    2.51999998    2.61999989
   12.86833382  137.59899902    2.51999998    2.61999989
   12.86888885  139.05499268    2.51999998    2.61999989
   12.87194443  147.52900696    2.51999998    2.61999989
   12.87500000  139.78300476    2.51999998    2.61999989
   12.87833309  136.83999634    2.51999998    2.61999989
   12.88166714  144.38699341    2.50000000    2.64000010
   12.88472176  140.69599915    2.50000000    2.61999989
   12.88805580  147.36700439    2.51999998    2.61999989
   12.89138889  147.44799805    2.55999994    2.61999989
   12.89444447  144.71099854    2.57999992    2.61999989
   12.89888859  144.71099854    2.59999990    2.61999989
   12.90277767  146.76800537    2.61999989    2.61999989
   12.90611076  153.96899414    2.64000010    2.61999989
   12.90944386  148.87399292    2.64000010    2.61999989
   12.91249943  146.03999329    2.64000010    2.61999989
   12.91583252  148.31599426    2.66000009    2.61999989
   12.91888905  149.81900024    2.64000010    2.61999989
   12.92222214  127.38999939    2.64000010    2.61999989
   12.92555618  156.10299683    2.64000010    2.64000010
   12.92861176  147.22300720    2.64000010    2.61999989
   12.93333340  147.22300720    2.61999989    2.64000010
   12.93750000  143.83999634    2.61999989    2.61999989
   12.94055557  173.03999329    2.66000009    2.61999989
   12.94388866  167.08500671    2.69000006    2.61999989
   12.94694424  155.19099426    2.73000002    2.61999989
   12.95027733  158.13800049    2.73000002    2.59999990
   12.95361137  149.13200378    2.71000004    2.61999989
   12.95666695  160.41600037    2.67000008    2.61999989
   12.96000004  171.91799927    2.64000010    2.61999989
   12.96333313  155.30099487    2.61999989    2.61999989
   12.96777725  155.30099487    2.57999992    2.61999989
   12.97194386  168.30499268    2.51999998    2.61999989
   12.97499943  157.18600464    2.48000002    2.64000010
   12.97833252  142.03900146    2.48000002    2.66000009
   12.98166656  151.84599304    2.48000002    2.64000010
   12.98472214  163.22200012    2.48000002    2.64000010
   12.98805618  161.52400208    2.48000002    2.64000010
   12.99138927  171.52999878    2.48000002    2.66000009
   12.99444485  155.81599426    2.46000004    2.64000010
   12.99777794  149.27499390    2.46000004    2.64000010
   13.00222206  149.27499390    2.44000006    2.66000009
   13.00638866  158.54100037    2.42000008    2.66000009
   13.00972176  160.49200439    2.42000008    2.66000009
   13.01277733  158.63200378    2.42000008    2.66000009
   13.01611137  149.93699646    2.42000008    2.66000009
   13.01944447  167.18200684    2.40000010    2.66000009
   13.02250004  158.30000305    2.40000010    2.66000009
   13.02583313  150.35299683    2.40000010    2.66000009
   13.02916622  167.97700500    2.40000010    2.66000009
   13.03222179  161.01199341    2.40000010    2.66000009
   13.03666687  161.01199341    2.39000010    2.67000008
   13.04083347  194.44500732    2.36999989    2.67000008
   13.04416752  184.28700256    2.34999990    2.67000008
   13.04750061  167.71000671    2.30999994    2.67000008
   13.05055618  174.23500061    2.28999996    2.66000009
   13.05388927  156.22599792    2.26999998    2.67000008
   13.05694485  175.90699768    2.26999998    2.67000008
   13.06027794  185.22500610    2.26999998    2.67000008
   13.06361103  164.34800720    2.21000004    2.69000006
   13.06666660  177.98199463    2.19000006    2.67000008
   13.07138920  177.98199463    2.15000010    2.67000008
   13.07527733  163.04800415    2.13000011    2.69000006
   13.07861137  158.73300171    2.13000011    2.67000008
   13.08194447  143.96099854    2.13000011    2.67000008
   13.08500004  163.34599304    2.15000010    2.69000006
   13.08833313  146.99000549    2.17000008    2.67000008
   13.09166622  157.38600159    2.17000008    2.69000006
   13.09472179  158.77600098    2.19000006    2.67000008
   13.09805489  152.51400757    2.17000008    2.67000008
   13.10138893  148.09599304    2.15000010    2.67000008
   13.10583401  148.09599304    2.15000010    2.69000006
   13.11000061  172.13400269    2.15000010    2.67000008
   13.11305618  163.88900757    2.15000010    2.69000006
   13.11638927  146.09399414    2.15000010    2.69000006
   13.11972237  159.13200378    2.17000008    2.67000008
   13.12277794  167.63699341    2.17000008    2.69000006
   13.12611103  175.11900330    2.19000006    2.69000006
   13.12916660  159.09300232    2.19000006    2.69000006
   13.13249969  162.69999695    2.21000004    2.67000008
   13.13583279  149.99000549    2.19000006    2.69000006
   13.14027786  149.99000549    2.17000008    2.69000006
   13.14444447  149.60499573    2.15000010    2.69000006
   13.14777756  173.35099792    2.13000011    2.69000006
   13.15083313  180.46800232    2.11999989    2.69000006
   13.15416622  174.51600647    2.11999989    2.69000006
   13.15749931  179.30599976    2.11999989    2.69000006
   13.16055489  183.05799866    2.11999989    2.69000006
   13.16388893  167.63099670    2.09999990    2.69000006
   13.16694450  185.71200562    2.11999989    2.69000006
   13.17027855  176.32899475    2.11999989    2.69000006
   13.17472267  176.32899475    2.11999989    2.69000006
   13.17888927  191.78999329    2.13000011    2.69000006
   13.18222237  179.81799316    2.13000011    2.69000006
   13.18527794  148.72599792    2.13000011    2.69000006
   13.18861103  169.12100220    2.13000011    2.71000004
   13.19194412  175.61000061    2.11999989    2.69000006
   13.19499969  176.63800049    2.09999990    2.69000006
   13.19833374  161.87899780    2.07999992    2.71000004
   13.20166683  183.04499817    2.07999992    2.69000006
   13.20472240  163.12899780    2.05999994    2.69000006
   13.20944405  163.12899780    2.03999996    2.71000004
   13.21333313  156.17399597    2.01999998    2.71000004
   13.21666622  164.97000122    2.03999996    2.69000006
   13.21999931  152.26699829    2.01999998    2.71000004
   13.22305489  172.23399353    2.01999998    2.71000004
   13.22638798  173.20399475    2.01999998    2.71000004
   13.22944355  163.58000183    2.01999998    2.71000004
   13.23277760  162.46099854    2.00000000    2.71000004
   13.23611164  154.29200745    2.00000000    2.71000004
   13.23916721  170.78399658    1.98000002    2.69000006
   13.24388885  170.78399658    1.98000002    2.71000004
   13.24805546  156.05700684    2.00000000    2.71000004
   13.25111103  161.26100159    2.00000000    2.71000004
   13.25444412  173.28399658    2.00000000    2.73000002
   13.25749969  158.41700745    2.00000000    2.71000004
   13.26083374  174.51400757    2.00000000    2.71000004
   13.26416683  157.37699890    2.01999998    2.71000004
   13.26722240  168.41999817    2.01999998    2.71000004
   13.27055550  158.62500000    2.01999998    2.71000004
   13.27388859  156.41900635    2.03999996    2.71000004
   13.27833271  156.41900635    2.03999996    2.71000004
   13.28249931  173.17799377    2.03999996    2.71000004
   13.28555584  169.07899475    2.03999996    2.71000004
   13.28888893  162.92599487    2.05999994    2.71000004
   13.29222298  155.83500671    2.05999994    2.71000004
   13.29527855  152.03199768    2.05999994    2.71000004
   13.29861164  177.70899963    2.03999996    2.71000004
   13.30194473  183.54899597    2.01999998    2.71000004
   13.30500031  173.03100586    2.01999998    2.71000004
   13.30833340  170.31500244    2.01999998    2.73000002
   13.31277752  170.31500244    2.01999998    2.73000002
   13.31694412  171.36000061    2.01999998    2.71000004
   13.32027817  141.50500488    2.03999996    2.71000004
   13.32333374  170.58399963    2.03999996    2.73000002
   13.32666683  170.25700378    2.03999996    2.71000004
   13.32999992  176.11199951    2.01999998    2.71000004
   13.33305550  172.42900085    2.03999996    2.71000004
   13.33638859  170.08999634    2.03999996    2.71000004
   13.33944416  175.33599854    2.03999996    2.71000004
   13.34277725  168.46499634    2.03999996    2.71000004
   13.34722233  168.46499634    2.03999996    2.71000004
   13.35138893  170.17900085    2.03999996    2.73000002
   13.35472298  162.24099731    2.03999996    2.71000004
   13.35805607  166.57699585    2.03999996    2.73000002
   13.36111164  162.43800354    2.03999996    2.71000004
   13.36444473  172.32600403    2.03999996    2.71000004
   13.36777782  151.30000305    2.03999996    2.71000004
   13.37083340  160.85499573    2.03999996    2.73000002
   13.37416649  170.89599609    2.03999996    2.73000002
   13.37722206  170.33099365    2.03999996    2.73000002
   13.38194466  170.33099365    2.03999996    2.71000004
   13.38611126  161.67399597    2.03999996    2.73000002
   13.38916683  166.86999512    2.03999996    2.73000002
   13.39249992  190.17700195    2.03999996    2.71000004
   13.39555550  173.83299255    2.05999994    2.73000002
   13.39888859  190.95599365    2.05999994    2.73000002
   13.40222168  171.00199890    2.07999992    2.73000002
   13.40527725  200.61199951    2.05999994    2.71000004
   13.40861034  172.22399902    2.05999994    2.73000002
   13.41194439  186.26600647    2.03999996    2.71000004
   13.41638851  186.26600647    2.05999994    2.73000002
   13.42055607  184.53799438    2.07999992    2.73000002
   13.42361164  196.92700195    2.40000010    2.73000002
   13.42694473  178.57000732    4.90999985    2.71000004
   13.43027782  175.81900024    4.90999985    2.71000004
   13.43333340  178.59399414    4.90999985    2.71000004
   13.43666649  173.60400391    3.82999992    2.73000002
   13.43972206  194.57000732    2.11999989    2.71000004
   13.44305515  182.77099609    2.21000004    2.71000004
   13.44638920  178.42100525    2.44000006    2.61999989
   13.45083332  178.42100525    4.90999985    2.71000004
   13.45499992   -1.00000000    4.90999985    2.00000000
   13.45833302  190.66900635    4.90999985    1.07000005
   13.46138859   -1.00000000    4.90999985    0.79000002
   13.46472168  159.43299866    4.90999985    0.58999997
   13.46777725  206.50999451    4.90999985    2.69000006
   13.47111034  209.48300171    4.90999985    2.76999998
   13.47444439  201.59700012    4.90999985    2.76999998
   13.47749996  185.50599670    4.90999985    2.78999996
   13.48083305  178.65499878    4.90999985    2.69000006
   13.48527813  178.65499878    4.90999985    2.80999994
   13.48944473  183.59199524    4.90999985    2.76999998
   13.49277782  184.81399536    4.90999985    2.75000000
   13.49583340  209.62399292    2.48000002    2.75000000
   13.49916649  194.23500061    2.11999989    2.73000002
   13.50249958  196.17700195    2.11999989    2.71000004
   13.50555515  207.28500366    2.11999989    2.71000004
   13.50888920  181.62800598    2.11999989    2.69000006
   13.51222229  190.37800598    2.11999989    2.73000002
   13.51527786  201.87100220    2.09999990    2.73000002
   13.51999950  201.87100220    2.09999990    2.73000002
   13.52388859  193.80700684    2.07999992    2.73000002
   13.52722168  200.18400574    2.05999994    2.71000004
   13.53055573  203.37500000    2.05999994    2.73000002
   13.53361130  208.76100159    2.03999996    2.71000004
   13.53694534  198.42799377    2.03999996    2.73000002
   13.54027843  206.35299683    2.40000010    2.73000002
   13.54333401  229.12800598    4.90999985    2.73000002
   13.54666710  225.41700745    4.90999985    2.64000010
   13.55000019  219.63900757    4.90999985    2.75000000
   13.55444431  219.63900757    4.38999987    2.73000002
   13.55861092  218.71899414    2.05999994    2.73000002
   13.56166649  214.66299438    2.01999998    2.73000002
   13.56500053  204.77000427    2.01999998    2.73000002
   13.56833363  224.26499939    2.01999998    2.73000002
   13.57138920  191.16900635    2.01999998    2.73000002
   13.57472229  230.82400513    2.01999998    2.75000000
   13.57777786  211.95899963    2.03999996    2.73000002
   13.58111095  213.61799622    2.03999996    2.73000002
   13.58444405  202.00000000    2.05999994    2.73000002
   13.58888817  202.00000000    2.05999994    2.73000002
   13.59305477  191.27499390    2.01999998    2.73000002
   13.59638882  222.07699585    2.01999998    2.73000002
   13.59944439  225.85899353    2.01999998    2.73000002
   13.61888885  250.63499451    2.17000008    2.73000002
   13.62361145  250.63499451    2.09999990    2.75000000
   13.62777805  219.07800293    4.82999992    2.76999998
   13.63111115  221.77699280    4.90999985    2.76999998
   13.63416672  237.08200073    4.90999985    2.80999994
   13.63749981  266.04199219    4.90999985    2.78999996
   13.64055538  225.01600647    4.90999985    2.61999989
   13.64388847  249.88900757    4.90999985    2.80999994
   13.64722252  233.11500549    4.90999985    2.78999996
   13.65027714  235.30299377    4.53000021    2.76999998
   13.65361118  231.40800476    2.00000000    2.75000000
   13.65805531  231.40800476    1.94000006    2.75000000
   13.66222191  202.44999695    1.89999998    2.75000000
   13.66555500  239.23800659    1.89999998    2.75000000
   13.66861153  206.89500427    1.94000006    2.75000000
   13.67194462  234.71899414    2.01999998    2.73000002
   13.67527771  209.52699280    2.01999998    2.75000000
   13.67833328  253.54200745    1.83000004    2.75000000
   13.68166733  231.87699890    1.83000004    2.75000000
   13.68500042  231.48399353    1.83000004    2.75000000
   13.68805599  249.74699402    1.83000004    2.75000000
   13.69277763  249.74699402    1.80999994    2.76999998
   13.69666672  264.08700562    1.80999994    2.75000000
   13.69999981  216.70599365    1.80999994    2.75000000
   13.70333290  245.84599304    1.80999994    2.76999998
   13.70638847  232.97599792    1.78999996    2.76999998
   13.70972157  235.34599304    1.78999996    2.75000000
   13.71305561  266.82998657    1.78999996    2.75000000
   13.71611118  220.62199402    1.78999996    2.78999996
   13.71944427  242.69500732    1.80999994    2.76999998
   13.72249985  255.73699951    1.83000004    2.76999998
   13.72722149  255.73699951    1.83000004    2.75000000
   13.73138809  243.07000732    2.32999992    2.75000000
   13.73444462  248.64300537    2.13000011    2.75000000
   13.73777771  247.84700012    2.17000008    2.78999996
   13.74111176  238.58999634    2.17000008    2.76999998
   13.74416733  252.93499756    1.76999998    2.75000000
   13.74750042  224.19299316    1.75000000    2.76999998
   13.75055599  196.71299744    1.76999998    2.78999996
   13.75388908  253.29699707    1.98000002    2.76999998
   13.75722218  206.07800293    2.53999996    2.78999996
   13.76166630  206.07800293    4.90999985    2.82999992
   13.76583290  212.04400635    4.90999985    2.84999990
   13.76916599  165.00199890    4.90999985    2.82999992
   13.77222157   -1.00000000    4.90999985    2.61999989
   13.77555561  185.31300354    4.90999985    1.69000006
   13.77861118  217.35499573    4.90999985    2.76999998
   13.78194427  229.08799744    4.90999985    2.75000000
   13.78527832  182.01199341    3.09999990    2.26999998
   13.78833389  238.75900269    2.53999996    2.66000009
   13.79166698  202.09199524    1.88000000    2.76999998
   13.79611111  202.09199524    1.76999998    2.76999998
   13.80027771  246.01300049    1.75000000    2.78999996
   13.80361176  210.93099976    1.76999998    2.78999996
   13.80666733  235.54400635    1.78999996    2.78999996
   13.81000042  220.59800720    1.96000004    2.78999996
   13.81333351  247.60800171    3.20000005    2.80999994
   13.81638908  239.89799500    2.57999992    2.78999996
   13.81972218  216.70399475    1.78999996    2.80999994
   13.82277775  258.55398560    2.01999998    2.80999994
   13.82611084  214.53500366    4.90999985    2.82999992
   13.83055592  214.53500366    4.90999985    2.82999992
   13.83472157  230.47399902    4.90999985    2.84999990
   13.83805561  215.10499573    4.90999985    2.86999989
   13.84138870  201.90400696    4.90999985    2.86999989
   13.84444427  131.49400330    4.90999985    2.93000007
   13.84777737   82.95480347    4.90999985    2.48000002
   13.85083389  112.68699646    4.90999985    1.88000000
   13.85416698  212.95300293    4.90999985    2.75000000
   13.85750008  198.45500183    4.90999985    2.84999990
   13.86055565  190.20799255    3.64000010    2.80999994
   13.86527824  190.20799255    1.73000002    2.78999996
   13.86944485  192.97999573    1.73000002    2.76999998
   13.87250042  180.45899963    1.73000002    2.78999996
   13.87583351  186.54100037    1.75000000    2.76999998
   13.87888908  179.13999939    1.76999998    2.76999998
   13.88222218  174.77600098    1.75000000    2.76999998
   13.88555527  188.21400452    1.75000000    2.76999998
   13.88861084  177.57200623    1.75000000    2.76999998
   13.89194393  188.50799561    1.75000000    2.76999998
   13.89527798  168.39300537    1.75000000    2.76999998
   13.89972210  168.39300537    1.73000002    2.76999998
   13.90388870  194.36199951    1.73000002    2.78999996
   13.90694427  190.68499756    1.71000004    2.78999996
   13.91027737  193.85800171    1.71000004    2.78999996
   13.91361046  180.01300049    1.69000006    2.76999998
   13.91666698  173.83399963    1.66999996    2.78999996
   13.92000008  191.74000549    1.64999998    2.78999996
   13.92333412  189.56599426    1.64999998    2.78999996
   13.92638874  176.56700134    1.60000002    2.78999996
   13.92972279  194.49400330    1.60000002    2.78999996
   13.93416691  194.49400330    1.58000004    2.78999996
   13.93833351  198.56100464    1.58000004    2.78999996
   13.94166660  157.99000549    1.58000004    2.80999994
   13.94472218  167.63200378    1.58000004    2.78999996
   13.94805527  177.51100159    1.58000004    2.78999996
   13.95138836  177.22300720    1.58000004    2.78999996
   13.95444393  186.78900146    1.60000002    2.78999996
   13.95777798  172.98399353    1.58000004    2.78999996
   13.96083355  173.08500671    1.58000004    2.78999996
   13.96416664  171.07800293    1.58000004    2.78999996
   13.96861076  171.07800293    1.58000004    2.80999994
   13.97277737  164.29899597    1.60000002    2.78999996
   13.97611046  157.74400330    1.55999994    2.78999996
   13.97944355  177.87699890    1.55999994    2.80999994
   13.98249912  176.46200562    1.55999994    2.80999994
   13.98583317  171.27099609    1.58000004    2.78999996
   13.98916721  144.85200500    1.55999994    2.80999994
   13.99222279  168.16600037    1.55999994    2.78999996
   13.99555588  174.50900269    1.55999994    2.80999994
   13.99861145  181.23199463    1.55999994    2.80999994
   14.00333309  181.23199463    1.53999996    2.80999994
   14.00722218  165.95599365    1.53999996    2.80999994
   14.01055527  185.55999756    1.53999996    2.80999994
   14.01388931  180.58099365    1.53999996    2.78999996
   14.01694393  181.64599609    1.53999996    2.78999996
   14.02027798  197.39799500    1.53999996    2.78999996
   14.02361107  156.23100281    1.53999996    2.80999994
   14.02666664  180.85099792    1.53999996    2.80999994
   14.02999973  177.59100342    1.53999996    2.80999994
   14.03333378  161.37300110    1.53999996    2.80999994
   14.03777790  161.37300110    1.58000004    2.78999996
   14.04194450  169.74699402    1.58000004    2.78999996
   14.04527855  195.27200317    1.58000004    2.78999996
   14.04861164  178.50000000    1.60000002    2.78999996
   14.05166721  185.13400269    1.60000002    2.80999994
   14.05500031  174.74600220    1.60000002    2.80999994
   14.05833340  151.85600281    1.60000002    2.80999994
   14.06138897  162.75999451    1.61000001    2.80999994
   14.06472206  159.41299438    1.61000001    2.80999994
   14.06777763  165.17799377    1.60000002    2.78999996
   14.07222176  165.17799377    1.60000002    2.80999994
   14.07638836  164.16999817    1.58000004    2.80999994
   14.07972240  167.83500671    1.58000004    2.82999992
   14.08277798  176.09800720    1.55999994    2.80999994
   14.08611107  157.64500427    1.58000004    2.78999996
   14.08944416  147.82200623    1.58000004    2.80999994
   14.09249973  172.44700623    1.58000004    2.80999994
   14.09583282  164.04600525    1.60000002    2.80999994
   14.09888840  154.56700134    1.60000002    2.78999996
   14.10222244  164.67900085    1.60000002    2.80999994
   14.10666752  164.67900085    1.61000001    2.78999996
   14.11083412  157.99200439    1.63000000    2.80999994
   14.11416721  157.99600220    1.61000001    2.80999994
   14.11722279  150.71200562    1.63000000    2.78999996
   14.12055588  169.33700562    1.63000000    2.80999994
   14.12388897  162.68800354    1.63000000    2.78999996
   14.12694454  167.20599365    1.63000000    2.78999996
   14.13027763  155.01800537    1.61000001    2.78999996
   14.13361073  161.36199951    1.61000001    2.78999996
   14.13666630  165.92799377    1.61000001    2.78999996
   14.14138889  165.92799377    1.61000001    2.80999994
   14.14527798  179.77600098    1.60000002    2.80999994
   14.14861107  188.61900330    1.60000002    2.78999996
   14.15194416  173.85600281    1.61000001    2.80999994
   14.15499973  161.16700745    1.63000000    2.80999994
   14.15833282  189.24299622    1.63000000    2.80999994
   14.16166592  177.33599854    1.63000000    2.80999994
   14.16472149  172.26800537    1.63000000    2.78999996
   14.16805553  161.43899536    1.64999998    2.80999994
   14.17111111  169.10499573    1.64999998    2.78999996
   14.17583370  169.10499573    1.64999998    2.80999994
   14.18000031  165.02999878    1.63000000    2.80999994
   14.18305588  157.15899658    1.61000001    2.80999994
   14.18638897  155.68899536    1.61000001    2.80999994
   14.18972206  158.95700073    1.60000002    2.78999996
   14.19277763  163.17500305    1.61000001    2.80999994
   14.19611073  159.74000549    1.60000002    2.82999992
   14.19916630  154.14700317    1.60000002    2.80999994
   14.20249939  163.32099915    1.60000002    2.80999994
   14.20583344  146.30299377    1.58000004    2.80999994
   14.21027756  146.30299377    1.60000002    2.80999994
   14.21444416  164.63699341    1.58000004    2.80999994
   14.21749973  171.55900574    1.55999994    2.80999994
   14.22083282  170.20799255    1.55999994    2.82999992
   14.22416592  174.34300232    1.55999994    2.82999992
   14.22722149  176.40400696    1.53999996    2.82999992
   14.23055553  154.48100281    1.51999998    2.82999992
   14.23388958  159.31599426    1.51999998    2.82999992
   14.23694515  163.15899658    1.50000000    2.80999994
   14.24027824  169.91299438    1.48000002    2.80999994
   14.24472237  169.91299438    1.48000002    2.80999994
   14.24888897  178.88299561    1.48000002    2.82999992
   14.25222206  191.78700256    1.48000002    2.82999992
   14.25527763  164.31100464    1.48000002    2.80999994
   14.25861073  162.73100281    1.48000002    2.82999992
   14.26194477  163.79100037    1.46000004    2.82999992
   14.26500034  153.02600098    1.48000002    2.80999994
   14.26833344  159.22399902    1.46000004    2.82999992
   14.27138901  154.48100281    1.46000004    2.82999992
   14.27472210  175.82400513    1.46000004    2.82999992
   14.27916622  175.82400513    1.46000004    2.80999994
   14.28333378  152.25599670    1.44000006    2.82999992
   14.28666687  163.94299316    1.44000006    2.82999992
   14.29000092  161.91099548    1.48000002    2.82999992
   14.29305553  169.17399597    1.48000002    2.82999992
   14.29638958  162.80700684    1.50000000    2.82999992
   14.29972267  147.67399597    1.50000000    2.82999992
   14.30305576  190.89300537    1.51999998    2.80999994
   14.30611134  166.51100159    1.51999998    2.80999994
   14.30944443  187.55999756    1.51999998    2.80999994
   14.31388950  187.55999756    1.51999998    2.80999994
   14.31805515  180.07499695    1.50000000    2.80999994
   14.32111073  186.73199463    1.50000000    2.80999994
   14.32444477  171.96699524    1.48000002    2.82999992
   14.32750034  187.21200562    1.48000002    2.82999992
   14.33083344  191.21600342    1.50000000    2.82999992
   14.33416653  194.21699524    1.51999998    2.82999992
   14.33722210  172.52699280    1.51999998    2.80999994
   14.34055519  184.13099670    1.51999998    2.82999992
   14.34388828  183.33999634    1.51999998    2.80999994
   14.34861088  183.33999634    1.50000000    2.82999992
   14.35249996  171.57099915    1.51999998    2.80999994
   14.35583401  162.31700134    1.50000000    2.82999992
   14.35916710  174.23899841    1.48000002    2.82999992
   14.36222267  166.85299683    1.48000002    2.82999992
   14.36555576  171.91799927    1.48000002    2.82999992
   14.36888885  169.03999329    1.48000002    2.82999992
   14.37194443  161.94799805    1.48000002    2.82999992
   14.37527752  177.31599426    1.50000000    2.82999992
   14.37833309  146.10600281    1.50000000    2.82999992
   14.38277817  146.10600281    1.50000000    2.82999992
   14.38694477  179.13400269    1.50000000    2.82999992
   14.39027786  144.97599792    1.50000000    2.82999992
   14.39333344  182.19500732    1.50000000    2.82999992
   14.39666653  182.11599731    1.48000002    2.82999992
   14.39999962  167.21899414    1.48000002    2.82999992
   14.40305519  159.78999329    1.48000002    2.82999992
   14.40638828  162.40699768    1.48000002    2.80999994
   14.40972137  188.31700134    1.48000002    2.80999994
   14.41277695  171.03700256    1.48000002    2.82999992
   14.41722298  171.03700256    1.50000000    2.82999992
   14.42138958  185.75500488    1.48000002    2.80999994
   14.42472267  177.33200073    1.48000002    2.82999992
   14.42777824  226.83999634    1.48000002    2.82999992
   14.43111134  194.95700073    1.48000002    2.80999994
   14.43444443  178.80099487    1.48000002    2.80999994
   14.43750000  194.61399841    1.48000002    2.82999992
   14.44083309  165.35699463    1.46000004    2.82999992
   14.44416714  188.80200195    1.46000004    2.82999992
   14.44722271  182.52699280    1.46000004    2.82999992
   14.45194435  182.52699280    1.46000004    2.82999992
   14.45583344  189.82699585    1.51999998    2.82999992
   14.45916653  182.20599365    1.53999996    2.82999992
   14.46249962  187.60699463    1.55999994    2.80999994
   14.46555519  176.24299622    1.55999994    2.82999992
   14.46888828  174.00900269    1.53999996    2.82999992
   14.47222137  185.89100647    1.53999996    2.82999992
   14.47527695  173.70199585    1.53999996    2.82999992
   14.47861099  178.88600159    1.53999996    2.82999992
   14.48166656  180.05299377    1.53999996    2.82999992
   14.48638916  180.05299377    1.55999994    2.82999992
   14.49055576  198.99200439    2.15000010    2.82999992
   14.49361134  190.36999512    2.05999994    2.82999992
   14.49694443  194.14999390    2.05999994    2.82999992
   14.50027752  190.08900452    1.98000002    2.82999992
   14.50333309  211.96499634    1.96000004    2.84999990
   14.50666714  194.47399902    4.90999985    2.93000007
   14.50972176  256.01699829    4.90999985    2.86999989
   14.51305580  259.55999756    4.90999985    2.64000010
   14.51638889  362.45599365    4.90999985    2.48000002
   14.51833344  128.69400024    4.90999985    2.13000011
   14.51833344  190.36999512    2.05999994    2.82999992
   14.51861095  194.14999390    2.05999994    2.82999992
   14.51861095  190.08900452    1.98000002    2.82999992
   14.51861095  211.96499634    1.96000004    2.84999990
   14.51888847  194.47399902    4.90999985    2.93000007
   14.51888847  256.01699829    4.90999985    2.86999989
   14.51888847  259.55999756    4.90999985    2.64000010
   14.51916599  362.45599365    4.90999985    2.48000002
   14.51916599  198.99200439    2.15000010    2.82999992
   14.52111053  132.36900330    4.90999985    1.58000004
   14.52444458  143.49600220    4.90999985    2.78999996
   14.52750015  187.58500671    4.90999985    2.80999994
   14.53083324  180.63200378    4.90999985    2.69000006
   14.53388977  204.53700256    4.90999985    2.42000008
   14.53916740  204.53700256    2.21000004    2.82999992
   14.54333401  210.90299988    1.78999996    2.82999992
   14.54638958  214.29899597    1.66999996    2.82999992
   14.54972267  211.82000732    1.51999998    2.82999992
   14.55222225  214.63900757    1.50000000    2.82999992
   14.55361176  212.81500244    1.48000002    2.82999992
   14.55666733  214.87500000    1.48000002    2.82999992
   14.56000042  208.75300598    1.46000004    2.82999992
   14.56305599  202.33000183    1.46000004    2.82999992
   14.56638908  192.94999695    1.44000006    2.82999992
   14.56972218  201.65600586    1.44000006    2.82999992
   14.57388878  201.65600586    1.44000006    2.84999990
   14.57805538  183.62899780    1.41999996    2.84999990
   14.58111095  219.85000610    1.41999996    2.84999990
   14.58444405  203.39199829    1.41999996    2.82999992
   14.58555508  196.05700684    1.41999996    2.82999992
   14.58805561  192.05200195    1.41999996    2.82999992
   14.59138870  198.93899536    1.39999998    2.82999992
   14.59444427  186.86900330    1.39999998    2.82999992
   14.59777737  206.16499329    1.39999998    2.84999990
   14.60083389  188.44099426    1.38000000    2.84999990
   14.60416698  195.03999329    1.38000000    2.84999990
   14.60833359  195.03999329    1.39999998    2.84999990
   14.61250019  189.40299988    1.39999998    2.84999990
   14.61555576  204.83700562    1.39999998    2.84999990
   14.61888885  188.15400696    1.39999998    2.84999990
   14.61944485  190.01100159    1.39999998    2.84999990
   14.63916683  193.79600525    1.46000004    2.84999990
   14.64333344  193.79600525    1.46000004    2.84999990
   14.64722252  165.56599426    1.46000004    2.84999990
   14.65055561  166.88800049    1.44000006    2.84999990
   14.65222168  162.81500244    1.44000006    2.84999990
   14.65416622  154.19099426    1.44000006    2.84999990
   14.65722179  164.54299927    1.41999996    2.84999990
   14.66055489  169.36099243    1.44000006    2.84999990
   14.66388893  164.71000671    1.44000006    2.84999990
   14.66694450  171.22700500    1.44000006    2.84999990
   14.67027855  158.04100037    1.44000006    2.84999990
   14.67333412  150.26600647    1.46000004    2.84999990
   14.67777824  150.26600647    1.44000006    2.84999990
   14.68194485  184.99899292    1.41999996    2.84999990
   14.68500042  164.65499878    1.44000006    2.84999990
   14.68555546  171.13200378    1.44000006    2.86999989
   14.68861103  186.60699463    1.46000004    2.84999990
   14.69166660  176.98699951    1.44000006    2.84999990
   14.69499969  162.07800293    1.44000006    2.82999992
   14.69833374  161.69799805    1.44000006    2.82999992
   14.70138836  189.49099731    1.44000006    2.84999990
   14.70472240  160.39199829    1.46000004    2.84999990
   14.71222210  160.39199829    1.46000004    2.84999990
   14.71638870  157.29200745    1.46000004    2.84999990
   14.71888828  167.59500122    1.48000002    2.82999992
   14.71999931  159.97300720    1.48000002    2.82999992
   14.72305489  142.64900208    1.50000000    2.82999992
   14.72638798  154.54600525    1.50000000    2.82999992
   14.72972202  159.15100098    1.50000000    2.82999992
   14.73277760  176.66499329    1.50000000    2.82999992
   14.73611164  169.93600464    1.50000000    2.84999990
   14.73944473  165.86999512    1.50000000    2.82999992
   14.74250031  173.70700073    1.51999998    2.82999992
   14.74722290  173.70700073    1.51999998    2.82999992
   14.75111103  171.69099426    1.50000000    2.82999992
   14.75222206  163.18600464    1.48000002    2.84999990
   14.75500011  172.41999817    1.48000002    2.84999990
   14.75833321  157.97599792    1.46000004    2.84999990
   14.76138878  165.51699829    1.46000004    2.82999992
   14.76472187  174.36500549    1.46000004    2.82999992
   14.76777744  167.40100098    1.44000006    2.84999990
   14.77111053  170.83099365    1.41999996    2.84999990
   14.77444458  160.32800293    1.41999996    2.84999990
   14.77750015  151.58599854    1.39999998    2.84999990
   14.78166676  151.58599854    1.39999998    2.86999989
   14.78583336  157.70500183    1.39999998    2.84999990
   14.78916740  161.41999817    1.39999998    2.84999990
   14.79250050  164.17500305    1.39999998    2.84999990
   14.79555607  166.47599792    1.39999998    2.84999990
   14.79888916  170.00000000    1.39999998    2.84999990
   14.80194473  152.69999695    1.39999998    2.84999990
   14.80527782  163.39700317    1.39999998    2.84999990
   14.80861092  167.28199768    1.39999998    2.84999990
   14.81166649  144.86199951    1.41999996    2.84999990
   14.81638908  144.86199951    1.41999996    2.84999990
   14.82027817  164.07600403    1.41999996    2.86999989
   14.82361126  154.75999451    1.44000006    2.86999989
   14.82694435  134.58700562    1.44000006    2.86999989
   14.82999992  165.93099976    1.44000006    2.84999990
   14.83333302  158.32099915    1.46000004    2.86999989
   14.83666611  185.63499451    1.48000002    2.84999990
   14.83972168  171.88400269    1.48000002    2.84999990
   14.84305477  166.83299255    1.48000002    2.84999990
   14.84611034  160.62300110    1.48000002    2.84999990
   14.85083389  160.62300110    1.46000004    2.84999990
   14.85500050  156.89300537    1.46000004    2.84999990
   14.85805607  169.50000000    1.44000006    2.86999989
   14.86138916  162.10499573    1.44000006    2.86999989
   14.86472225  173.54699707    1.44000006    2.84999990
   14.86777782  165.20799255    1.41999996    2.84999990
   14.87111092  147.37300110    1.41999996    2.86999989
   14.87416649  177.33900452    1.41999996    2.86999989
   14.87750053  174.59599304    1.41999996    2.84999990
   14.88083363  154.33500671    1.41999996    2.84999990
   14.88527775  154.33500671    1.44000006    2.84999990
   14.88944435  173.57899475    1.44000006    2.84999990
   14.89277744  159.58999634    1.46000004    2.84999990
   14.89583302  181.18400574    1.46000004    2.86999989
   14.89916611  156.79200745    1.44000006    2.86999989
   14.90222168  201.42500305    1.46000004    2.84999990
   14.90555477  183.09500122    1.44000006    2.84999990
   14.90888882  202.86799622    1.44000006    2.84999990
   14.91194439  179.72900391    1.44000006    2.84999990
   14.91527748  188.77499390    1.44000006    2.86999989
   14.91972256  188.77499390    1.41999996    2.84999990
   14.92388916  193.15299988    1.41999996    2.84999990
   14.92722225  203.86300659    1.39999998    2.84999990
   14.93027782  210.88900757    1.39999998    2.84999990
   14.93361092  188.21299744    1.39999998    2.86999989
   14.93694496  189.74600220    1.39999998    2.86999989
   14.94000053  214.42300415    1.39999998    2.84999990
   14.94333363  200.73300171    1.39999998    2.84999990
   14.94666672  200.69999695    1.39999998    2.86999989
   14.94972229  194.38699341    1.39999998    2.84999990
   14.95416641  194.38699341    1.39999998    2.84999990
   14.95833302  211.25100708    1.39999998    2.84999990
   14.96166611  204.87800598    1.39999998    2.84999990
   14.96500015  198.85200500    1.39999998    2.86999989
   14.96833324  204.33599854    1.41999996    2.86999989
   14.97138882  188.81700134    1.41999996    2.86999989
   14.97472191  180.59500122    1.41999996    2.86999989
   14.97805500  187.36300659    1.39999998    2.84999990
   14.98111057  215.60899353    1.38000000    2.84999990
   14.98444462  204.46000671    1.38000000    2.84999990
   14.98888874  204.46000671    1.38000000    2.84999990
   14.99305534  210.93099976    1.38000000    2.86999989
   14.99611092  206.92799377    1.36000001    2.86999989
   14.99944496  172.55799866    1.36000001    2.86999989
   15.10500050   -1.00000000   -1.00000000   -1.00000000
   15.20222187   -1.00000000   -1.00000000   -1.00000000
   15.30749989   -1.00000000   -1.00000000   -1.00000000
   15.33472157  196.58700562    1.16999996    2.89000010
   15.33777714  205.90699768    1.16999996    2.89000010
   15.34111118  211.24400330    1.14999998    2.89000010
   15.34444427  186.86300659    1.14999998    2.89000010
   15.34749985  222.09100342    1.16999996    2.89000010
   15.35083389  222.40600586    1.16999996    2.86999989
   15.35500050  222.40600586    1.21000004    2.89000010
   15.35916710  217.45500183    1.26999998    2.89000010
   15.36222267  215.04400635    1.26999998    2.89000010
   15.36555576  193.35800171    1.26999998    2.89000010
   15.36805534  214.78999329    1.28999996    2.86999989
   15.36916637  211.47300720    1.33000004    2.86999989
   15.37250042  203.73699951    1.33000004    2.89000010
   15.37583351  219.11500549    1.33000004    2.86999989
   15.37888908  207.42700195    1.30999994    2.86999989
   15.38222218  220.03199768    1.30999994    2.89000010
   15.38555527  208.08500671    1.33000004    2.86999989
   15.38944435  208.08500671    1.36000001    2.89000010
   15.39361095  215.77999878    1.34000003    2.89000010
   15.39694405  192.90299988    1.34000003    2.86999989
   15.40027714  206.46400452    1.28999996    2.89000010
   15.40138817  210.11799622    1.28999996    2.86999989
   15.40388870  221.55000305    1.28999996    2.86999989
   15.40694427  232.59500122    1.30999994    2.89000010
   15.41027737  246.89399719    1.30999994    2.89000010
   15.41333294  221.31799316    1.30999994    2.86999989
   15.41666698  223.19700623    1.30999994    2.89000010
   15.42000008  227.99299622    1.30999994    2.86999989
   15.42416668  227.99299622    1.30999994    2.86999989
   15.42833328  227.08799744    1.26999998    2.89000010
   15.43138885  215.79600525    1.25000000    2.89000010
   15.43472195  180.09500122    1.26999998    2.89000010
   15.43527794  224.10400391    1.26999998    2.89000010
   15.43833351  236.67999268    1.26999998    2.89000010
   15.44166660  221.56100464    1.25000000    2.89000010
   15.44472218  219.18099976    1.26999998    2.86999989
   15.44805527  223.68299866    1.26999998    2.86999989
   15.45138836  209.53300476    1.26999998    2.86999989
   15.45444393  239.07200623    1.26999998    2.89000010
   15.45861053  239.07200623    1.26999998    2.89000010
   15.46277714  232.76699829    1.25000000    2.89000010
   15.46611118  237.11099243    1.23000002    2.91000009
   15.46805477  240.85800171    1.23000002    2.89000010
   15.46972179  220.44099426    1.23000002    2.89000010
   15.47277737  218.63299561    1.23000002    2.89000010
   15.47611046  241.38800049    1.23000002    2.89000010
   15.47944355  225.48500061    1.23000002    2.89000010
   15.48249912  234.50300598    1.23000002    2.89000010
   15.48583317  201.00900269    1.23000002    2.89000010
   15.48888874  216.61799622    1.23000002    2.89000010
   15.49305534  216.61799622    1.23000002    2.89000010
   15.49722290  231.42700195    1.23000002    2.89000010
   15.50055599  228.39599609    1.25000000    2.89000010
   15.50138855  236.99600220    1.25000000    2.89000010
   15.50444412  219.64799500    1.25000000    2.89000010
   15.50777817  248.43600464    1.25000000    2.86999989
   15.51111126  232.10200500    1.28999996    2.86999989
   15.51416683  234.06799316    1.26999998    2.86999989
   15.51749992  226.17599487    1.26999998    2.89000010
   15.52055550  234.06199646    1.25000000    2.89000010
   15.52388859  221.72200012    1.25000000    2.89000010
   15.52805519  221.72200012    1.21000004    2.89000010
   15.53222179  240.54100037    1.21000004    2.89000010
   15.53472233  239.33599854    1.19000006    2.89000010
   15.53583336  234.30000305    1.16999996    2.89000010
   15.53888893  223.16299438    1.14999998    2.89000010
   15.54222298  242.11399841    1.14999998    2.89000010
   15.54555607  238.27600098    1.13000000    2.89000010
   15.54861164  260.09600830    1.11000001    2.91000009
   15.55194473  212.52799988    1.11000001    2.91000009
   15.55500031  257.62500000    1.09000003    2.89000010
   15.55833340  238.92199707    1.09000003    2.91000009
   15.56250000  238.92199707    1.07000005    2.89000010
   15.56666660  230.36300659    1.07000005    2.89000010
   15.56805515  204.60899353    1.07000005    2.89000010
   15.57027817  208.45300293    1.11000001    2.89000010
   15.57333374  214.42100525    1.11000001    2.89000010
   15.57666683  191.86999512    1.21000004    2.91000009
   15.57999992  202.76100159    1.21000004    2.86999989
   15.58305550  211.19500732    1.28999996    2.86999989
   15.58638859  212.27099609    1.28999996    2.89000010
   15.58944416  239.36300659    1.34000003    2.89000010
   15.59277725  216.55099487    1.34000003    2.86999989
   15.59694386  216.55099487    1.34000003    2.86999989
   15.60111141  225.72700500    1.30999994    2.86999989
   15.60166740  225.21800232    1.30999994    2.86999989
   15.60500050  198.83900452    1.30999994    2.89000010
   15.60833359  236.00100708    1.28999996    2.89000010
   15.61138916  223.37100220    1.28999996    2.89000010
   15.61472225  218.72399902    1.25000000    2.89000010
   15.61777782  218.55799866    1.25000000    2.91000009
   15.62111092  225.52200317    1.23000002    2.89000010
   15.62444496  230.51800537    1.25000000    2.89000010
   15.62750053  210.52499390    1.25000000    2.89000010
   15.63166714  210.52499390    1.28999996    2.89000010
   15.63583279  194.38400269    1.28999996    2.89000010
   15.63916683  215.67700195    1.30999994    2.89000010
   15.64222240  208.28900146    1.28999996    2.89000010
   15.64555550  220.75399780    1.30999994    2.89000010
   15.64888859  229.58299255    1.30999994    2.89000010
   15.65194416  230.63099670    1.30999994    2.86999989
   15.65527725  208.97799683    1.30999994    2.91000009
   15.65833282  215.77999878    1.30999994    2.89000010
   15.66166592  207.18499756    1.30999994    2.89000010
   15.66611099  207.18499756    1.34000003    2.89000010
   15.67055607  203.50399780    1.34000003    2.89000010
   15.67388916  220.75900269    1.34000003    2.89000010
   15.67722225  216.25399780    1.33000004    2.89000010
   15.68027782  214.38099670    1.28999996    2.89000010
   15.68361092  208.35000610    1.26999998    2.91000009
   15.68666649  225.49899292    1.25000000    2.89000010
   15.69000053  208.73500061    1.21000004    2.91000009
   15.69333363  220.72999573    1.21000004    2.91000009
   15.69638920  216.38000488    1.19000006    2.91000009
   15.70083332  216.38000488    1.19000006    2.91000009
   15.70499992  230.45399475    1.19000006    2.91000009
   15.70805550  210.98100281    1.14999998    2.91000009
   15.71138859  210.11399841    1.14999998    2.91000009
   15.71472168  221.46299744    1.14999998    2.91000009
   15.71777725  226.19900513    1.14999998    2.89000010
   15.72111034  221.32000732    1.14999998    2.89000010
   15.72416592  227.35400391    1.19000006    2.91000009
   15.72749996  220.53199768    1.19000006    2.91000009
   15.73083305  219.67700195    1.19000006    2.91000009
   15.73527813  219.67700195    1.23000002    2.89000010
   15.73944473  229.47500610    1.23000002    2.89000010
   15.74250031  206.99899292    1.21000004    2.89000010
   15.74583340  239.82699585    1.21000004    2.89000010
   15.74916649  224.73699951    1.21000004    2.89000010
   15.75222206  232.98800659    1.23000002    2.89000010
   15.75555515  216.51199341    1.23000002    2.89000010
   15.75888920  226.95599365    1.21000004    2.89000010
   15.76194477  226.63800049    1.19000006    2.89000010
   15.76527786  230.72799683    1.16999996    2.91000009
   15.76972198  230.72799683    1.19000006    2.91000009
   15.77388859  233.94900513    1.19000006    2.89000010
   15.77722168  243.83599854    1.19000006    2.89000010
   15.78027725  248.00300598    1.19000006    2.89000010
   15.78361130  234.37600708    1.19000006    2.89000010
   15.78666687  216.09599304    1.16999996    2.89000010
   15.79000092  238.73500061    1.16999996    2.89000010
   15.79333401  229.47700500    1.14999998    2.89000010
   15.79638958  219.50000000    1.14999998    2.89000010
   15.79972267  231.44900513    1.14999998    2.91000009
   15.80416679  231.44900513    1.13000000    2.91000009
   15.80833340  219.29699707    1.11000001    2.89000010
   15.81166649  222.65899658    1.07000005    2.91000009
   15.81472206  220.05000305    1.07000005    2.91000009
   15.81805515  216.23100281    1.03999996    2.91000009
   15.82138920  210.44400024    1.03999996    2.91000009
   15.82444477  207.56900024    1.01999998    2.91000009
   15.82777786  227.16499329    1.01999998    2.91000009
   15.83111095  225.87699890    1.00000000    2.93000007
   15.83416653  209.10000610    1.00000000    2.91000009
   15.83888817  209.10000610    1.03999996    2.91000009
   15.84277725  218.69200134    1.03999996    2.91000009
   15.84611034  224.70700073    1.03999996    2.91000009
   15.84944439  224.48100281    1.03999996    2.91000009
   15.85249996  223.17599487    1.03999996    2.91000009
   15.85583401  208.41999817    1.03999996    2.91000009
   15.85916710  206.04400635    1.05999994    2.89000010
   15.86222267  205.26100159    1.05999994    2.89000010
   15.86555576  211.00300598    1.05999994    2.91000009
   15.86861134  205.14799500    1.05999994    2.89000010
   15.87333393  205.14799500    1.05999994    2.91000009
   15.87750053  211.01400757    1.05999994    2.91000009
   15.88055611  211.86099243    1.07000005    2.91000009
   15.88388920  212.77200317    1.07000005    2.91000009
   15.88722229  206.61900330    1.09000003    2.91000009
   15.89027786  217.56199646    1.11000001    2.91000009
   15.89361095  203.60299683    1.09000003    2.91000009
   15.89666653  195.76300049    1.11000001    2.91000009
   15.89999962  197.12699890    1.11000001    2.91000009
   15.90333271  199.18200684    1.09000003    2.91000009
   15.90777779  199.18200684    1.07000005    2.91000009
   15.91194439  196.09500122    1.05999994    2.91000009
   15.91527748  207.50799561    1.03999996    2.91000009
   15.91833401  195.27000427    1.03999996    2.91000009
   15.92166710  201.78500366    1.01999998    2.91000009
   15.92472267  205.92599487    1.03999996    2.91000009
   15.92805576  200.77499390    1.03999996    2.91000009
   15.93138885  205.60499573    1.03999996    2.93000007
   15.93444443  204.74299622    1.03999996    2.91000009
   15.93777752  199.13999939    1.01999998    2.91000009
   15.94222260  199.13999939    1.03999996    2.91000009
   15.94638920  196.43099976    1.05999994    2.91000009
   15.94972229  195.89199829    1.03999996    2.91000009
   15.95277786  194.49400330    1.05999994    2.91000009
   15.95611095  217.54100037    1.05999994    2.91000009
   15.95944405  212.27699280    1.05999994    2.91000009
   15.96249962  193.94999695    1.05999994    2.91000009
   15.96583271  223.08399963    1.05999994    2.91000009
   15.96888828  201.49600220    1.07000005    2.91000009
   15.97222137  216.74699402    1.07000005    2.91000009
   15.97666645  216.74699402    1.05999994    2.91000009
   15.98083305  220.06799316    1.05999994    2.93000007
   15.98416710  200.98199463    1.03999996    2.91000009
   15.98750019  206.24800110    1.05999994    2.91000009
   15.99055576  201.33000183    1.05999994    2.91000009
   15.99388885  209.56900024    1.05999994    2.91000009
   15.99694443  213.05099487    1.03999996    2.91000009
   16.00027847  215.33000183    1.03999996    2.91000009
   16.00361061  219.60400391    1.03999996    2.91000009
   16.00666618  204.62500000    1.03999996    2.91000009
   16.01138878  204.62500000    1.01999998    2.91000009
   16.01555634  215.81300354    0.98000002    2.91000009
   16.01861000  201.27799988    1.00000000    2.91000009
   16.02194405  203.79800415    0.98000002    2.91000009
   16.02499962  233.03799438    0.95999998    2.91000009
   16.02833366  218.38400269    0.95999998    2.91000009
   16.03166580  218.26800537    0.95999998    2.93000007
   16.03472137  216.55599976    0.95999998    2.91000009
   16.03805542  213.38600159    0.95999998    2.91000009
   16.04138756  215.99499512    0.95999998    2.91000009
   16.04583359  215.99499512    0.95999998    2.93000007
   16.04999924  213.70700073    0.95999998    2.91000009
   16.05305481  230.92300415    0.95999998    2.91000009
   16.05638885  218.97900391    0.95999998    2.91000009
   16.05972099  233.48899841    0.98000002    2.93000007
   16.06277657  234.47300720    0.95999998    2.91000009
   16.06611061  226.74299622    0.95999998    2.93000007
   16.06944466  197.05799866    0.95999998    2.91000009
   16.07250023  254.78799438    0.95999998    2.93000007
   16.07583427  216.05999756    0.95999998    2.93000007
   16.08027840  216.05999756    0.95999998    2.91000009
   16.08444595  211.81199646    0.95999998    2.93000007
   16.08777809  211.47200012    0.94000000    2.93000007
   16.09083366  210.28100586    0.94000000    2.91000009
   16.09416771  245.08999634    0.94000000    2.93000007
   16.09749985  209.68899536    0.92000002    2.93000007
   16.10055542  214.30400085    0.89999998    2.93000007
   16.10388947  231.91600037    0.89999998    2.93000007
   16.10722351  222.89500427    0.89999998    2.93000007
   16.11027908  216.47000122    0.89999998    2.93000007
   16.11472321  216.47000122    0.89999998    2.93000007
   16.11888885  215.49299622    0.94000000    2.93000007
   16.12222290  249.81199646    0.94000000    2.91000009
   16.12555504  228.75100708    0.95999998    2.93000007
   16.12861061  214.02900696    0.95999998    2.91000009
   16.13194466  209.04899597    0.98000002    2.93000007
   16.13500023  194.25900269    0.98000002    2.91000009
   16.13833237  227.99800110    0.98000002    2.91000009
   16.14166641  234.60800171    0.95999998    2.91000009
   16.14472198  218.99699402    0.94000000    2.93000007
   16.14944458  218.99699402    0.94000000    2.93000007
   16.15333366  217.13600159    0.94000000    2.93000007
   16.15666580  215.28199768    0.95999998    2.93000007
   16.15999985  222.46000671    0.94000000    2.93000007
   16.16305542  235.58500671    0.95999998    2.93000007
   16.16638756  231.99800110    0.98000002    2.91000009
   16.16972160  211.68600464    0.98000002    2.93000007
   16.17277718  213.46800232    0.98000002    2.93000007
   16.17611122  211.69299316    1.00000000    2.93000007
   16.17944336  228.92999268    1.01999998    2.91000009
   16.18388748  228.92999268    1.03999996    2.93000007
   16.18805504  214.63600159    1.07000005    2.93000007
   16.19111061  188.85099792    1.09000003    2.93000007
   16.19444275  208.14100647    1.09000003    2.93000007
   16.19777679  227.74000549    1.09000003    2.93000007
   16.20083427  213.71400452    1.07000005    2.91000009
   16.20416832  222.56199646    1.05999994    2.93000007
   16.20722389  217.23699951    1.03999996    2.93000007
   16.21055603  206.04499817    1.07000005    2.93000007
   16.21389008  225.24800110    1.09000003    2.93000007
   16.21833420  225.24800110    1.07000005    2.93000007
   16.22249985  239.14500427    1.07000005    2.93000007
   16.22583389  188.01499939    1.14999998    2.91000009
   16.22888947  197.31500244    1.16999996    2.91000009
   16.23222351  209.14700317    1.25000000    2.91000009
   16.23527718  182.50100708    1.26999998    2.91000009
   16.23861122  225.80599976    1.28999996    2.91000009
   16.24194527  201.67799377    1.25000000    2.93000007
   16.24500084  193.79899597    1.25000000    2.91000009
   16.24833298  206.60099792    1.19000006    2.89000010
   16.25277710  206.60099792    1.14999998    2.91000009
   16.25694466  235.86700439    1.13000000    2.91000009
   16.26027870  207.71600342    1.11000001    2.91000009
   16.26333427  204.45300293    1.11000001    2.93000007
   16.26666641  218.36500549    1.13000000    2.91000009
   16.27000046  215.53799438    1.13000000    2.93000007
   16.27305603  208.60099792    1.16999996    2.91000009
   16.27638817  201.95199585    1.23000002    2.91000009
   16.27972221  209.90800476    1.26999998    2.91000009
   16.28277779  225.89799500    1.30999994    2.91000009
   16.28750038  225.89799500    1.33000004    2.89000010
   16.29138756  210.98199463    1.34000003    2.91000009
   16.29472160  203.86500549    1.33000004    2.91000009
   16.29805565  191.49400330    1.33000004    2.91000009
   16.30111122  211.98699951    1.33000004    2.91000009
   16.30444336  237.73899841    1.30999994    2.91000009
   16.30777740  212.55799866    1.25000000    2.91000009
   16.31083298  205.41799927    1.19000006    2.91000009
   16.31416512  223.98699951    1.19000006    2.91000009
   16.31750107  228.08999634    1.14999998    2.89000010
   16.32194519  228.08999634    1.14999998    2.91000009
   16.32611275  209.05099487    1.11000001    2.91000009
   16.32916832  211.82899475    1.11000001    2.91000009
   16.33250046  216.77000427    1.11000001    2.91000009
   16.35222244  214.45399475    1.13000000    2.91000009
   16.35639000  214.45399475    1.13000000    2.91000009
   16.36055565  221.86399841    1.13000000    2.91000009
   16.36388969  196.53799438    1.13000000    2.91000009
   16.36722183  213.21800232    1.13000000    2.91000009
   16.37027740  223.25599670    1.13000000    2.91000009
   16.37361145  203.83500671    1.11000001    2.91000009
   16.37666702  184.96699524    1.09000003    2.91000009
   16.38000107  178.47599792    1.11000001    2.91000009
   16.38333321  190.89300537    1.11000001    2.91000009
   16.38638878  225.77600098    1.11000001    2.91000009
   16.39111137  225.77600098    1.11000001    2.91000009
   16.39527702  196.92199707    1.11000001    2.91000009
   16.39833260  225.17199707    1.11000001    2.91000009
   16.40166664  195.03799438    1.11000001    2.91000009
   16.40499878  236.95799255    1.11000001    2.91000009
   16.40833282  202.85499573    1.13000000    2.91000009
   16.41138840  209.47099304    1.13000000    2.91000009
   16.41472244  197.34500122    1.11000001    2.91000009
   16.41805458  192.56500244    1.11000001    2.91000009
   16.42111015  186.63200378    1.13000000    2.91000009
   16.42555428  186.63200378    1.09000003    2.91000009
   16.42972183  202.20100403    1.09000003    2.91000009
   16.43277740  216.46400452    1.07000005    2.91000009
   16.43610954  229.80099487    1.07000005    2.91000009
   16.43944359  217.65899658    1.05999994    2.93000007
   16.44249916  196.41600037    1.05999994    2.91000009
   16.44583321  189.59300232    1.03999996    2.93000007
   16.44916534  205.87100220    1.01999998    2.93000007
   16.45222282  212.54800415    1.01999998    2.93000007
   16.45555687  198.47700500    1.01999998    2.91000009
   16.46000099  198.47700500    1.01999998    2.91000009
   16.46416664  204.33000183    1.01999998    2.91000009
   16.46750069  195.92500305    1.01999998    2.93000007
   16.47055626  204.61199951    1.00000000    2.93000007
   16.47389030  205.61700439    0.98000002    2.91000009
   16.47722244  206.46000671    0.98000002    2.93000007
   16.48027802  207.06100464    1.00000000    2.93000007
   16.48361206  211.81399536    1.01999998    2.93000007
   16.48666763  204.82299805    1.01999998    2.93000007
   16.48999977  213.97700500    1.00000000    2.91000009
   16.49444389  213.97700500    0.98000002    2.91000009
   16.49861145  185.12300110    0.95999998    2.93000007
   16.50194359  226.56399536    0.95999998    2.93000007
   16.50527763  208.38200378    0.98000002    2.93000007
   16.50833321  194.16200256    1.00000000    2.93000007
   16.51166725  203.11599731    1.00000000    2.91000009
   16.51472282  198.23500061    1.00000000    2.93000007
   16.51805496  201.88200378    1.00000000    2.91000009
   16.52138901  201.62100220    1.01999998    2.91000009
   16.52444458  216.44799805    1.01999998    2.91000009
   16.52916718  216.44799805    1.00000000    2.93000007
   16.53333282  216.84500122    1.01999998    2.93000007
   16.53638840  240.06500244    1.01999998    2.91000009
   16.53972244  220.47599792    1.01999998    2.91000009
   16.54277802  202.00999451    1.01999998    2.93000007
   16.54611015  198.95399475    1.03999996    2.93000007
   16.54944420  213.28199768    1.01999998    2.93000007
   16.55249977  210.03500366    1.01999998    2.93000007
   16.55583191  206.73899841    1.01999998    2.93000007
   16.55916595  195.96699524    1.01999998    2.93000007
   16.56361008  195.96699524    1.03999996    2.91000009
   16.56777954  192.53799438    1.03999996    2.91000009
   16.57083511  193.17399597    1.05999994    2.93000007
   16.57416725  192.65800476    1.03999996    2.93000007
   16.57750130  204.54299927    1.03999996    2.93000007
   16.58055687  203.66000366    1.05999994    2.93000007
   16.58388901  204.27200317    1.05999994    2.93000007
   16.58694458  186.28599548    1.01999998    2.93000007
   16.59027863  179.78100586    1.01999998    2.93000007
   16.59361267  188.98599243    1.00000000    2.93000007
   16.59805679  188.98599243    0.98000002    2.93000007
   16.60222244  184.61000061    1.00000000    2.93000007
   16.60555649  209.63200378    1.00000000    2.93000007
   16.60861206  206.68699646    0.98000002    2.93000007
   16.61194420  213.08099365    1.00000000    2.93000007
   16.61499977  184.10699463    1.00000000    2.93000007
   16.61833382  189.98399353    1.01999998    2.93000007
   16.62166595  179.68600464    1.01999998    2.93000007
   16.62500000  192.81500244    1.01999998    2.93000007
   16.62805557  184.42500305    1.03999996    2.93000007
   16.63249969  184.42500305    1.03999996    2.93000007
   16.63666725  188.60499573    1.03999996    2.91000009
   16.63999939  189.63200378    1.11000001    2.91000009
   16.64305496  198.54499817    1.14999998    2.91000009
   16.64638901  183.63400269    1.19000006    2.91000009
   16.64972115  196.80299377    1.19000006    2.91000009
   16.65277672  179.57600403    1.21000004    2.91000009
   16.65611076  204.80499268    1.21000004    2.91000009
   16.65944481  225.19900513    1.25000000    2.91000009
   16.66250038  205.44400024    1.25000000    2.91000009
   16.66722107  205.44400024    1.23000002    2.91000009
   16.67111015  223.33700562    1.21000004    2.91000009
   16.67444420  214.82200623    1.21000004    2.91000009
   16.67777634  203.18200684    1.19000006    2.91000009
   16.68083191  209.86000061    1.16999996    2.91000009
   16.68416595  202.72999573    1.16999996    2.91000009
   16.68750000  195.47900391    1.14999998    2.91000009
   16.69055557  201.45300293    1.14999998    2.91000009
   16.69388771  198.61199951    1.13000000    2.91000009
   16.69694328  193.30299377    1.13000000    2.91000009
   16.70166779  193.30299377    1.11000001    2.93000007
   16.70583344  183.90199280    1.11000001    2.91000009
   16.70916748  185.34399414    1.11000001    2.91000009
   16.71250153  211.43499756    1.11000001    2.93000007
   16.71555710  195.17900085    1.11000001    2.91000009
   16.71888924  188.26300049    1.11000001    2.93000007
   16.72222328  189.20300293    1.11000001    2.91000009
   16.72527885  194.55700684    1.11000001    2.91000009
   16.72861099  186.20799255    1.09000003    2.93000007
   16.73166656  178.02000427    1.07000005    2.91000009
   16.73611069  178.02000427    1.07000005    2.91000009
   16.74027824  201.08900452    1.05999994    2.91000009
   16.74361229  185.99200439    1.05999994    2.91000009
   16.74666786  202.41900635    1.05999994    2.93000007
   16.75000000  206.06799316    1.05999994    2.91000009
   16.75305557  209.34700012    1.05999994    2.91000009
   16.75638962  212.19500732    1.03999996    2.93000007
   16.75972176  222.47300720    1.03999996    2.91000009
   16.76277733  203.09899902    1.03999996    2.93000007
   16.76611137  220.67100525    1.03999996    2.93000007
   16.77055550  220.67100525    1.01999998    2.93000007
   16.77472115  226.79299927    1.03999996    2.93000007
   16.77805519  210.42300415    1.03999996    2.91000009
   16.78111076  229.48199463    1.03999996    2.91000009
   16.78444481  200.00700378    1.03999996    2.93000007
   16.78777695  204.39799500    1.03999996    2.91000009
   16.79083252  225.51100159    1.03999996    2.93000007
   16.79416656  201.03399658    1.03999996    2.93000007
   16.79749870  204.89599609    1.05999994    2.93000007
   16.80055428  205.27499390    1.05999994    2.93000007
   16.80499840  205.27499390    1.05999994    2.93000007
   16.80916595  197.53399658    1.03999996    2.93000007
   16.81250000  196.78799438    1.05999994    2.93000007
   16.81583214  173.64599609    1.05999994    2.93000007
   16.81888962  188.73100281    1.05999994    2.91000009
   16.82222366  208.83700562    1.05999994    2.91000009
   16.82527924  172.64700317    1.03999996    2.93000007
   16.82861137  234.02699280    1.03999996    2.91000009
   16.83194542  192.52099609    1.03999996    2.93000007
   16.83500099  230.80599976    1.03999996    2.93000007
   16.83972359  230.80599976    1.03999996    2.93000007
   16.84388924  231.69599915    1.01999998    2.91000009
   16.84694481  224.95599365    1.01999998    2.91000009
   16.85027885  205.74000549    1.01999998    2.93000007
   16.85333443  219.02699280    1.03999996    2.93000007
   16.85666656  218.86399841    1.05999994    2.91000009
   16.86000061  230.16999817    1.05999994    2.93000007
   16.86305618  194.84500122    1.07000005    2.93000007
   16.86638832  208.18899536    1.07000005    2.91000009
   16.86972237  226.69400024    1.07000005    2.93000007
   16.87416649  226.69400024    1.09000003    2.91000009
   16.87833405  234.38000488    1.07000005    2.93000007
   16.88138962  213.42700195    1.09000003    2.93000007
   16.88472176  208.43400574    1.09000003    2.91000009
   16.88805580  236.94500732    1.09000003    2.91000009
   16.89111137  211.03599548    1.09000003    2.93000007
   16.89444351  220.61799622    1.09000003    2.93000007
   16.89777756  190.50799561    1.07000005    2.93000007
   16.90083313  224.56599426    1.09000003    2.91000009
   16.90416718  212.92900085    1.07000005    2.93000007
   16.90861130  212.92900085    1.07000005    2.93000007
   16.91277695  195.06700134    1.07000005    2.93000007
   16.91611099  213.47999573    1.07000005    2.93000007
   16.91916656  212.61000061    1.05999994    2.93000007
   16.92249870  202.18299866    1.05999994    2.91000009
   16.92583275  200.50599670    1.05999994    2.93000007
   16.92888832  206.96400452    1.03999996    2.93000007
   16.93222237  195.87500000    1.01999998    2.91000009
   16.93527603  218.00700378    1.01999998    2.91000009
   16.93861008  225.69000244    1.00000000    2.93000007
   16.94305420  225.69000244    1.00000000    2.93000007
   16.94722176  206.83500671    0.98000002    2.93000007
   16.95055580  212.87500000    0.95999998    2.93000007
   16.95388985  189.75000000    0.95999998    2.94000006
   16.95694542  223.79100037    0.94000000    2.93000007
   16.96027946  196.22999573    0.94000000    2.93000007
   16.96361160  211.36399841    0.94000000    2.93000007
   16.96666718  208.39799500    0.94000000    2.91000009
   16.97000122  180.83799744    0.94000000    2.93000007
   16.97305679  190.69099426    0.92000002    2.93000007
   16.97777748  190.69099426    0.89999998    2.93000007
   16.98166656  189.14399719    0.89999998    2.93000007
   16.98500061  171.07099915    0.88000000    2.94000006
   16.98833275  186.44700623    0.88000000    2.93000007
   16.99138832  201.72700500    0.88000000    2.91000009
   16.99472237  201.19999695    0.88000000    2.94000006
   16.99805641  202.74299622    0.86000001    2.93000007
   17.00111198  190.06599426    0.88000000    2.94000006
   17.00444412  185.01899719    0.88000000    2.93000007
   17.00749969  194.45799255    0.88000000    2.93000007
   17.01222229  194.45799255    0.92000002    2.93000007
   17.01638794  204.21899414    0.92000002    2.93000007
   17.01944351  195.39700317    0.92000002    2.94000006
   17.02277756  175.02200317    0.92000002    2.94000006
   17.02611160  202.38099670    0.89999998    2.93000007
   17.02916718  202.31100464    0.89999998    2.93000007
   17.03249931  195.12399292    0.86000001    2.93000007
   17.03555489  167.31500244    0.86000001    2.94000006
   17.03888893  187.17900085    0.86000001    2.93000007
   17.04222107  210.24899292    0.86000001    2.94000006
   17.04666710  210.24899292    0.89999998    2.93000007
   17.05083275  172.99200439    0.89999998    2.93000007
   17.05416679  200.90100098    0.89999998    2.94000006
   17.05722237  185.69700623    0.89999998    2.91000009
   17.06055450  178.00700378    0.88000000    2.94000006
   17.06361008  196.88299561    0.88000000    2.93000007
   17.06694603  188.55499268    0.88000000    2.94000006
   17.07027817  196.74800110    0.92000002    2.93000007
   17.07333374  195.09599304    0.92000002    2.94000006
   17.07666779  192.35099792    0.98000002    2.93000007
   17.08111191  192.35099792    0.98000002    2.93000007
   17.08527756  182.41700745    1.00000000    2.93000007
   17.08861160  213.42300415    1.00000000    2.93000007
   17.09166718  199.77999878    1.01999998    2.93000007
   17.09500122  202.88099670    1.00000000    2.93000007
   17.09833336  199.91200256    1.00000000    2.93000007
   17.10138893  201.30200195    0.98000002    2.93000007
   17.10472298  191.48199463    0.98000002    2.93000007
   17.10805511  202.58900452    0.98000002    2.93000007
   17.11111069  219.44000244    1.00000000    2.93000007
   17.11555672  219.44000244    1.00000000    2.93000007
   17.11972237  193.74600220    1.03999996    2.93000007
   17.12305641  207.41799927    1.05999994    2.93000007
   17.12638855  195.10000610    1.09000003    2.93000007
   17.12944412  202.90899658    1.11000001    2.94000006
   17.13277817  213.67700195    1.11000001    2.93000007
   17.13611031  199.00999451    1.11000001    2.91000009
   17.13916588  207.23800659    1.11000001    2.93000007
   17.14249992  192.27799988    1.11000001    2.91000009
   17.14583397  202.67300415    1.11000001    2.93000007
   17.15027809  202.67300415    1.11000001    2.93000007
   17.15444374  190.95300293    1.11000001    2.91000009
   17.15749931  210.77099609    1.11000001    2.93000007
   17.16083336  206.02099609    1.11000001    2.93000007
   17.16388893  218.44799805    1.11000001    2.93000007
   17.16722107  209.00399780    1.07000005    2.94000006
   17.17055511  200.02999878    1.07000005    2.93000007
   17.17361069  209.23699951    1.07000005    2.93000007
   17.17694473  210.35400391    1.07000005    2.93000007
   17.18000031  206.30799866    1.07000005    2.93000007
   17.18472099  206.30799866    1.05999994    2.93000007
   17.18888855  208.71499634    1.05999994    2.93000007
   17.19194412  215.33700562    1.05999994    2.93000007
   17.19527626  212.41900635    1.05999994    2.93000007
   17.19861031  227.16099548    1.05999994    2.91000009
   17.20166779  217.81300354    1.05999994    2.93000007
   17.20499992  217.67500305    1.05999994    2.93000007
   17.20805550  227.54800415    1.07000005    2.91000009
   17.21138954  239.15800476    1.07000005    2.91000009
   17.21472359  218.43400574    1.09000003    2.91000009
   17.21916771  218.43400574    1.09000003    2.91000009
   17.22333336  215.57499695    1.09000003    2.93000007
   17.22666740  207.76199341    1.11000001    2.93000007
   17.22972298  207.54600525    1.09000003    2.93000007
   17.23305511  213.65400696    1.09000003    2.93000007
   17.23611069  209.05400085    1.11000001    2.93000007
   17.23944473  201.62600708    1.09000003    2.93000007
   17.24277878  199.05999756    1.13000000    2.93000007
   17.24583435  215.80099487    1.13000000    2.91000009
   17.24916649  208.60200500    1.11000001    2.93000007
   17.25361061  208.60200500    1.11000001    2.93000007
   17.25777817  218.36799622    1.11000001    2.93000007
   17.26111031  209.33500671    1.11000001    2.93000007
   17.26444435  227.62699890    1.11000001    2.91000009
   17.26749992  222.11700439    1.11000001    2.91000009
   17.27083397  220.48899841    1.09000003    2.93000007
   17.27388954  224.82400513    1.09000003    2.93000007
   17.27722168  206.93499756    1.09000003    2.93000007
   17.28055573  218.09399414    1.07000005    2.93000007
   17.28361130  224.87100220    1.07000005    2.93000007
   17.28833199  224.87100220    1.09000003    2.93000007
   17.29249954  215.11799622    1.09000003    2.93000007
   17.29555511  205.89599609    1.09000003    2.93000007
   17.29888916  203.93099976    1.09000003    2.91000009
   17.30194283  197.46800232    1.09000003    2.93000007
   17.30527687  212.24200439    1.09000003    2.93000007
   17.30861092  216.13800049    1.07000005    2.93000007
   17.31166649  210.71699524    1.09000003    2.93000007
   17.31499863  206.19700623    1.09000003    2.93000007
   17.31833458  213.51600647    1.09000003    2.91000009
   17.32277870  213.51600647    1.07000005    2.93000007
   17.32694626  215.09899902    1.05999994    2.93000007
   17.33000183  211.18200684    1.03999996    2.93000007
   17.33333397  217.19400024    1.03999996    2.94000006
   17.33666801  210.60099792    1.01999998    2.93000007
   17.33972359  219.65800476    1.01999998    2.93000007
   17.34305573  222.18699646    1.01999998    2.93000007
   17.34638977  220.60499573    1.01999998    2.93000007
   17.34944534  216.95700073    1.01999998    2.93000007
   17.37222290  216.95700073    1.05999994    2.93000007
   17.37611198  209.49600220    1.05999994    2.93000007
   17.37944412  209.01300049    1.07000005    2.93000007
   17.38277817  201.78599548    1.05999994    2.94000006
   17.38583374  200.99400330    1.05999994    2.93000007
   17.38916588  206.61199951    1.13000000    2.93000007
   17.39249992  197.00900269    1.21000004    2.91000009
   17.39555550  189.74899292    1.21000004    2.93000007
   17.39888954  199.01899719    1.23000002    2.93000007
   17.40194321  199.85400391    1.25000000    2.93000007
   17.40638924  199.85400391    1.21000004    2.93000007
   17.41055489  219.27999878    1.21000004    2.91000009
   17.41388893  205.42300415    1.21000004    2.93000007
   17.41722107  210.83700562    1.21000004    2.93000007
   17.42027664  211.17100525    1.21000004    2.93000007
   17.42361069  206.75199890    1.23000002    2.93000007
   17.42666626  195.43200684    1.21000004    2.91000009
   17.43000031  189.07099915    1.19000006    2.93000007
   17.43333244  203.67300415    1.21000004    2.91000009
   17.43638802  186.77600098    1.16999996    2.91000009
   17.44111061  186.77600098    1.16999996    2.93000007
   17.44527626  196.66600037    1.19000006    2.93000007
   17.44833183  176.46299744    1.21000004    2.94000006
   17.45166779  179.33700562    1.19000006    2.93000007
   17.45472336  183.20799255    1.19000006    2.93000007
   17.45805550  184.27099609    1.16999996    2.94000006
   17.46138954  203.24299622    1.13000000    2.93000007
   17.46444511  193.91499329    1.11000001    2.93000007
   17.46777916  174.08999634    1.11000001    2.93000007
   17.47111130  188.59100342    1.07000005    2.93000007
   17.47555542  188.59100342    1.01999998    2.93000007
   17.47972298  167.08299255    1.01999998    2.93000007
   17.48277855  197.00199890    1.01999998    2.91000009
   17.48611069  187.38400269    1.00000000    2.93000007
   17.48944473  180.46200562    1.00000000    2.94000006
   17.49250031  182.80900574    0.98000002    2.93000007
   17.49583435  174.39799500    0.98000002    2.94000006
   17.49888992  184.29299927    1.01999998    2.93000007
   17.50222206  176.88400269    1.03999996    2.93000007
   17.50555611  176.81199646    1.03999996    2.94000006
   17.51000023  176.81199646    1.05999994    2.93000007
   17.51416588  183.89799500    1.05999994    2.93000007
   17.51722145  174.33299255    1.09000003    2.93000007
   17.52055550  178.10299683    1.09000003    2.94000006
   17.52388954  179.19500732    1.09000003    2.94000006
   17.52694511  173.33500671    1.07000005    2.93000007
   17.53027725  185.48599243    1.07000005    2.93000007
   17.53361130  189.49499512    1.05999994    2.93000007
   17.53666687  186.87300110    1.03999996    2.94000006
   17.53999901  198.59100342    1.01999998    2.94000006
   17.54444313  198.59100342    1.00000000    2.93000007
   17.54861069  189.78399658    1.00000000    2.94000006
   17.55194283  178.69000244    1.00000000    2.93000007
   17.55499840  185.10099792    0.98000002    2.93000007
   17.55833244  194.30400085    0.98000002    2.93000007
   17.56166649  190.34300232    0.95999998    2.93000007
   17.56472206  188.83099365    0.94000000    2.94000006
   17.56805611  200.66700745    0.92000002    2.93000007
   17.57139015  204.67399597    0.92000002    2.94000006
   17.57444572  194.27099609    0.92000002    2.94000006
   17.57888985  194.27099609    0.89999998    2.94000006
   17.58305550  193.50100708    0.88000000    2.93000007
   17.58638954  196.92700195    0.88000000    2.94000006
   17.58972359  179.57800293    0.88000000    2.94000006
   17.59277916  178.88499451    0.83999997    2.94000006
   17.59611130  190.58999634    0.83999997    2.94000006
   17.59916687  187.02999878    0.83999997    2.94000006
   17.60250092  177.30700684    0.81999999    2.93000007
   17.60583305  184.26699829    0.83999997    2.94000006
   17.60888863  177.98500061    0.83999997    2.94000006
   17.61361122  177.98500061    0.83999997    2.94000006
   17.61750031  177.05499268    0.83999997    2.94000006
   17.62083435  174.08999634    0.88000000    2.94000006
   17.62416649  178.90299988    0.88000000    2.94000006
   17.62722206  163.52200317    0.92000002    2.93000007
   17.63055611  180.23300171    0.92000002    2.94000006
   17.63388824  172.87399292    0.94000000    2.94000006
   17.63694382  164.15499878    0.95999998    2.94000006
   17.64027786  162.43600464    0.95999998    2.93000007
   17.64333344  162.69700623    0.95999998    2.94000006
   17.64805603  162.69700623    0.95999998    2.93000007
   17.65222168  185.14900208    0.94000000    2.93000007
   17.65555573  173.15600586    0.92000002    2.94000006
   17.65861130  210.38000488    0.92000002    2.94000006
   17.66194344  191.89999390    0.92000002    2.93000007
   17.66527748  197.46400452    0.88000000    2.94000006
   17.66833305  197.63699341    0.88000000    2.93000007
   17.67166519  176.12199402    0.88000000    2.94000006
   17.67472076  183.48300171    0.86000001    2.94000006
   17.67805481  186.73500061    0.83999997    2.94000006
   17.68249893  186.73500061    0.81999999    2.94000006
   17.68666649  170.58200073    0.81999999    2.94000006
   17.68999863  205.49800110    0.83999997    2.93000007
   17.69305420  183.65400696    0.83999997    2.93000007
   17.69638824  226.66000366    0.86000001    2.94000006
   17.69944382  181.17300415    0.83999997    2.94000006
   17.70277786  189.20399475    0.83999997    2.94000006
   17.70611191  188.13299561    0.81999999    2.94000006
   17.70916748  193.34599304    0.81999999    2.94000006
   17.71250153  205.74499512    0.81999999    2.94000006
   17.71694565  205.74499512    0.80000001    2.94000006
   17.72111130  206.11399841    0.79000002    2.94000006
   17.72444534  194.33700562    0.79000002    2.94000006
   17.72750092  199.32000732    0.79000002    2.94000006
   17.73083305  197.61900330    0.79000002    2.94000006
   17.73416710  199.35499573    0.79000002    2.94000006
   17.73722267  198.69400024    0.79000002    2.96000004
   17.74055672  204.05000305    0.76999998    2.94000006
   17.74388885  195.48800659    0.80000001    2.93000007
   17.74694443  196.08599854    0.81999999    2.94000006
   17.75166702  196.08599854    0.81999999    2.94000006
   17.75583267  211.19299316    0.83999997    2.94000006
   17.75916672  198.65600586    0.81999999    2.93000007
   17.76222229  198.79899597    0.81999999    2.94000006
   17.76555634  205.66400146    0.81999999    2.94000006
   17.76861000  183.77699280    0.81999999    2.94000006
   17.77194405  199.72399902    0.81999999    2.94000006
   17.77527809  187.31399536    0.81999999    2.94000006
   17.77888870  201.80999756    0.81999999    2.94000006
   17.78249931  197.74099731    0.80000001    2.94000006
   17.78750038  197.74099731    0.80000001    2.94000006
   17.79166603  184.24400330    0.80000001    2.94000006
   17.79472160  187.20500183    0.79000002    2.94000006
   17.79805565  186.47999573    0.79000002    2.94000006
   17.80111122  196.23199463    0.79000002    2.94000006
   17.80444336  182.44999695    0.79000002    2.94000006
   17.80749893  197.01600647    0.80000001    2.94000006
   17.81083298  194.17100525    0.83999997    2.94000006
   17.81416512  183.72000122    0.83999997    2.94000006
   17.81722260  184.57600403    0.88000000    2.94000006
   17.82139015  184.57600403    0.89999998    2.94000006
   17.82555580  186.86300659    0.94000000    2.94000006
   17.82916832  185.21000671    0.95999998    2.93000007
   17.83277893  181.99299622    0.94000000    2.94000006
   17.83638954  179.10299683    0.94000000    2.93000007
   17.83972359  174.36900330    0.94000000    2.94000006
   17.84305573  183.05200195    0.94000000    2.94000006
   17.84611130  165.85800171    0.94000000    2.94000006
   17.84972191  184.85299683    0.94000000    2.94000006
   17.85583305  184.85299683    0.95999998    2.94000006
   17.86000061  186.82299805    0.94000000    2.93000007
   17.86333466  182.20300293    0.95999998    2.93000007
   17.86666679  189.37899780    0.94000000    2.94000006
   17.86972237  188.77200317    0.94000000    2.93000007
   17.87305641  194.50100708    0.94000000    2.93000007
   17.87611198  181.75700378    0.92000002    2.94000006
   17.87944412  187.17300415    0.92000002    2.94000006
   17.88277817  184.64900208    0.89999998    2.94000006
   17.88583374  180.12300110    0.89999998    2.94000006
   17.89055634  180.12300110    0.89999998    2.93000007
   17.89444351  170.51899719    0.89999998    2.94000006
   17.89777756  166.22000122    0.89999998    2.93000007
   17.90111160  175.59300232    0.92000002    2.94000006
   17.90444374  175.96000671    0.92000002    2.94000006
   17.90777779  179.66299438    0.92000002    2.93000007
   17.91083336  180.48300171    0.92000002    2.93000007
   17.91416550  182.48399353    0.92000002    2.94000006
   17.91722107  176.09899902    0.94000000    2.94000006
   17.92055511  181.69700623    0.94000000    2.94000006
   17.92499924  181.69700623    0.92000002    2.94000006
   17.92916679  185.78399658    0.89999998    2.94000006
   17.93222237  188.91799927    0.89999998    2.94000006
   17.93555450  188.58999634    0.89999998    2.93000007
   17.93861008  183.97200012    0.89999998    2.94000006
   17.94194412  182.81700134    0.89999998    2.94000006
   17.94527626  173.77499390    0.89999998    2.93000007
   17.94833183  195.69400024    0.88000000    2.94000006
   17.95166779  180.56500244    0.89999998    2.94000006
   17.95499992  193.84100342    0.89999998    2.94000006
   17.95944595  193.84100342    0.89999998    2.94000006
   17.96361160  177.82699585    0.89999998    2.94000006
   17.96694565  170.84199524    0.92000002    2.94000006
   17.97000122  173.67300415    0.92000002    2.94000006
   17.97333336  177.02499390    0.89999998    2.94000006
   17.97638893  182.91600037    0.89999998    2.94000006
   17.97972298  178.39100647    0.89999998    2.94000006
   17.98305511  165.90400696    0.89999998    2.93000007
   17.98611069  172.79400635    0.92000002    2.94000006
   17.98944473  175.30200195    0.95999998    2.93000007
   17.99388885  175.30200195    1.00000000    2.93000007
   17.99805641  182.70899963    1.01999998    2.93000007
   18.00138855  173.13000488    1.00000000    2.94000006
   18.00444412  169.09399414    1.00000000    2.94000006
   18.00777817  174.53399658    1.00000000    2.91000009
   18.01111031  170.66600037    1.01999998    2.93000007
   18.01416588  166.84199524    1.01999998    2.93000007
   18.01749992  170.05499268    1.03999996    2.93000007
   18.02083397  165.08799744    1.01999998    2.94000006
   18.02388954  168.10499573    0.98000002    2.94000006
   18.02833366  168.10499573    0.95999998    2.93000007
   18.03249931  173.29100037    0.98000002    2.94000006
   18.03583336  161.17799377    0.98000002    2.94000006
   18.03888893  167.32400513    0.95999998    2.94000006
   18.04222107  169.35800171    0.95999998    2.94000006
   18.04555511  171.61300659    0.95999998    2.94000006
   18.04861069  176.12199402    0.95999998    2.93000007
   18.05194283  168.30000305    0.94000000    2.93000007
   18.05527687  167.37899780    0.94000000    2.94000006
   18.05833244  167.39700317    0.94000000    2.94000006
   18.06305504  167.39700317    0.94000000    2.94000006
   18.06694603  167.95399475    0.94000000    2.94000006
   18.07027817  169.49200439    0.94000000    2.94000006
   18.07361221  183.34399414    0.94000000    2.94000006
   18.07666779  181.25900269    0.94000000    2.94000006
   18.08000183  169.93200684    0.94000000    2.94000006
   18.08333397  187.05799866    0.94000000    2.93000007
   18.08638954  192.45799255    0.95999998    2.93000007
   18.08972359  176.43400574    0.95999998    2.94000006
   18.09305573  177.77699280    0.98000002    2.93000007
   18.09749985  177.77699280    0.98000002    2.94000006
   18.10166740  171.51600647    1.00000000    2.94000006
   18.10472298  172.88800049    1.00000000    2.94000006
   18.10805511  169.22799683    1.00000000    2.94000006
   18.11138916  167.30299377    1.01999998    2.93000007
   18.11444473  176.67700195    1.01999998    2.93000007
   18.11777878  185.36099243    1.01999998    2.93000007
   18.12111092  184.77600098    1.01999998    2.94000006
   18.12416649  172.08999634    1.01999998    2.93000007
   18.12750053  178.71200562    1.03999996    2.93000007
   18.13194466  178.71200562    1.01999998    2.94000006
   18.13611031  179.55200195    1.03999996    2.94000006
   18.13944435  187.06500244    1.03999996    2.94000006
   18.14249992  171.87600708    1.03999996    2.93000007
   18.14583397  182.89300537    1.03999996    2.93000007
   18.14888954  178.85099792    1.05999994    2.93000007
   18.15222168  190.36700439    1.05999994    2.93000007
   18.15555573  187.78700256    1.05999994    2.93000007
   18.15861130  179.31199646    1.05999994    2.93000007
   18.16194344  180.21699524    1.05999994    2.93000007
   18.16638756  180.21699524    1.05999994    2.94000006
   18.17055511  169.48699951    1.05999994    2.94000006
   18.17388916  159.72599792    1.05999994    2.93000007
   18.17694473  159.37199402    1.05999994    2.93000007
   18.18027687  164.81300354    1.07000005    2.93000007
   18.18361092  161.39799500    1.07000005    2.94000006
   18.18666649  160.05400085    1.07000005    2.93000007
   18.18999863  160.21200562    1.05999994    2.93000007
   18.19305420  155.50100708    1.05999994    2.93000007
   18.19638824  157.51100159    1.03999996    2.93000007
   18.20111275  157.51100159    1.03999996    2.93000007
   18.20499992  156.65100098    1.03999996    2.94000006
   18.20833397  169.05700684    1.03999996    2.94000006
   18.21166801  162.79299927    1.01999998    2.94000006
   18.21472359  179.22900391    1.01999998    2.94000006
   18.21805573  157.94999695    1.00000000    2.93000007
   18.22111130  156.80599976    1.01999998    2.93000007
   18.22444534  155.36000061    1.00000000    2.93000007
   18.22777748  162.79400635    0.98000002    2.93000007
   18.23083305  159.34899902    0.98000002    2.91000009
   18.23555565  159.34899902    0.98000002    2.93000007
   18.23972321  166.75100708    0.95999998    2.94000006
   18.24277878  179.44000244    0.95999998    2.93000007
   18.24611092  177.03900146    0.95999998    2.94000006
   18.24916649  173.63999939    0.95999998    2.93000007
   18.25250053  162.93400574    0.95999998    2.93000007
   18.25583267  168.43800354    0.95999998    2.93000007
   18.25888824  166.68600464    0.95999998    2.93000007
   18.26222229  156.00599670    0.95999998    2.93000007
   18.26555634  171.45500183    0.95999998    2.94000006
   18.27000046  171.45500183    0.95999998    2.94000006
   18.27416611  165.34300232    0.95999998    2.94000006
   18.27722168  166.31500244    0.98000002    2.94000006
   18.28055573  171.02000427    0.98000002    2.93000007
   18.28388786  158.56300354    0.98000002    2.94000006
   18.28694344  167.15699768    0.95999998    2.94000006
   18.29027748  167.58999634    0.98000002    2.93000007
   18.29361153  173.61000061    0.98000002    2.94000006
   18.29666710  172.37800598    0.98000002    2.93000007
   18.29999924  178.79899597    0.95999998    2.94000006
   18.30444336  178.79899597    0.95999998    2.93000007
   18.30861092  172.64399719    0.94000000    2.94000006
   18.31194305  167.57600403    0.94000000    2.93000007
   18.31499863  171.21800232    0.94000000    2.94000006
   18.31833458  165.21400452    0.92000002    2.93000007
   18.32166672  169.62600708    0.92000002    2.94000006
   18.32472229  169.46600342    0.92000002    2.93000007
   18.32805634  165.32899475    0.89999998    2.93000007
   18.33111191  172.81399536    0.92000002    2.94000006
   18.33444595  164.53599548    0.92000002    2.94000006
   18.33889008  164.53599548    0.92000002    2.94000006
   18.34305573  173.39500427    0.92000002    2.94000006
   18.34638977  158.24299622    0.94000000    2.94000006
   18.34972191  162.96899414    0.94000000    2.94000006
   18.35277748  176.44000244    0.92000002    2.94000006
   18.35611153  170.58500671    0.92000002    2.94000006
   18.35916710  166.82200623    0.92000002    2.93000007
   18.36250114  173.75700378    0.89999998    2.94000006
   18.36583328  170.07099915    0.89999998    2.94000006
   18.36888885  172.67500305    0.92000002    2.93000007
   18.38972282  172.67500305    0.98000002    2.94000006
   18.39388847  170.72900391    0.95999998    2.94000006
   18.39694405  168.38900757    0.95999998    2.94000006
   18.40027809  165.45399475    0.95999998    2.93000007
   18.40333366  172.60499573    0.98000002    2.93000007
   18.40666580  179.87600708    0.98000002    2.94000006
   18.40999985  168.59100342    0.98000002    2.94000006
   18.41305542  171.32099915    1.00000000    2.93000007
   18.41638756  172.66000366    1.00000000    2.93000007
   18.41972160  170.04699707    1.01999998    2.94000006
   18.42416573  170.04699707    1.01999998    2.94000006
   18.42805481  160.72900391    1.01999998    2.93000007
   18.43138885  166.30900574    1.03999996    2.93000007
   18.43472099  167.58700562    1.03999996    2.93000007
   18.43777657  162.33200073    1.03999996    2.93000007
   18.44111061  169.45199585    1.03999996    2.93000007
   18.44416618  166.86799622    1.05999994    2.91000009
   18.44749832  170.00900269    1.05999994    2.94000006
   18.45083427  172.58599854    1.07000005    2.94000006
   18.45388985  180.30299377    1.07000005    2.91000009
   18.45861244  180.30299377    1.07000005    2.93000007
   18.46277809  175.29600525    1.07000005    2.93000007
   18.46583366  179.37500000    1.09000003    2.94000006
   18.46916771  178.93099976    1.09000003    2.93000007
   18.47222328  166.79200745    1.09000003    2.91000009
   18.47555542  176.30499268    1.09000003    2.93000007
   18.47888947  187.56900024    1.09000003    2.93000007
   18.48194504  176.12500000    1.09000003    2.93000007
   18.48527718  169.40400696    1.11000001    2.93000007
   18.48861122  172.58900452    1.11000001    2.93000007
   18.49305534  172.58900452    1.09000003    2.94000006
   18.49722290  178.15899658    1.09000003    2.93000007
   18.50027847  167.82699585    1.09000003    2.94000006
   18.50361061  176.74899292    1.09000003    2.93000007
   18.50694466  177.61099243    1.09000003    2.94000006
   18.51000023  174.04200745    1.07000005    2.93000007
   18.51333427  176.61900330    1.07000005    2.94000006
   18.51666641  173.46499634    1.09000003    2.93000007
   18.51972198  176.28300476    1.09000003    2.93000007
   18.52305603  178.57600403    1.07000005    2.93000007
   18.52750015  178.57600403    1.09000003    2.94000006
   18.53166580  169.28500366    1.11000001    2.93000007
   18.53499985  176.46200562    1.13000000    2.93000007
   18.53805542  167.45599365    1.14999998    2.93000007
   18.54138756  162.77499390    1.14999998    2.93000007
   18.54472160  167.13000488    1.13000000    2.93000007
   18.54777718  168.92999268    1.13000000    2.93000007
   18.55111122  166.73399353    1.11000001    2.93000007
   18.55416679  168.48800659    1.13000000    2.93000007
   18.55749893  160.92900085    1.11000001    2.93000007
   18.56194305  160.92900085    1.11000001    2.93000007
   18.56611061  166.06500244    1.11000001    2.94000006
   18.56944466  165.93299866    1.13000000    2.93000007
   18.57277870  162.72500610    1.11000001    2.93000007
   18.57583427  167.71800232    1.13000000    2.93000007
   18.57916832  169.34399414    1.14999998    2.93000007
   18.58250046  163.74400330    1.14999998    2.93000007
   18.58555603  160.88400269    1.16999996    2.91000009
   18.58889008  174.44999695    1.25000000    2.93000007
   18.59194565  172.80499268    1.25000000    2.93000007
   18.59666824  172.80499268    1.25000000    2.93000007
   18.60083389  174.21800232    1.26999998    2.93000007
   18.60388947  164.65800476    1.26999998    2.93000007
   18.60722351  157.60299683    1.25000000    2.91000009
   18.61027908  171.80099487    1.19000006    2.93000007
   18.61361122  168.78700256    1.16999996    2.93000007
   18.61694527  184.52999878    1.16999996    2.91000009
   18.62000084  173.26400757    1.16999996    2.93000007
   18.62333298  167.85200500    1.14999998    2.93000007
   18.62666702  168.65699768    1.16999996    2.91000009
   18.63111115  168.65699768    1.16999996    2.93000007
   18.63527679  168.32099915    1.16999996    2.93000007
   18.63833237  170.90600586    1.26999998    2.93000007
   18.64166641  179.72500610    1.26999998    2.93000007
   18.64500046  180.25500488    1.26999998    2.91000009
   18.64805603  176.39500427    1.26999998    2.93000007
   18.65138817  177.23300171    1.25000000    2.91000009
   18.65444374  180.92100525    1.26999998    2.93000007
   18.65777779  182.28100586    1.28999996    2.93000007
   18.66110992  178.20500183    1.33000004    2.93000007
   18.66555595  178.20500183    1.26999998    2.93000007
   18.66972160  176.99600220    1.25000000    2.93000007
   18.67305565  176.55599976    1.23000002    2.93000007
   18.67638779  168.01699829    1.21000004    2.93000007
   18.67944336  168.68400574    1.21000004    2.93000007
   18.68277740  185.05499268    1.19000006    2.93000007
   18.68610954  177.55000305    1.16999996    2.93000007
   18.68916512  172.38200378    1.16999996    2.91000009
   18.69249916  176.59300232    1.14999998    2.93000007
   18.69583321  173.25500488    1.13000000    2.93000007
   18.70000076  173.25500488    1.11000001    2.93000007
   18.70416832  169.66799927    1.11000001    2.93000007
   18.70750046  165.17999268    1.11000001    2.93000007
   18.71055603  164.07099915    1.11000001    2.93000007
   18.71389008  161.31799316    1.09000003    2.93000007
   18.71722221  168.26199341    1.09000003    2.94000006
   18.72027779  153.13999939    1.07000005    2.93000007
   18.72361183  162.61599731    1.07000005    2.93000007
   18.72694588  168.97399902    1.05999994    2.93000007
   18.73000145  170.10899353    1.05999994    2.93000007
   18.73472214  170.10899353    1.00000000    2.93000007
   18.73861122  158.19900513    1.00000000    2.93000007
   18.74194527  159.25999451    0.98000002    2.93000007
   18.74527740  156.03500366    0.98000002    2.94000006
   18.74833298  164.98599243    0.98000002    2.93000007
   18.75166702  151.10600281    0.98000002    2.94000006
   18.75499916  153.77400208    0.95999998    2.93000007
   18.75805473  155.33399963    0.95999998    2.94000006
   18.76138878  159.55400085    0.95999998    2.94000006
   18.76444435  159.78199768    0.95999998    2.93000007
   18.76916695  159.78199768    0.98000002    2.93000007
   18.77333260  150.24299622    0.98000002    2.93000007
   18.77638817  156.22799683    0.98000002    2.93000007
   18.77972221  161.43099976    0.98000002    2.94000006
   18.78305435  166.44999695    0.98000002    2.93000007
   18.78610992  168.93299866    1.00000000    2.94000006
   18.78944397  163.49299622    1.00000000    2.93000007
   18.79277802  159.36099243    1.00000000    2.93000007
   18.79583359  148.86700439    1.00000000    2.93000007
   18.79916573  159.55799866    1.00000000    2.94000006
   18.80360985  159.55799866    1.00000000    2.93000007
   18.80777740  154.85800171    1.00000000    2.93000007
   18.81110954  148.94999695    0.98000002    2.93000007
   18.81416512  150.57899475    0.95999998    2.93000007
   18.81750107  147.00199890    0.94000000    2.94000006
   18.82055664  150.65800476    0.95999998    2.94000006
   18.82389069  146.13600159    0.94000000    2.93000007
   18.82722282  157.90699768    0.95999998    2.93000007
   18.83027840  155.78300476    0.95999998    2.93000007
   18.83361244  160.45599365    0.95999998    2.94000006
   18.83805656  160.45599365    0.98000002    2.93000007
   18.84222221  160.27900696    1.00000000    2.93000007
   18.84555626  152.11199951    0.98000002    2.93000007
   18.84861183  166.15299988    1.00000000    2.93000007
   18.85194397  161.01100159    1.01999998    2.93000007
   18.85527802  153.21699524    1.01999998    2.93000007
   18.85833359  151.97900391    1.03999996    2.91000009
   18.86166763  162.14900208    1.03999996    2.94000006
   18.86499977  147.98399353    1.09000003    2.93000007
   18.86805534  163.23500061    1.09000003    2.91000009
   18.87277794  163.23500061    1.11000001    2.91000009
   18.87666702  148.27799988    1.11000001    2.93000007
   18.88000107  154.88699341    1.11000001    2.93000007
   18.88333321  166.05200195    1.11000001    2.91000009
   18.88638878  159.24600220    1.11000001    2.91000009
   18.88972282  169.34899902    1.13000000    2.93000007
   18.89305496  159.86000061    1.14999998    2.91000009
   18.89611053  158.88699341    1.13000000    2.91000009
   18.89944458  164.89900208    1.14999998    2.91000009
   18.90250015  163.13900757    1.14999998    2.91000009
   18.90722275  163.13900757    1.13000000    2.91000009
   18.91138840  156.23800659    1.14999998    2.91000009
   18.91444397  156.89900208    1.13000000    2.91000009
   18.91777802  151.81100464    1.13000000    2.91000009
   18.92083359  159.49400330    1.13000000    2.93000007
   18.92416573  158.84899902    1.14999998    2.91000009
   18.92749977  155.68400574    1.13000000    2.91000009
   18.93055534  164.25399780    1.14999998    2.93000007
   18.93388748  157.93600464    1.13000000    2.91000009
   18.93722153  167.25300598    1.13000000    2.91000009
   18.94166565  167.25300598    1.13000000    2.93000007
   18.94583321  163.51800537    1.13000000    2.91000009
   18.94888878  180.50100708    1.11000001    2.91000009
   18.95222282  173.40800476    1.11000001    2.91000009
   18.95555687  150.67300415    1.11000001    2.91000009
   18.95861244  164.05400085    1.11000001    2.91000009
   18.96194458  166.98300171    1.11000001    2.93000007
   18.96527863  180.37100220    1.09000003    2.91000009
   18.96833420  171.71099854    1.09000003    2.93000007
   18.97166634  180.47999573    1.09000003    2.93000007
   18.97611237  180.47999573    1.09000003    2.93000007
   18.98027802  183.55099487    1.09000003    2.93000007
   18.98361206  178.88999939    1.09000003    2.93000007
   18.98666763  183.48100281    1.09000003    2.91000009
   18.98999977  172.72599792    1.07000005    2.93000007
   18.99333382  172.15800476    1.07000005    2.93000007
   18.99638939  168.61500549    1.05999994    2.93000007
   18.99972153  182.32899475    1.05999994    2.93000007
   19.00277710  174.05900574    1.05999994    2.93000007
   19.00611115  167.38400269    1.03999996    2.93000007
   19.01055527  167.38400269    1.03999996    2.93000007
   19.01472282  164.24400330    1.05999994    2.91000009
   19.01805496  165.88800049    1.09000003    2.93000007
   19.02111053  174.70700073    1.14999998    2.93000007
   19.02444458  156.06399536    1.19000006    2.91000009
   19.02777672  167.41499329    1.16999996    2.93000007
   19.03083229  152.53799438    1.19000006    2.91000009
   19.03416634  156.61300659    1.21000004    2.91000009
   19.03750038  159.81700134    1.26999998    2.91000009
   19.04055595  161.73800659    1.30999994    2.91000009
   19.04527664  161.73800659    1.33000004    2.93000007
   19.04944420  159.99400330    1.26999998    2.91000009
   19.05249977  159.71099854    1.26999998    2.93000007
   19.05583191  163.60899353    1.21000004    2.93000007
   19.05888748  179.58500671    1.21000004    2.93000007
   19.06222153  164.32699585    1.19000006    2.91000009
   19.06555557  166.16600037    1.19000006    2.91000009
   19.06861115  159.99200439    1.21000004    2.93000007
   19.07194519  162.90600586    1.21000004    2.91000009
   19.07500076  150.66999817    1.21000004    2.91000009
   19.07972336  150.66999817    1.23000002    2.91000009
   19.08388901  158.26100159    1.25000000    2.91000009
   19.08694458  158.10800171    1.25000000    2.91000009
   19.09027863  152.87699890    1.25000000    2.91000009
   19.09361267  156.52900696    1.26999998    2.89000010
   19.09666824  160.86599731    1.26999998    2.89000010
   19.10000038  175.62699890    1.25000000    2.91000009
   19.10305595  174.93200684    1.25000000    2.89000010
   19.10639000  158.97599792    1.23000002    2.91000009
   19.10972214  160.91400146    1.23000002    2.91000009
   19.11416626  160.91400146    1.21000004    2.91000009
   19.11833382  162.36399841    1.21000004    2.91000009
   19.12166595  148.01300049    1.21000004    2.91000009
   19.12472153  157.69299316    1.21000004    2.91000009
   19.12805557  150.76300049    1.21000004    2.91000009
   19.13111115  156.91799927    1.19000006    2.91000009
   19.13444519  162.56799316    1.19000006    2.93000007
   19.13777733  177.53199768    1.19000006    2.93000007
   19.14083290  171.58399963    1.13000000    2.93000007
   19.14416695  161.54200745    1.11000001    2.93000007
   19.14861107  161.54200745    1.13000000    2.93000007
   19.15277672  151.36099243    1.13000000    2.91000009
   19.15611076  155.78199768    1.13000000    2.93000007
   19.15916634  153.46200562    1.14999998    2.91000009
   19.16250038  157.63400269    1.11000001    2.91000009
   19.16583252  159.06900024    1.11000001    2.93000007
   19.16888809  152.26199341    1.09000003    2.91000009
   19.17222214  158.06500244    1.09000003    2.93000007
   19.17527771  159.62699890    1.09000003    2.91000009
   19.17860985  151.31700134    1.09000003    2.91000009
   19.18305397  151.31700134    1.09000003    2.91000009
   19.18722153  165.23100281    1.09000003    2.91000009
   19.19055557  167.64300537    1.11000001    2.93000007
   19.19388771  159.05400085    1.13000000    2.91000009
   19.19694328  150.98800659    1.13000000    2.91000009
   19.20027924  169.54299927    1.14999998    2.91000009
   19.20361137  164.83700562    1.14999998    2.91000009
   19.20666695  158.99800110    1.16999996    2.91000009
   19.21000099  156.44400024    1.19000006    2.91000009
   19.21305656  160.87399292    1.21000004    2.89000010
   19.21777916  160.87399292    1.21000004    2.91000009
   19.22194481  163.35000610    1.19000006    2.91000009
   19.22500038  157.70100403    1.19000006    2.93000007
   19.22833443  162.27699280    1.19000006    2.91000009
   19.23139000  162.63099670    1.19000006    2.91000009
   19.23472214  167.43299866    1.16999996    2.91000009
   19.23805618  162.83799744    1.16999996    2.91000009
   19.24111176  167.13000488    1.14999998    2.89000010
   19.24444389  163.99499512    1.16999996    2.91000009
   19.24777794  164.36500549    1.16999996    2.89000010
   19.25222206  164.36500549    1.16999996    2.89000010
   19.25638962  163.34800720    1.16999996    2.91000009
   19.25944519  170.06599426    1.14999998    2.91000009
   19.26277733  169.77999878    1.13000000    2.91000009
   19.26611137  167.24299622    1.13000000    2.91000009
   19.26916695  163.11500549    1.13000000    2.91000009
   19.27249908  176.55200195    1.11000001    2.91000009
   19.27583313  166.75300598    1.11000001    2.91000009
   19.27888870  173.17500305    1.11000001    2.91000009
   19.28222275  171.99600220    1.11000001    2.91000009
   19.28666687  171.99600220    1.09000003    2.91000009
   19.29083252  164.14300537    1.09000003    2.91000009
   19.29416656  161.02900696    1.09000003    2.93000007
   19.29722214  158.60099792    1.09000003    2.91000009
   19.30055428  163.48500061    1.09000003    2.91000009
   19.30388832  160.56399536    1.09000003    2.91000009
   19.30694389  152.29200745    1.09000003    2.91000009
   19.31027794  161.13000488    1.09000003    2.91000009
   19.31333351  163.42300415    1.13000000    2.91000009
   19.31666756  164.61900330    1.05999994    2.91000009
   19.32111168  164.61900330    1.03999996    2.93000007
   19.32527924  156.36399841    1.03999996    2.91000009
   19.32861137  158.08500671    1.03999996    2.93000007
   19.33194542  161.46699524    1.03999996    2.93000007
   19.33500099  163.20700073    1.03999996    2.91000009
   19.33833313  164.39700317    1.03999996    2.91000009
   19.34138870  162.01400757    1.05999994    2.93000007
   19.34472275  160.29800415    1.03999996    2.91000009
   19.34805679  165.28799438    1.03999996    2.91000009
   19.35111237  164.94099426    1.03999996    2.93000007
   19.35583305  164.94099426    1.03999996    2.91000009
   19.35972214  168.20199585    1.05999994    2.91000009
   19.36305618  161.12100220    1.07000005    2.91000009
   19.36638832  162.55299377    1.07000005    2.93000007
   19.36944389  162.85099792    1.09000003    2.93000007
   19.37277794  167.22999573    1.09000003    2.91000009
   19.37611198  167.92700195    1.09000003    2.91000009
   19.37916756  185.40199280    1.07000005    2.91000009
   19.38249969  166.95599365    1.07000005    2.91000009
   19.38583374  154.55799866    1.11000001    2.91000009
   19.40638924  154.55799866    1.11000001    2.91000009
   19.41055489  167.90800476    1.09000003    2.91000009
   19.41361046  163.41200256    1.09000003    2.91000009
   19.41694450  164.47700500    1.11000001    2.93000007
   19.42027664  156.61799622    1.11000001    2.91000009
   19.42333221  154.41299438    1.11000001    2.91000009
   19.42666626  162.43600464    1.13000000    2.89000010
   19.42972183  165.13800049    1.11000001    2.91000009
   19.43305397  164.69999695    1.13000000    2.91000009
   19.43638802  180.83599854    1.13000000    2.91000009
   19.44083214  180.83599854    1.16999996    2.91000009
   19.44499969  174.13600159    1.19000006    2.89000010
   19.44805527  170.02999878    1.19000006    2.91000009
   19.45138931  155.34599304    1.16999996    2.91000009
   19.45444489  161.79699707    1.16999996    2.91000009
   19.45777893  158.17500305    1.19000006    2.91000009
   19.46111107  158.68899536    1.19000006    2.89000010
   19.46416664  160.03399658    1.19000006    2.91000009
   19.46750069  163.55599976    1.19000006    2.89000010
   19.47083473  164.05099487    1.19000006    2.89000010
   19.47527885  164.05099487    1.16999996    2.91000009
   19.47944450  169.39599609    1.16999996    2.91000009
   19.48277855  165.05499268    1.16999996    2.89000010
   19.48611069  171.21200562    1.14999998    2.89000010
   19.48916626  183.41299438    1.13000000    2.91000009
   19.49250031  182.64399719    1.14999998    2.91000009
   19.49583435  178.43400574    1.13000000    2.91000009
   19.49888992  185.51600647    1.13000000    2.91000009
   19.50222206  185.22799683    1.16999996    2.91000009
   19.50527763  179.88900757    1.16999996    2.91000009
   19.50972176  179.88900757    1.16999996    2.91000009
   19.51388931  169.75700378    1.19000006    2.91000009
   19.51722145  178.28900146    1.19000006    2.91000009
   19.52027702  179.47399902    1.23000002    2.93000007
   19.52361107  184.49899292    1.23000002    2.91000009
   19.52694511  195.75599670    1.21000004    2.89000010
   19.53000069  192.10600281    1.16999996    2.91000009
   19.53333282  199.92799377    1.14999998    2.91000009
   19.53638840  196.07099915    1.14999998    2.91000009
   19.53972244  188.98699951    1.14999998    2.91000009
   19.54416656  188.98699951    1.14999998    2.91000009
   19.54833221  195.57200623    1.13000000    2.91000009
   19.55166626  196.23399353    1.13000000    2.91000009
   19.55499840  194.63499451    1.13000000    2.91000009
   19.55805397  198.14500427    1.13000000    2.91000009
   19.56138802  197.20100403    1.13000000    2.91000009
   19.56472206  185.30900574    1.13000000    2.91000009
   19.56777954  193.65499878    1.14999998    2.91000009
   19.57111168  205.89100647    1.14999998    2.91000009
   19.57416725  192.04899597    1.14999998    2.91000009
   19.57888985  192.04899597    1.11000001    2.91000009
   19.58277893  184.77200317    1.11000001    2.91000009
   19.58611107  191.45799255    1.11000001    2.91000009
   19.58944511  197.94599915    1.11000001    2.91000009
   19.59250069  189.63200378    1.11000001    2.91000009
   19.59583473  185.85200500    1.13000000    2.91000009
   19.59916687  188.68699646    1.13000000    2.91000009
   19.60250092  181.20899963    1.13000000    2.91000009
   19.60555649  180.89199829    1.11000001    2.91000009
   19.60888863  184.13299561    1.09000003    2.91000009
   19.61333466  184.13299561    1.09000003    2.91000009
   19.61750031  197.33999634    1.09000003    2.91000009
   19.62055588  187.80099487    1.11000001    2.91000009
   19.62388992  176.39799500    1.09000003    2.91000009
   19.62722206  183.00300598    1.07000005    2.91000009
   19.63027763  194.29899597    1.07000005    2.91000009
   19.63361168  203.83500671    1.07000005    2.91000009
   19.63694382  201.19000244    1.09000003    2.91000009
   19.63999939  190.32600403    1.09000003    2.89000010
   19.64333344  191.80700684    1.09000003    2.91000009
   19.64777756  191.80700684    1.11000001    2.89000010
   19.65194321  179.16999817    1.11000001    2.91000009
   19.65527725  185.75500488    1.09000003    2.91000009
   19.65833282  203.65100098    1.09000003    2.91000009
   19.66166687  174.69999695    1.11000001    2.91000009
   19.66472244  188.12600708    1.11000001    2.91000009
   19.66805458  186.01199341    1.11000001    2.89000010
   19.67138863  187.77900696    1.11000001    2.89000010
   19.67444420  177.18400574    1.09000003    2.91000009
   19.67777634  186.40699768    1.07000005    2.91000009
   19.68222237  186.40699768    1.05999994    2.89000010
   19.68638802  198.56500244    1.05999994    2.91000009
   19.68972206  186.95799255    1.05999994    2.91000009
   19.69277763  180.56900024    1.09000003    2.91000009
   19.69610977  203.44099426    1.07000005    2.91000009
   19.69944382  207.52999878    1.07000005    2.91000009
   19.70250130  180.36999512    1.07000005    2.91000009
   19.70583344  208.16799927    1.07000005    2.91000009
   19.70916748  191.43699646    1.09000003    2.89000010
   19.71222305  185.35499573    1.09000003    2.89000010
   19.71694565  185.35499573    1.09000003    2.89000010
   19.72111130  195.22599792    1.11000001    2.89000010
   19.72416687  202.63499451    1.09000003    2.89000010
   19.72750092  196.74699402    1.09000003    2.91000009
   19.73083305  199.32099915    1.11000001    2.89000010
   19.73388863  184.93499756    1.11000001    2.91000009
   19.73722267  201.34599304    1.11000001    2.89000010
   19.79083252   -1.00000000   -1.00000000   -1.00000000
   19.81110954  184.39199829    1.21000004    2.86999989
   19.81611061  180.43299866    1.23000002    2.86999989
   19.81944466  187.30400085    1.25000000    2.89000010
   19.82277870  181.19500732    1.26999998    2.86999989
   19.82583427  188.13800049    1.28999996    2.86999989
   19.82916832  181.92599487    1.28999996    2.86999989
   19.83250046  183.69299316    1.28999996    2.86999989
   19.83555603  190.31100464    1.28999996    2.86999989
   19.83889008  167.23100281    1.28999996    2.86999989
   19.84222221  193.97200012    1.30999994    2.86999989
   19.84444427  192.80200195    1.33000004    2.86999989
   19.84583473  171.88400269    1.33000004    2.86999989
   19.84916687  202.22500610    1.30999994    2.86999989
   19.85250092  189.49699402    1.28999996    2.86999989
   19.85555649  168.39100647    1.34000003    2.86999989
   19.85888863  188.84199524    1.30999994    2.86999989
   19.86194420  168.25599670    1.30999994    2.86999989
   19.86527824  181.08799744    1.26999998    2.86999989
   19.86833382  170.13000488    1.26999998    2.86999989
   19.87166595  188.82499695    1.30999994    2.84999990
   19.87500000  169.73399353    1.33000004    2.86999989
   19.87777710  177.37699890    1.30999994    2.86999989
   19.87833405  176.85099792    1.30999994    2.86999989
   19.88166618  175.81399536    1.33000004    2.86999989
   19.88472176  175.87699890    1.33000004    2.86999989
   19.88805580  182.05599976    1.33000004    2.86999989
   19.89138794  173.40600586    1.33000004    2.86999989
   19.89472198  185.57099915    1.28999996    2.86999989
   19.89833260  155.18699646    1.21000004    2.86999989
   19.90166664  160.93600464    1.21000004    2.89000010
   19.90472221  169.78199768    1.21000004    2.89000010
   19.90805435  180.32099915    1.21000004    2.86999989
   19.91110992  171.38000488    1.21000004    2.86999989
   19.91166687  188.83799744    1.23000002    2.86999989
   19.91499901  181.44400024    1.25000000    2.86999989
   19.91833305  177.05200195    1.25000000    2.86999989
   19.92138863  168.24200439    1.26999998    2.86999989
   19.92472076  168.71899414    1.26999998    2.86999989
   19.92777634  168.94999695    1.26999998    2.86999989
   19.93111038  170.41000366    1.26999998    2.86999989
   19.93444443  164.71899414    1.28999996    2.86999989
   19.93750000  164.18600464    1.26999998    2.86999989
   19.94083214  171.37100220    1.28999996    2.86999989
   19.94416618  180.05799866    1.25000000    2.89000010
   19.94444275  162.55700684    1.25000000    2.89000010
   19.94777679  177.16000366    1.21000004    2.89000010
   19.95111275  170.24400330    1.19000006    2.86999989
   19.95416832  169.52099609    1.19000006    2.86999989
   19.95750046  171.68400574    1.11000001    2.89000010
   19.96083450  164.57699585    1.09000003    2.89000010
   19.96389008  159.87500000    1.11000001    2.89000010
   19.96722221  159.42700195    1.13000000    2.89000010
   19.97055626  178.99099731    1.13000000    2.89000010
   19.97389030  157.99200439    1.14999998    2.86999989
   19.97694588  167.09399414    1.19000006    2.86999989
   19.97805595  165.35099792    1.19000006    2.86999989
   19.98055649  166.47099304    1.21000004    2.86999989
   19.98388863  170.74499512    1.21000004    2.86999989
   19.98694420  171.47000122    1.25000000    2.86999989
   19.99027824  171.58999634    1.25000000    2.86999989
   19.99361229  182.05700684    1.26999998    2.86999989
   19.99666786  164.89500427    1.25000000    2.86999989
   20.00000000  183.69900513    1.26999998    2.86999989
   20.00305557  177.25100708    1.26999998    2.86999989
   20.00638962  157.49800110    1.28999996    2.86999989
   20.00972176  163.84599304    1.30999994    2.86999989
   20.01138878  164.77200317    1.30999994    2.86999989
   20.01333427  175.66999817    1.30999994    2.86999989
   20.01666641  162.74499512    1.33000004    2.86999989
   20.01972198  165.51499939    1.33000004    2.86999989
   20.02305603  168.63800049    1.33000004    2.84999990
   20.02638817  156.63299561    1.30999994    2.86999989
   20.02944374  166.42399597    1.28999996    2.86999989
   20.03305435  159.91799927    1.25000000    2.86999989
   20.03610992  163.73300171    1.25000000    2.86999989
   20.03944397  159.47300720    1.25000000    2.86999989
   20.04249954  161.55400085    1.23000002    2.86999989
   20.04472160  155.54299927    1.21000004    2.86999989
   20.04611015  167.08599854    1.21000004    2.86999989
   20.04944420  151.69299316    1.21000004    2.86999989
   20.05249977  166.93899536    1.23000002    2.86999989
   20.05583191  155.11599731    1.25000000    2.86999989
   20.05916595  158.48599243    1.25000000    2.86999989
   20.06222153  155.87899780    1.25000000    2.86999989
   20.06555557  145.62600708    1.26999998    2.86999989
   20.06861115  160.13000488    1.23000002    2.86999989
   20.07194519  161.00799561    1.25000000    2.86999989
   20.07527924  161.15800476    1.21000004    2.86999989
   20.07805634  160.51899719    1.21000004    2.86999989
   20.07861137  156.30799866    1.21000004    2.86999989
   20.08194542  168.67900085    1.21000004    2.86999989
   20.08555603  153.55700684    1.23000002    2.84999990
   20.08916664  161.11599731    1.23000002    2.86999989
   20.09250069  149.51499939    1.21000004    2.86999989
   20.09611130  157.27200317    1.21000004    2.86999989
   20.09972191  151.17500305    1.21000004    2.86999989
   20.10305595  146.48699951    1.21000004    2.86999989
   20.10639000  166.18099976    1.23000002    2.86999989
   20.10944557  152.60000610    1.21000004    2.86999989
   20.11138916  147.81799316    1.21000004    2.86999989
   20.11305618  151.94500732    1.21000004    2.86999989
   20.11638832  162.34700012    1.21000004    2.86999989
   20.11944389  154.94599915    1.19000006    2.89000010
   20.12277794  173.09500122    1.19000006    2.86999989
   20.12611198  153.29299927    1.21000004    2.86999989
   20.12944412  151.00500488    1.19000006    2.86999989
   20.13277817  149.89700317    1.21000004    2.86999989
   20.13583374  156.38099670    1.23000002    2.86999989
   20.13916588  156.50799561    1.23000002    2.86999989
   20.14249992  145.31300354    1.25000000    2.86999989
   20.14472198  152.88999939    1.28999996    2.86999989
   20.14583397  158.66299438    1.28999996    2.86999989
   20.14916611  145.60000610    1.28999996    2.86999989
   20.15250015  146.83999634    1.28999996    2.86999989
   20.15555573  149.18200684    1.30999994    2.86999989
   20.15888786  152.92300415    1.30999994    2.84999990
   20.16222191  164.10299683    1.34000003    2.84999990
   20.16527748  153.52499390    1.36000001    2.86999989
   20.16860962  155.64700317    1.34000003    2.84999990
   20.17194366  155.04499817    1.36000001    2.86999989
   20.17499924  150.14900208    1.36000001    2.86999989
   20.17805481  158.00599670    1.36000001    2.86999989
   20.17860985  159.19099426    1.34000003    2.84999990
   20.18194389  156.32299805    1.34000003    2.84999990
   20.18527603  155.69999695    1.34000003    2.84999990
   20.18833160  152.80000305    1.34000003    2.84999990
   20.19166565  156.39799500    1.33000004    2.84999990
   20.19499969  155.24400330    1.33000004    2.84999990
   20.19805527  153.08399963    1.34000003    2.84999990
   20.20138931  151.88900757    1.34000003    2.84999990
   20.20472336  154.03900146    1.34000003    2.84999990
   20.20805550  152.83099365    1.34000003    2.84999990
   20.21111107  155.25500488    1.36000001    2.86999989
   20.21166801  152.69400024    1.36000001    2.86999989
   20.21500015  157.73699951    1.36000001    2.84999990
   20.21833420  146.34599304    1.38000000    2.84999990
   20.22138977  151.74800110    1.41999996    2.82999992
   20.22472191  151.02999878    1.44000006    2.82999992
   20.22805595  156.80499268    1.41999996    2.82999992
   20.23139000  158.10499573    1.41999996    2.82999992
   20.23444557  156.22099304    1.41999996    2.82999992
   20.23777771  166.57800293    1.41999996    2.82999992
   20.24111176  155.91200256    1.41999996    2.84999990
   20.24416733  160.29699707    1.41999996    2.82999992
   20.24500084  155.91700745    1.41999996    2.82999992
   20.24805641  162.19999695    1.36000001    2.84999990
   20.25138855  153.61599731    1.34000003    2.84999990
   20.25444412  153.09500122    1.34000003    2.84999990
   20.25777817  157.36199951    1.34000003    2.84999990
   20.26111031  156.60800171    1.36000001    2.82999992
   20.26416588  162.31599426    1.36000001    2.84999990
   20.26749992  157.30700684    1.36000001    2.84999990
   20.27083397  153.97200012    1.36000001    2.82999992
   20.27416611  172.96899414    1.38000000    2.82999992
   20.27722168  186.14999390    1.39999998    2.82999992
   20.27833366  175.14799500    1.39999998    2.82999992
   20.28111076  203.20899963    1.41999996    2.82999992
   20.28444481  172.19200134    1.44000006    2.84999990
   20.28750038  179.93400574    1.44000006    2.84999990
   20.29083252  169.76199341    1.48000002    2.82999992
   20.29388809  175.15400696    1.48000002    2.82999992
   20.29722214  170.70700073    1.48000002    2.82999992
   20.30027771  173.16000366    1.51999998    2.82999992
   20.30360985  166.89999390    1.53999996    2.82999992
   20.30694389  155.22900391    1.53999996    2.82999992
   20.30999947  155.95300293    1.55999994    2.82999992
   20.31166649  176.92500305    1.55999994    2.82999992
   20.31361008  168.33299255    1.55999994    2.82999992
   20.31666756  166.71899414    1.55999994    2.82999992
   20.32000160  172.99899292    1.58000004    2.80999994
   20.32333374  169.06100464    1.58000004    2.80999994
   20.32638931  178.98300171    1.60000002    2.80999994
   20.32972336  180.42599487    1.60000002    2.80999994
   20.33305550  167.52699280    1.60000002    2.80999994
   20.33611107  182.75300598    1.60000002    2.80999994
   20.33944511  175.51699829    1.60000002    2.82999992
   20.34250069  160.37300110    1.60000002    2.80999994
   20.34500122  168.83399963    1.60000002    2.80999994
   20.34638977  173.31300354    1.60000002    2.82999992
   20.34972191  170.26100159    1.60000002    2.82999992
   20.35277748  167.19299316    1.60000002    2.82999992
   20.35611153  175.78599548    1.60000002    2.82999992
   20.35944557  175.83799744    1.61000001    2.82999992
   20.36250114  185.61900330    1.64999998    2.82999992
   20.36583328  176.74200439    1.61000001    2.82999992
   20.36888885  176.33999634    1.60000002    2.82999992
   20.37222290  178.72500610    1.51999998    2.82999992
   20.37555504  176.77400208    1.50000000    2.82999992
   20.37833405  170.51300049    1.50000000    2.82999992
   20.37916756  167.99000549    1.51999998    2.82999992
   20.38249969  173.47300720    1.51999998    2.82999992
   20.38555527  168.10899353    1.51999998    2.82999992
   20.38888931  173.24400330    1.50000000    2.82999992
   20.39194489  169.73500061    1.53999996    2.82999992
   20.39527702  167.33500671    1.55999994    2.82999992
   20.39861107  144.59800720    1.55999994    2.82999992
   20.40166664  172.60200500    1.69000006    2.82999992
   20.40499878  161.10400391    1.61000001    2.82999992
   20.40833282  164.05499268    1.61000001    2.82999992
   20.41138840  170.86999512    1.60000002    2.80999994
   20.41194344  178.75100708    1.60000002    2.80999994
   20.41527748  161.30799866    1.58000004    2.80999994
   20.41833305  163.67999268    1.61000001    2.82999992
   20.42166519  172.61900330    1.61000001    2.82999992
   20.42499924  179.07000732    1.80999994    2.82999992
   20.42805481  186.91200256    1.86000001    2.80999994
   20.43138885  172.24200439    1.85000002    2.78999996
   20.43444443  171.81399536    1.83000004    2.80999994
   20.43833160  184.86999512    1.80999994    2.78999996
   20.44222069  168.27999878    1.76999998    2.78999996
   20.44610977  161.60099792    1.71000004    2.78999996
   20.44694328  166.17399597    1.71000004    2.80999994
   20.45027924  163.11500549    1.69000006    2.80999994
   20.45333481  172.90699768    1.66999996    2.80999994
   20.45694542  166.27099609    1.64999998    2.80999994
   20.46027946  167.79699707    1.66999996    2.80999994
   20.46333504  174.73599243    1.66999996    2.78999996
   20.46666718  163.74099731    1.66999996    2.78999996
   20.47000122  172.54699707    1.66999996    2.80999994
   20.47305679  157.80499268    1.78999996    2.78999996
   20.47638893  157.96800232    1.78999996    2.80999994
   20.47861099  168.94400024    1.75000000    2.80999994
   20.48000145  153.86599731    1.75000000    2.78999996
   20.48305511  165.62300110    1.75000000    2.78999996
   20.48638916  175.71099854    1.76999998    2.78999996
   20.48972321  167.68200684    1.75000000    2.78999996
   20.49277878  157.00700378    1.75000000    2.78999996
   20.49611092  161.42399597    1.75000000    2.78999996
   20.49944496  166.54600525    1.75000000    2.78999996
   20.50250053  163.08999634    1.73000002    2.78999996
   20.50583267  176.16299438    1.75000000    2.78999996
   20.50888824  173.41200256    1.76999998    2.78999996
   20.51194382  158.02099609    1.76999998    2.78999996
   20.51277733  157.99400330    1.76999998    2.78999996
   20.51611137  159.79800415    1.78999996    2.78999996
   20.51916695  148.20599365    1.89999998    2.76999998
   20.52249908  152.92599487    1.80999994    2.78999996
   20.52555466  150.01800537    1.86000001    2.78999996
   20.52888870  163.16600037    1.86000001    2.78999996
   20.53222275  141.92999268    1.80999994    2.78999996
   20.53527641  137.63299561    2.32999992    2.78999996
   20.53861046  148.67599487    2.98000002    2.76999998
   20.54194450  141.30599976    3.28999996    2.75000000
   20.54500008  159.44200134    3.43000007    2.76999998
   20.54555511  137.89500427    3.89000010    2.75000000
   20.54888916  170.24400330    4.01999998    2.75000000
   20.55194283  165.94000244    4.90999985    2.78999996
