    HOUR (UT)   FLARE FACTOR    SKY TESTER    SUN TESTER
   11.84055519   -1.00000000   -1.00000000   -1.00000000
   11.86027813  210.98899841    2.36999989    1.51999998
   11.86444473  289.02999878    2.39000010    1.51999998
   11.86750031  301.69299316    2.39000010    1.51999998
   11.86972237  375.17700195    2.40000010    1.53999996
   11.87083340  227.35200500    2.40000010    1.53999996
   11.87111092  289.02999878    2.39000010    1.51999998
   11.87111092  301.69299316    2.39000010    1.51999998
   11.87194443  357.17700195    2.40000010    1.51999998
   11.87388897  312.72900391    2.40000010    1.53999996
   11.87527752  316.64898682    2.42000008    1.53999996
   11.87666702  316.87399292    2.42000008    1.53999996
   11.87805557  350.13198853    2.42000008    1.53999996
   11.87944412  402.93600464    2.42000008    1.53999996
   11.88083363  283.83999634    2.42000008    1.55999994
   11.88222218  320.12799072    2.44000006    1.55999994
   11.88361073  425.05899048    2.44000006    1.55999994
   11.88638878  371.77999878    2.44000006    1.55999994
   11.88694477  349.35998535    2.44000006    1.55999994
   11.88833332  121.45899963    2.44000006    1.55999994
   11.88833332  357.17700195    2.40000010    1.51999998
   11.88916683  135.36999512    2.44000006    1.55999994
   11.89222240  140.94599915    2.46000004    1.55999994
   11.89555550  588.26098633    2.46000004    1.55999994
   11.89750004  426.87298584    2.48000002    1.58000004
   11.89888859  481.29800415    2.46000004    1.55999994
   11.90027714  413.54901123    2.48000002    1.55999994
   11.90166664  466.45901489    2.48000002    1.58000004
   11.90305519  523.72198486    2.48000002    1.55999994
   11.90444374  499.91400146    2.48000002    1.58000004
   11.90583324  479.82901001    2.50000000    1.58000004
   11.90722179  432.25601196    2.48000002    1.58000004
   11.90861034  477.81698608    2.50000000    1.58000004
   11.90999985  530.27301025    2.50000000    1.58000004
   11.91138840  412.14700317    2.50000000    1.58000004
   11.91277695  416.67498779    2.51999998    1.60000002
   11.91416645  517.19702148    2.51999998    1.60000002
   11.91555500  519.87597656    2.51999998    1.60000002
   11.91694450  534.55798340    2.51999998    1.60000002
   11.91833401  464.44500732    2.51999998    1.60000002
   11.91972256  534.72198486    2.51999998    1.61000001
   11.92111111  462.16699219    2.51999998    1.61000001
   11.92250061  441.77899170    2.53999996    1.61000001
   11.92388916  490.32000732    2.51999998    1.61000001
   11.92527771  624.16900635    2.51999998    1.61000001
   11.92666721  563.39599609    2.51999998    1.61000001
   11.92805576  649.08801270    2.50000000    1.61000001
   11.92944431  503.66299438    2.50000000    1.61000001
   11.93083382  583.46099854    2.50000000    1.61000001
   11.93222237  640.09600830    2.50000000    1.61000001
   11.93361092  513.64398193    2.50000000    1.61000001
   11.93500042  489.95599365    2.50000000    1.61000001
   11.93638897  686.15600586    2.50000000    1.61000001
   11.93777752  502.96701050    2.50000000    1.63000000
   11.93916702  547.21398926    2.48000002    1.63000000
   11.94055557  493.15100098    2.48000002    1.63000000
   11.94194412  363.10000610    2.48000002    1.63000000
   11.94333363  537.72497559    2.48000002    1.63000000
   11.94472218  512.43298340    2.48000002    1.63000000
   11.94611073  645.58197021    2.48000002    1.63000000
   11.94750023  556.11401367    2.48000002    1.63000000
   11.94888878  495.49200439    2.46000004    1.63000000
   11.95027733  457.17001343    2.48000002    1.63000000
   11.95166683  500.28799438    2.46000004    1.63000000
   11.95305538  440.62298584    2.46000004    1.63000000
   11.95444393  372.01098633    2.46000004    1.63000000
   11.95583344  467.46398926    2.46000004    1.63000000
   11.95722198  522.31597900    2.46000004    1.63000000
   11.95861053  347.87100220    2.46000004    1.63000000
   11.96000004  465.78698730    2.46000004    1.64999998
   11.96138859  530.56799316    2.44000006    1.64999998
   11.96277714  458.98999023    2.44000006    1.64999998
   11.96416664  433.30499268    2.44000006    1.64999998
   11.96555519  471.12799072    2.44000006    1.64999998
   11.96694374  503.09399414    2.44000006    1.64999998
   11.96833324  324.20300293    2.44000006    1.64999998
   11.96972179  498.31399536    2.44000006    1.64999998
   11.97111034  481.87600708    2.44000006    1.64999998
   11.97249985  363.33401489    2.44000006    1.64999998
   11.97388840  363.15701294    2.42000008    1.64999998
   11.97527695  420.40301514    2.42000008    1.66999996
   11.97666645  440.85598755    2.42000008    1.66999996
   11.97805500  405.20700073    2.44000006    1.66999996
   11.97944355  334.42401123    2.42000008    1.66999996
   11.98083305  330.46200562    2.44000006    1.66999996
   11.98222160  359.99600220    2.42000008    1.66999996
   11.98361111  397.39401245    2.42000008    1.66999996
   11.98500061  403.04199219    2.42000008    1.66999996
   11.98638916  435.76800537    2.42000008    1.69000006
   11.98777771  373.04501343    2.42000008    1.69000006
   11.98916721  416.27398682    2.42000008    1.66999996
   11.99055576  415.28601074    2.40000010    1.66999996
   11.99194431  361.19000244    2.40000010    1.69000006
   11.99333382  441.15100098    2.40000010    1.69000006
   11.99472237  349.66101074    2.40000010    1.69000006
   11.99611092  455.53100586    2.40000010    1.69000006
   11.99750042  437.25201416    2.39000010    1.69000006
   11.99888897  401.57699585    2.40000010    1.69000006
   12.00027752  453.54299927    2.39000010    1.69000006
   12.00166702  461.64599609    2.39000010    1.71000004
   12.00305557  447.43600464    2.39000010    1.69000006
   12.00444412  462.48098755    2.39000010    1.69000006
   12.00583363  386.98400879    2.39000010    1.69000006
   12.00722218  421.53100586    2.36999989    1.71000004
   12.00861073  334.40899658    2.36999989    1.71000004
   12.01000023  343.92401123    2.36999989    1.71000004
   12.01138878  335.60598755    2.36999989    1.71000004
   12.01277733  429.13198853    2.36999989    1.71000004
   12.01416683  369.79598999    2.34999990    1.71000004
   12.01555538  336.21701050    2.34999990    1.71000004
   12.01694393  339.21600342    2.34999990    1.71000004
   12.01833344  319.36898804    2.34999990    1.71000004
   12.01972198  355.92001343    2.34999990    1.73000002
   12.02111053  376.46099854    2.34999990    1.73000002
   12.02250004  398.31500244    2.34999990    1.73000002
   12.02388859  390.20498657    2.32999992    1.73000002
   12.02527714  416.50399780    2.34999990    1.73000002
   12.02666664  412.84298706    2.32999992    1.73000002
   12.02805519  353.76599121    2.32999992    1.73000002
   12.02944374  341.65200806    2.32999992    1.73000002
   12.03083324  345.81500244    2.32999992    1.73000002
   12.03222179  347.93600464    2.32999992    1.75000000
   12.03361130  353.98901367    2.32999992    1.73000002
   12.03500080  382.82299805    2.32999992    1.75000000
   12.03638935  355.48901367    2.30999994    1.75000000
   12.03777790  346.71301270    2.30999994    1.75000000
   12.03916740  317.87500000    2.30999994    1.75000000
   12.04055595  316.37399292    2.30999994    1.75000000
   12.04194450  252.88099670    2.28999996    1.75000000
   12.04333401  352.72299194    2.28999996    1.75000000
   12.04472256  276.21499634    2.28999996    1.75000000
   12.04611111  296.55099487    2.28999996    1.75000000
   12.04750061  293.64099121    2.28999996    1.75000000
   12.04888916  305.00799561    2.30999994    1.76999998
   12.05027771  247.55599976    2.28999996    1.75000000
   12.05027771  135.36999512    2.44000006    1.55999994
   12.05027771  140.94599915    2.46000004    1.55999994
   12.05055618  588.26098633    2.46000004    1.55999994
   12.05111122  295.33499146    2.28999996    1.75000000
   12.05416679  277.00201416    2.28999996    1.76999998
   12.05749989  270.16000366    2.26999998    1.76999998
   12.06083393  279.52600098    2.28999996    1.76999998
   12.06416702  303.13598633    2.26999998    1.76999998
   12.06611156  261.69500732    2.26999998    1.76999998
   12.06722260  283.95098877    2.26999998    1.76999998
   12.06861115  302.49301147    2.26999998    1.78999996
   12.06999969  306.69299316    2.25000000    1.76999998
   12.07138920  301.59799194    2.25000000    1.78999996
   12.07277775  246.62800598    2.25000000    1.78999996
   12.07305527  295.33499146    2.28999996    1.75000000
   12.07305527  277.00201416    2.28999996    1.76999998
   12.07333374  270.16000366    2.26999998    1.76999998
   12.07333374  279.52600098    2.28999996    1.76999998
   12.07333374  303.13598633    2.26999998    1.76999998
   12.07388878  281.09899902    2.25000000    1.78999996
   12.07722187  248.98500061    2.25000000    1.78999996
   12.08055592  252.56399536    2.25000000    1.78999996
   12.08361053  283.83099365    2.25000000    1.78999996
   12.08694458  299.74200439    2.23000002    1.80999994
   12.09361076  299.74200439    2.23000002    1.80999994
   12.09777737  286.44900513    2.23000002    1.80999994
   12.10111141  276.26998901    2.23000002    1.80999994
   12.10444450  236.46099854    2.21000004    1.83000004
   12.10666752  221.08999634    2.21000004    1.80999994
   12.10805607  238.00199890    2.21000004    1.83000004
   12.11138916  226.53799438    2.21000004    1.80999994
   12.11444473  221.21200562    2.21000004    1.83000004
   12.11777782  217.49099731    2.21000004    1.83000004
   12.12111092  267.41699219    2.21000004    1.83000004
   12.12416649  262.39498901    2.21000004    1.83000004
   12.12750053  228.38000488    2.21000004    1.83000004
   12.13083363  233.18600464    2.21000004    1.83000004
   12.13666630  233.18600464    2.19000006    1.83000004
   12.14083290  210.13600159    2.19000006    1.85000002
   12.14388847  220.03100586    2.19000006    1.85000002
   12.14722252  223.92900085    2.19000006    1.85000002
   12.15027714  216.58999634    2.19000006    1.85000002
   12.15361118  217.36099243    2.17000008    1.85000002
   12.15694427  229.16600037    2.17000008    1.86000001
   12.15999985  219.76100159    2.17000008    1.85000002
   12.16333294  182.03399658    2.17000008    1.86000001
   12.16666698  224.10499573    2.15000010    1.88000000
   12.16972256  223.11900330    2.17000008    1.86000001
   12.17305565  196.33799744    2.15000010    1.88000000
   12.17361164  210.40600586    2.15000010    1.88000000
   12.17944431  210.40600586    2.13000011    1.88000000
   12.18361092  214.71099854    2.13000011    1.88000000
   12.18666649  236.03799438    2.13000011    1.88000000
   12.19000053  189.90299988    2.11999989    1.88000000
   12.19333363  204.88900757    2.11999989    1.89999998
   12.19638920  198.47999573    2.09999990    1.89999998
   12.19972229  207.83700562    2.11999989    1.89999998
   12.20305538  203.92399597    2.09999990    1.89999998
   12.20611095  204.48500061    2.09999990    1.91999996
   12.20694447  179.21899414    2.09999990    1.89999998
   12.20972157  199.65699768    2.09999990    1.89999998
   12.21305561  189.90800476    2.09999990    1.89999998
   12.21638870  216.99800110    2.07999992    1.89999998
   12.22222137  216.99800110    2.07999992    1.91999996
   12.22638798  197.91299438    2.07999992    1.91999996
   12.22972202  181.14100647    2.05999994    1.91999996
   12.23277760  168.37300110    2.05999994    1.91999996
   12.23611164  178.80299377    2.05999994    1.91999996
   12.23944473  173.07899475    2.03999996    1.94000006
   12.24027824  177.46499634    2.03999996    1.94000006
   12.24277782  162.44099426    2.05999994    1.94000006
   12.24611092  175.20899963    2.03999996    1.91999996
   12.24944496  167.45899963    2.03999996    1.91999996
   12.25249958  173.06500244    2.03999996    1.94000006
   12.25583363  165.07099915    2.03999996    1.94000006
   12.25916672  178.54499817    2.01999998    1.94000006
   12.26500034  178.54499817    2.01999998    1.94000006
   12.26916599  206.91200256    2.00000000    1.96000004
   12.27250004  161.76800537    2.00000000    1.96000004
   12.27361107  161.12100220    1.98000002    1.96000004
   12.27611065  170.46200562    2.00000000    1.96000004
   12.27944374  152.43600464    2.00000000    1.96000004
   12.28277779  172.83000183    2.00000000    1.96000004
   12.28583336  194.10400391    2.01999998    1.96000004
   12.28916740  184.77299500    2.00000000    1.98000002
   12.29250050  169.36399841    2.01999998    1.98000002
   12.29555607  157.90800476    2.00000000    1.98000002
   12.29888916  163.19099426    2.00000000    1.98000002
   12.30194473  162.70599365    1.98000002    1.98000002
   12.30805588  162.70599365    1.98000002    1.98000002
   12.31222248  155.11599731    1.96000004    1.98000002
   12.31527805  168.61999512    1.96000004    1.98000002
   12.31861115  156.07499695    1.96000004    1.98000002
   12.32194424  156.43699646    1.94000006    2.00000000
   12.32499981  190.52900696    1.96000004    2.00000000
   12.32833290  158.13299561    1.94000006    2.00000000
   12.33138847  164.27400208    1.94000006    2.00000000
   12.33472157  176.04299927    1.94000006    2.00000000
   12.33805561  174.70799255    1.91999996    2.00000000
   12.34027767  181.39500427    1.91999996    2.00000000
   12.34138870  160.55599976    1.91999996    2.01999998
   12.34472179  163.41200256    1.91999996    2.00000000
   12.35083389  163.41200256    1.88000000    2.01999998
   12.35500050  174.83599854    1.88000000    2.01999998
   12.35805607  155.74200439    1.88000000    2.01999998
   12.36138916  165.01899719    1.88000000    2.01999998
   12.36472225  168.23699951    1.88000000    2.01999998
   12.36777782  168.73599243    1.86000001    2.01999998
   12.37111092  173.59800720    1.86000001    2.01999998
   12.37361145  168.80099487    1.86000001    2.01999998
   12.37472248  180.88200378    1.86000001    2.01999998
   12.37805557  157.51300049    1.85000002    2.03999996
   12.38138866  164.61099243    1.86000001    2.03999996
   12.38444424  165.05299377    1.85000002    2.03999996
   12.38777733  163.69599915    1.85000002    2.03999996
   12.39361095  163.69599915    1.85000002    2.05999994
   12.39777756  160.11199951    1.85000002    2.05999994
   12.40111065  151.36999512    1.83000004    2.05999994
   12.40416622  179.78399658    1.85000002    2.03999996
   12.40694427  171.24699402    1.83000004    2.05999994
   12.40805531  168.60600281    1.83000004    2.05999994
   12.41111088  171.32899475    1.80999994    2.05999994
   12.41444397  161.14100647    1.80999994    2.05999994
   12.41750050  164.15699768    1.80999994    2.05999994
   12.42083359  164.89500427    1.80999994    2.05999994
   12.42416668  161.26699829    1.80999994    2.07999992
   12.42722225  161.46699524    1.78999996    2.05999994
   12.43055630  175.79499817    1.78999996    2.07999992
   12.43638897  175.79499817    1.78999996    2.07999992
   12.44055557  164.31599426    1.78999996    2.07999992
   12.44388866  164.66299438    1.76999998    2.07999992
   12.44722271  160.20199585    1.75000000    2.07999992
   12.45027733  185.00500488    1.75000000    2.07999992
   12.45361137  163.21400452    1.75000000    2.07999992
   12.45666695  161.94799805    1.73000002    2.07999992
   12.46000004  155.36399841    1.73000002    2.07999992
   12.46333313  166.52099609    1.73000002    2.07999992
   12.46638870  152.04499817    1.73000002    2.09999990
   12.46972179  162.18899536    1.71000004    2.09999990
   12.47305489  153.25000000    1.71000004    2.09999990
   12.47361088  152.21699524    1.71000004    2.09999990
   12.47944355  152.21699524    1.69000006    2.09999990
   12.48361111  154.32600403    1.69000006    2.09999990
   12.48666668  150.83399963    1.66999996    2.09999990
   12.49000072  164.58500671    1.69000006    2.09999990
   12.49305534  153.29100037    1.69000006    2.09999990
   12.49638939  148.24200439    1.66999996    2.11999989
   12.49972248  151.58900452    1.66999996    2.11999989
   12.50305557  159.57699585    1.66999996    2.11999989
   12.50611115  152.42399597    1.66999996    2.11999989
   12.50694466  170.78700256    1.66999996    2.11999989
   12.51000023  172.33500671    1.66999996    2.11999989
   12.51305580  166.59800720    1.66999996    2.11999989
   12.51638889  159.73399353    1.66999996    2.11999989
   12.52222157  159.73399353    1.66999996    2.11999989
   12.52638817  177.58200073    1.64999998    2.11999989
   12.52944374  166.63200378    1.64999998    2.11999989
   12.53277779  156.24400330    1.64999998    2.11999989
   12.53611183  165.58099365    1.63000000    2.11999989
   12.53916740  179.86500549    1.63000000    2.13000011
   12.54027843  173.63400269    1.61000001    2.13000011
   12.54305553  176.56599426    1.61000001    2.13000011
   12.54611111  169.72799683    1.61000001    2.13000011
   12.54944515  170.30700684    1.61000001    2.13000011
   12.55249977  161.44400024    1.61000001    2.13000011
   12.55583382  154.14300537    1.60000002    2.15000010
   12.55916691  148.35000610    1.60000002    2.13000011
   12.56500053  148.35000610    1.60000002    2.15000010
   12.56916618  148.90400696    1.60000002    2.15000010
   12.57250023  160.14799500    1.58000004    2.15000010
   12.57361126  165.96000671    1.58000004    2.15000010
   12.57611084  160.41600037    1.58000004    2.15000010
   12.57916641  167.48100281    1.58000004    2.15000010
   12.58249950  156.76400757    1.55999994    2.15000010
   12.58555508  163.07000732    1.55999994    2.15000010
   12.58888817  159.22399902    1.55999994    2.15000010
   12.59222221  160.37199402    1.53999996    2.15000010
   12.59527779  169.03900146    1.53999996    2.15000010
   12.59861088  151.74899292    1.53999996    2.15000010
   12.60194492  165.72200012    1.51999998    2.15000010
   12.60777855  165.72200012    1.51999998    2.17000008
   12.61194515  148.02200317    1.50000000    2.15000010
   12.61527824  143.92500305    1.50000000    2.15000010
   12.61861134  152.30900574    1.50000000    2.15000010
   12.62166691  154.25599670    1.50000000    2.17000008
   12.62500000  144.53599548    1.48000002    2.17000008
   12.62805557  146.13099670    1.48000002    2.17000008
   12.63138866  147.87600708    1.48000002    2.17000008
   12.63472176  149.50399780    1.48000002    2.17000008
   12.63777733  153.72300720    1.48000002    2.17000008
   12.64027786  153.92500305    1.48000002    2.17000008
   12.64166641  154.32800293    1.48000002    2.17000008
   12.64472198  154.30200195    1.48000002    2.17000008
   12.65083313  154.30200195    1.48000002    2.17000008
   12.65499973  156.16200256    1.48000002    2.17000008
   12.65805531  149.41299438    1.48000002    2.17000008
   12.66138840  158.54600525    1.48000002    2.17000008
   12.66444397  151.48899841    1.48000002    2.17000008
   12.66777802  150.58099365    1.48000002    2.19000006
   12.67111111  163.21800232    1.48000002    2.19000006
   12.67361164  166.71000671    1.48000002    2.19000006
   12.67472267  156.00799561    1.48000002    2.19000006
   12.67777824  163.58599854    1.48000002    2.19000006
   12.68111134  153.72599792    1.46000004    2.19000006
   12.68444443  154.28199768    1.46000004    2.19000006
   12.68750000  153.11399841    1.46000004    2.19000006
   12.69361115  153.11399841    1.46000004    2.19000006
   12.69777775  157.72200012    1.44000006    2.21000004
   12.70083332  145.55000305    1.44000006    2.21000004
   12.70416641  154.69900513    1.44000006    2.21000004
   12.70694447  150.40499878    1.41999996    2.21000004
   12.70805550  155.13900757    1.41999996    2.21000004
   12.71111107  157.03599548    1.41999996    2.21000004
   12.71444416  155.49600220    1.41999996    2.21000004
   12.71777725  160.71800232    1.41999996    2.21000004
   12.72083282  161.91700745    1.41999996    2.21000004
   12.72416592  162.52000427    1.39999998    2.21000004
   12.72722149  155.13800049    1.39999998    2.23000002
   12.73055553  158.16499329    1.39999998    2.21000004
   12.73638916  158.16499329    1.39999998    2.23000002
   12.74055576  152.17799377    1.38000000    2.21000004
   12.74388885  160.43499756    1.38000000    2.23000002
   12.74694443  157.40299988    1.38000000    2.23000002
   12.75027752  161.39799500    1.38000000    2.23000002
   12.75361156  156.22399902    1.38000000    2.23000002
   12.75666714  161.91900635    1.38000000    2.23000002
   12.76000023  158.79899597    1.38000000    2.23000002
   12.76333332  156.77999878    1.38000000    2.23000002
   12.76638889  161.46499634    1.36000001    2.23000002
   12.76972198  159.00700378    1.36000001    2.23000002
   12.77277756  157.47300720    1.36000001    2.23000002
   12.77361107  148.85400391    1.36000001    2.23000002
   12.77916622  148.85400391    1.36000001    2.23000002
   12.78333378  153.89100647    1.34000003    2.23000002
   12.78666687  149.20500183    1.36000001    2.23000002
   12.78972244  150.98500061    1.34000003    2.23000002
   12.79305553  163.27999878    1.34000003    2.23000002
   12.79638958  148.29400635    1.34000003    2.25000000
   12.79944515  150.80999756    1.34000003    2.25000000
   12.80277824  157.32699585    1.34000003    2.25000000
   12.80611134  165.19400024    1.33000004    2.25000000
   12.80694485  158.57200623    1.33000004    2.25000000
   12.80972195  157.68499756    1.33000004    2.25000000
   12.81277752  162.85499573    1.33000004    2.25000000
   12.81611156  154.41099548    1.33000004    2.25000000
   12.82222176  154.41099548    1.33000004    2.25000000
   12.82611084  157.52699280    1.30999994    2.25000000
   12.82944393  156.45100403    1.30999994    2.25000000
   12.83277798  154.05099487    1.30999994    2.25000000
   12.83611107  150.02499390    1.30999994    2.25000000
   12.83916664  155.15499878    1.30999994    2.25000000
   12.84027767  154.39300537    1.30999994    2.25000000
   12.84305477  152.75399780    1.30999994    2.25000000
   12.84611034  158.28700256    1.28999996    2.26999998
   12.84944439  147.93699646    1.28999996    2.25000000
   12.85277843  151.05400085    1.28999996    2.26999998
   12.85583401  154.54499817    1.28999996    2.26999998
   12.85916710  164.00100708    1.28999996    2.26999998
   12.88027763  164.00100708    1.28999996    2.26999998
   12.88444424  160.11999512    1.28999996    2.26999998
   12.88777733  154.49099731    1.28999996    2.26999998
   12.89083290  148.59100342    1.28999996    2.26999998
   12.89416695  149.32800293    1.28999996    2.28999996
   12.89750004  156.46000671    1.28999996    2.26999998
   12.90055561  155.57600403    1.28999996    2.28999996
   12.90388870  151.91999817    1.26999998    2.28999996
   12.90694427  149.73599243    1.26999998    2.28999996
   12.91027737  165.45399475    1.26999998    2.28999996
   12.91111088  155.42799377    1.26999998    2.28999996
   12.91388893  163.41900635    1.26999998    2.28999996
   12.91694450  146.01600647    1.26999998    2.28999996
   12.92305565  146.01600647    1.25000000    2.28999996
   12.92722225  153.08000183    1.25000000    2.28999996
   12.93055630  148.70100403    1.25000000    2.28999996
   12.93361092  156.35000610    1.25000000    2.28999996
   12.93694496  154.97700500    1.23000002    2.28999996
   12.94000053  156.06799316    1.23000002    2.28999996
   12.94333363  157.83700562    1.23000002    2.30999994
   12.94444466  162.98100281    1.23000002    2.30999994
   12.94694424  149.25000000    1.23000002    2.28999996
   12.95027733  169.16000366    1.23000002    2.28999996
   12.95361137  157.21200562    1.23000002    2.28999996
   12.95666695  156.03500366    1.23000002    2.30999994
   12.96000004  145.78700256    1.25000000    2.30999994
   12.96583271  145.78700256    1.25000000    2.30999994
   12.96999931  166.21000671    1.23000002    2.30999994
   12.97333336  170.12600708    1.23000002    2.30999994
   12.97638798  179.98599243    1.23000002    2.30999994
   12.97805500  167.33099365    1.23000002    2.30999994
   12.97999954  189.07600403    1.23000002    2.30999994
   12.98333359  165.58599854    1.23000002    2.30999994
   12.98666668  180.02000427    1.23000002    2.30999994
   12.98972225  177.56700134    1.23000002    2.30999994
   12.99305534  176.86999512    1.21000004    2.30999994
   12.99638939  178.87500000    1.21000004    2.30999994
   12.99944496  175.37100220    1.19000006    2.30999994
   13.00277805  178.23199463    1.19000006    2.30999994
   13.00861073  178.23199463    1.19000006    2.32999992
   13.01277733  196.13999939    1.19000006    2.32999992
   13.01611137  198.24899292    1.19000006    2.30999994
   13.01944447  190.63800049    1.19000006    2.32999992
   13.02250004  172.37199402    1.19000006    2.32999992
   13.02583313  205.75599670    1.16999996    2.32999992
   13.02916622  193.36599731    1.16999996    2.30999994
   13.03222179  185.15699768    1.16999996    2.32999992
   13.03555584  188.21600342    1.19000006    2.32999992
   13.03861141  181.66799927    1.19000006    2.32999992
   13.04194450  168.44799805    1.19000006    2.32999992
   13.04472256  193.19999695    1.19000006    2.32999992
   13.04555607  180.27499390    1.23000002    2.32999992
   13.05166721  180.27499390    1.83000004    2.32999992
   13.05583382  193.89700317    4.38999987    2.34999990
   13.05888939  193.94700623    4.90999985    2.34999990
   13.06222248  122.79199982    4.90999985    2.28999996
   13.06555557  181.09399414    4.90999985    1.83000004
   13.06861115  169.58599854    4.90999985    2.34999990
   13.07194424  182.08000183    3.66000009    2.32999992
   13.07499981  185.36199951    1.19000006    2.32999992
   13.07805538  195.88200378    1.19000006    2.32999992
   13.07861137  161.08599854    1.16999996    2.32999992
   13.08194447  167.47300720    1.16999996    2.32999992
   13.08527756  178.82699585    1.16999996    2.32999992
   13.08833313  174.74899292    1.14999998    2.34999990
   13.09444427  174.74899292    1.19000006    2.34999990
   13.09861088  161.42100525    1.23000002    2.34999990
   13.10194492  158.30700684    1.23000002    2.32999992
   13.10500050  160.45500183    1.23000002    2.34999990
   13.10833359  169.51199341    1.16999996    2.34999990
   13.11138916  157.20899963    1.14999998    2.34999990
   13.11222267  156.88699341    1.14999998    2.34999990
   13.11527824  161.11799622    1.14999998    2.34999990
   13.11861134  168.48599243    1.16999996    2.34999990
   13.12166691  189.19500732    1.63000000    2.34999990
   13.12500000  186.72399902    3.30999994    2.34999990
   13.12833309  256.54699707    4.90999985    2.39000010
   13.13138866  168.70899963    4.90999985    1.48000002
   13.13722229  168.70899963    4.90999985    2.09999990
   13.14138889  161.53399658    4.90999985    2.40000010
   13.14472198  169.31199646    4.90999985    2.39000010
   13.14527798  164.78900146    4.90999985    2.40000010
   13.14833355  156.22000122    4.71999979    2.36999989
   13.15166664  163.62800598    2.03999996    2.36999989
   13.15472221  159.97700500    1.09000003    2.34999990
   13.15805531  161.49899292    1.07000005    2.34999990
   13.16138840  167.05900574    1.07000005    2.36999989
   13.16444397  156.75900269    1.09000003    2.36999989
   13.16777802  147.72200012    1.07000005    2.36999989
   13.17111111  153.16200256    1.07000005    2.36999989
   13.17416668  157.64799500    1.07000005    2.36999989
   13.18000031  157.64799500    1.07000005    2.36999989
   13.18416691  154.90299988    1.07000005    2.36999989
   13.18750000  154.33900452    1.07000005    2.36999989
   13.19083309  150.14700317    1.07000005    2.36999989
   13.19388866  152.80099487    1.07000005    2.36999989
   13.19722271  156.02999878    1.07000005    2.36999989
   13.20055580  152.25999451    1.91999996    2.39000010
   13.20361137  152.15499878    2.40000010    2.36999989
   13.20694447  244.37399292    4.26999998    2.28999996
   13.21027756  173.83099365    4.90999985    2.03999996
   13.21138859  170.59899902    4.90999985    2.09999990
   13.21388912  158.17900085    4.90999985    2.21000004
   13.21694374  149.62100220    4.90999985    2.25000000
   13.22305489  149.62100220    4.90999985    2.34999990
   13.22722149  158.83399963    4.90999985    2.32999992
   13.23027706  156.11000061    4.90999985    2.26999998
   13.23361111  148.51300049    4.90999985    2.36999989
   13.23666668  137.86000061    4.30999994    2.36999989
   13.24000072  151.97399902    2.75000000    2.39000010
   13.24333382  138.03100586    2.48000002    2.39000010
   13.24472237  140.88200378    2.57999992    2.39000010
   13.24694443  138.67599487    2.89000010    2.34999990
   13.25000000  130.02499390    3.46000004    2.30999994
   13.25333309  146.84800720    3.32999992    2.32999992
   13.25666714  133.77000427    2.28999996    2.34999990
   13.25972176  138.46200562    1.66999996    2.36999989
   13.26583290  138.46200562    1.50000000    2.39000010
   13.26999950  143.89900208    1.07000005    2.39000010
   13.27305508  139.48399353    1.01999998    2.39000010
   13.27638817  144.63000488    1.00000000    2.39000010
   13.27833271  140.85299683    1.01999998    2.39000010
   13.27999973  137.45399475    1.01999998    2.39000010
   13.28333378  133.60699463    1.01999998    2.39000010
   13.28638935  136.72999573    1.05999994    2.39000010
   13.28972244  139.51499939    1.07000005    2.39000010
   13.29305553  136.95399475    1.07000005    2.39000010
   13.29611111  136.02099609    1.05999994    2.40000010
   13.29944515  136.83000183    1.03999996    2.40000010
   13.30277824  136.94299316    1.03999996    2.40000010
   13.30861092  136.94299316    1.00000000    2.39000010
   13.31277752  140.77400208    0.95999998    2.40000010
   13.31611156  137.25500488    0.95999998    2.40000010
   13.31916618  133.46699524    0.95999998    2.40000010
   13.32250023  140.95599365    0.95999998    2.40000010
   13.32583332  135.86099243    0.95999998    2.40000010
   13.32888889  137.06199646    0.95999998    2.40000010
   13.33222198  138.01100159    0.98000002    2.40000010
   13.33527756  133.23100281    0.98000002    2.40000010
   13.33861065  136.83799744    0.98000002    2.40000010
   13.34194374  139.74000549    0.95999998    2.40000010
   13.34499931  131.91099548    1.01999998    2.40000010
   13.34555531  134.37899780    2.00000000    2.40000010
   13.35138893  134.37899780    4.90999985    2.42000008
   13.35555553  126.23200226    4.90999985    2.44000006
   13.35888958  136.93899536    4.90999985    2.42000008
   13.36194515  136.34899902    2.57999992    2.42000008
   13.36527824  131.10400391    1.34000003    2.42000008
   13.36861134  133.21000671    0.94000000    2.40000010
   13.37166691  137.83999634    0.92000002    2.40000010
   13.37500000  132.28599548    0.92000002    2.42000008
   13.37833309  134.08900452    0.92000002    2.40000010
   13.37861156  133.63400269    0.92000002    2.42000008
   13.38194466  129.66299438    0.92000002    2.42000008
   13.38500023  130.58599854    0.92000002    2.42000008
   13.38833332  132.12600708    0.92000002    2.42000008
   13.39444447  132.12600708    0.92000002    2.42000008
   13.39861107  135.37600708    0.92000002    2.42000008
   13.40166664  126.74400330    0.92000002    2.42000008
   13.40499973  142.60699463    0.92000002    2.42000008
   13.40805531  135.09399414    0.92000002    2.42000008
   13.41138840  131.48300171    0.92000002    2.42000008
   13.41194439  136.75000000    0.92000002    2.42000008
   13.41527748  129.65800476    0.89999998    2.42000008
   13.41833401  130.78599548    0.92000002    2.44000006
   13.42166710  132.97900391    0.92000002    2.42000008
   13.42472267  134.50199890    0.94000000    2.42000008
   13.42805576  129.48599243    0.98000002    2.42000008
   13.43138885  125.08300018    0.98000002    2.42000008
   13.43722248  125.08300018    0.98000002    2.42000008
   13.44138908  121.66300201    0.92000002    2.44000006
   13.44444466  133.66000366    0.92000002    2.42000008
   13.44527817  129.43600464    0.89999998    2.44000006
   13.44833374  135.48899841    0.89999998    2.42000008
   13.45138836  142.47999573    0.89999998    2.42000008
   13.45472240  136.83700562    0.88000000    2.44000006
   13.45805550  136.50799561    0.88000000    2.42000008
   13.46111107  134.43299866    0.88000000    2.44000006
   13.46444416  132.56300354    0.88000000    2.44000006
   13.46749973  134.36500549    0.88000000    2.44000006
   13.47083282  139.42100525    0.88000000    2.44000006
   13.47416592  130.95199585    0.86000001    2.44000006
   13.47999954  130.95199585    0.86000001    2.44000006
   13.48416710  130.07400513    0.86000001    2.44000006
   13.48750019  135.54400635    0.83999997    2.44000006
   13.49055576  138.41700745    0.86000001    2.44000006
   13.49388885  130.81500244    0.86000001    2.44000006
   13.49694443  129.46200562    0.83999997    2.46000004
   13.50027752  121.01999664    0.83999997    2.44000006
   13.50361156  129.52299500    0.81999999    2.44000006
   13.50666714  130.00399780    0.81999999    2.44000006
   13.51000023  132.39999390    0.83999997    2.46000004
   13.51194477  122.59999847    0.81999999    2.44000006
   13.51388931  143.35200500    0.81999999    2.46000004
   13.51694393  134.48100281    0.81999999    2.44000006
   13.52277756  134.48100281    0.81999999    2.44000006
   13.52694416  137.02999878    0.81999999    2.44000006
   13.53027725  135.91600037    0.80000001    2.46000004
   13.53361130  133.23699951    0.80000001    2.46000004
   13.53666687  140.44000244    0.80000001    2.46000004
   13.54000092  136.75999451    0.80000001    2.46000004
   13.54305553  133.09500122    0.80000001    2.46000004
   13.54527855  134.69299316    0.80000001    2.46000004
   13.54694462  136.36700439    0.80000001    2.46000004
   13.55000019  143.19599915    0.80000001    2.46000004
   13.55333328  135.88800049    0.80000001    2.46000004
   13.55638885  128.63499451    0.80000001    2.46000004
   13.55972195  140.54299927    0.80000001    2.46000004
   13.56583309  140.54299927    0.80000001    2.46000004
   13.56972218  134.91299438    0.80000001    2.46000004
   13.67694473   -1.00000000   -1.00000000   -1.00000000
   13.77111053   -1.00000000   -1.00000000   -1.00000000
   13.86694431   -1.00000000   -1.00000000   -1.00000000
   13.89472198  138.67799377    4.90999985    2.57999992
   13.89777756  183.18200684    4.90999985    2.26999998
   13.90111065  146.54400635    4.90999985    2.48000002
   13.90444374  167.55599976    4.90999985    2.48000002
   13.90749931  209.73500061    4.90999985    2.55999994
   13.91083336  166.48300171    2.59999990    2.51999998
   13.91499996  166.48300171    1.88000000    2.40000010
   13.91916656  186.13099670    3.53999996    2.48000002
   13.92222214  204.05900574    4.90999985    2.50000000
   13.92555618  180.50999451    4.90999985    2.50000000
   13.92777824  196.42199707    4.90999985    2.50000000
   13.92916679  198.99299622    4.90999985    2.51999998
   13.93249989  194.44299316    4.90999985    2.51999998
   13.93555546  173.94999695    1.51999998    2.51999998
   13.93888855  182.78900146    2.05999994    2.50000000
   13.94222260  196.75999451    4.90999985    2.50000000
   13.94527817  131.46699524    4.90999985    2.50000000
   13.94861126  168.36399841    4.90999985    2.50000000
   13.95166683  200.45100403    4.90999985    2.48000002
   13.95777798  200.45100403    4.05999994    2.46000004
   13.96194458  204.55999756    3.93000007    2.40000010
   13.96527767  169.32600403    4.90999985    2.46000004
   13.96833324  192.17300415    4.90999985    2.39000010
   13.97166634  146.49299622    4.90999985    2.28999996
   13.97472191  228.71400452    4.90999985    2.26999998
   13.97805500  119.13600159    4.90999985    2.36999989
   13.98138809  162.13200378    4.73999977    2.48000002
   13.98444462  165.44200134    4.90999985    2.53999996
   13.98777771  185.54100037    4.90999985    2.48000002
   13.99111176  207.57800293    4.90999985    2.34999990
   13.99416733  164.54600525    3.93000007    2.51999998
   13.99472237  145.90100098    3.34999990    2.51999998
   14.00055599  145.90100098    1.71000004    2.51999998
   14.00472260  180.06599426    1.58000004    2.48000002
   14.00805569  180.11099243    1.69000006    2.51999998
   14.01138878  176.65600586    1.73000002    2.51999998
   14.01444435  160.68699646    2.17000008    2.50000000
   14.01777744  154.83599854    2.46000004    2.50000000
   14.02083302  160.46800232    4.03999996    2.46000004
   14.02416611  173.67799377    4.36999989    2.44000006
   14.02750015  138.58399963    4.90999985    2.36999989
   14.02805519  125.03399658    4.90999985    2.39000010
   14.03111076  142.99600220    4.90999985    2.48000002
   14.03416729  147.22500610    3.50000000    2.48000002
   14.03750038  125.29299927    2.89000010    2.48000002
   14.04361153  125.29299927    2.39000010    2.48000002
   14.04750061  161.73699951    2.28999996    2.48000002
   14.05083370  152.96699524    2.25000000    2.50000000
   14.05416679  145.60699463    2.28999996    2.48000002
   14.05722237  151.80799866    2.40000010    2.50000000
   14.06055546  145.60800171    2.26999998    2.50000000
   14.06138897  144.20399475    2.25000000    2.51999998
   14.06416702  144.91400146    2.11999989    2.51999998
   14.06722260  125.13099670    1.89999998    2.50000000
   14.07055569  120.83399963    1.85000002    2.50000000
   14.07388878  146.44000244    1.76999998    2.51999998
   14.07694435  138.69799805    1.64999998    2.51999998
   14.08027744  163.20599365    1.64999998    2.51999998
   14.08638859  163.20599365    1.66999996    2.51999998
   14.09055519  147.47399902    1.73000002    2.51999998
   14.09361076  148.44299316    1.76999998    2.50000000
   14.09472179  138.64599609    1.76999998    2.50000000
   14.09749985  134.95799255    2.26999998    2.50000000
   14.10055637  163.00799561    2.59999990    2.50000000
   14.10388947  135.31700134    3.11999989    2.46000004
   14.10722256  127.63200378    4.90999985    2.46000004
   14.11027813  141.67300415    4.90999985    2.44000006
   14.11361122  143.37600708    4.90999985    2.46000004
   14.11694431  132.24699402    4.88999987    2.46000004
   14.11999989  135.21600342    4.90999985    2.46000004
   14.12333393  130.19799805    4.32999992    2.39000010
   14.12916660  130.19799805    3.28999996    2.48000002
   14.13333321  133.21899414    3.23000002    2.48000002
   14.13666630  134.46600342    3.53999996    2.50000000
   14.13972187  131.10699463    3.84999990    2.50000000
   14.14305496  124.99099731    3.89000010    2.51999998
   14.14611053  129.30599976    3.70000005    2.50000000
   14.14944458  137.04600525    3.84999990    2.48000002
   14.15277767  139.53700256    4.32999992    2.50000000
   14.15583324  128.02600098    4.90999985    2.48000002
   14.15916634  143.19599915    4.90999985    2.46000004
   14.16138840  124.39199829    4.90999985    2.48000002
   14.16277695  132.45300293    4.90999985    2.48000002
   14.16583252  150.15499878    4.90999985    2.42000008
   14.17194462  150.15499878    4.90999985    2.34999990
   14.17611122  148.62899780    4.90999985    2.26999998
   14.17944431  162.80999756    4.90999985    2.25000000
   14.18249989  148.29400635    4.90999985    2.30999994
   14.18583298  141.18400574    4.90999985    2.26999998
   14.18916702  139.14900208    4.90999985    2.32999992
   14.19222260  134.35000610    4.90999985    2.40000010
   14.19472218  138.08799744    4.90999985    2.48000002
   14.19611073  129.00399780    4.90999985    2.50000000
   14.19916630  154.03900146    4.90999985    2.51999998
   14.20249939   48.24800110    4.90999985    1.14999998
   14.20583344  152.91000366    4.90999985    1.33000004
   14.20888901  141.44500732    4.90999985    2.46000004
   14.21500015  141.44500732    4.90999985    2.25000000
   14.21888828   -1.00000000    4.90999985    2.19000006
   14.22222137  120.68199921    4.90999985    0.69000000
   14.22555542  156.48599243    4.90999985    1.50000000
   14.22805500  229.63499451    4.90999985    1.48000002
   14.22916603  134.98500061    4.90999985    2.40000010
   14.23222160  154.22799683    4.90999985    2.40000010
   14.23555565  141.74400330    4.90999985    2.44000006
   14.23888874  133.56500244    4.90999985    2.44000006
   14.24222279  136.45199585    4.90999985    2.44000006
   14.24527836  134.16700745    4.90999985    2.42000008
   14.24861145  134.07600403    4.90999985    2.46000004
   14.25166702  130.17300415    4.90999985    2.46000004
   14.25777817  130.17300415    4.90999985    2.42000008
   14.26194477  141.01199341    4.90999985    2.42000008
   14.26500034  135.57499695    4.90999985    2.42000008
   14.26833344  130.51300049    4.90999985    2.44000006
   14.27166653  133.20899963    4.90999985    2.46000004
   14.27472210  133.26600647    4.80999994    2.46000004
   14.27805519  137.83500671    4.88999987    2.44000006
   14.28111076  138.71600342    4.90999985    2.44000006
   14.28444481  145.77299500    4.90999985    2.40000010
   14.28777790  137.87600708    4.90999985    2.42000008
   14.29083347  146.85000610    4.90999985    2.42000008
   14.29416752  134.69700623    4.90999985    2.46000004
   14.29472256  226.90699768    4.90999985    2.46000004
   14.30472279   -1.00000000    4.90999985    0.92000002
   14.30777836   -1.00000000    4.90999985    0.61000001
   14.31111145  165.80400085    4.90999985    1.07000005
   14.31416702  165.18400574    4.90999985    2.26999998
   14.31750011  135.66499329    4.90999985    2.42000008
   14.32083321  127.24600220    4.90999985    2.50000000
   14.32388878  142.70500183    4.90999985    2.48000002
   14.32722187  132.42300415    3.59999990    2.50000000
   14.32805538  127.38800049    3.39000010    2.50000000
   14.33083344  135.35800171    3.11999989    2.50000000
   14.33416653  139.47300720    2.93000007    2.50000000
   14.33722210  125.56600189    2.84999990    2.50000000
   14.34333324  125.56600189    2.55999994    2.51999998
   14.34749985  128.42300415    2.30999994    2.51999998
   14.35083389  127.34600067    2.32999992    2.51999998
   14.35416698  125.71499634    2.28999996    2.53999996
   14.35722256  136.35600281    2.28999996    2.51999998
   14.36055565  132.89700317    2.36999989    2.51999998
   14.36138916  144.07800293    2.39000010    2.53999996
   14.36416721  128.96499634    2.36999989    2.53999996
   14.36750031  131.74099731    2.25000000    2.53999996
   14.37055588  134.45599365    2.21000004    2.51999998
   14.37388897  120.13500214    2.11999989    2.53999996
   14.37694454  116.97399902    2.19000006    2.53999996
   14.38027763  127.17500305    2.05999994    2.53999996
   14.38638878  127.17500305    1.75000000    2.53999996
   14.39027786  131.39300537    1.71000004    2.53999996
   14.39361095  131.68200684    1.64999998    2.53999996
   14.39472198  145.02999878    1.69000006    2.53999996
   14.39722252  117.54299927    1.69000006    2.53999996
   14.40055561  132.88200378    1.75000000    2.53999996
   14.40361118  124.37999725    1.71000004    2.53999996
   14.40694427  136.46800232    1.73000002    2.53999996
   14.40999985  121.27999878    1.86000001    2.53999996
   14.41333294  145.67100525    2.19000006    2.53999996
   14.41666698  131.03300476    1.94000006    2.53999996
   14.41972256  136.24600220    1.86000001    2.55999994
   14.42305565  127.19599915    1.86000001    2.55999994
   14.42916679  127.19599915    1.64999998    2.55999994
   14.43333340  132.46600342    1.88000000    2.55999994
   14.43638897  130.36500549    2.21000004    2.55999994
   14.43972206  138.76300049    3.26999998    2.55999994
   14.44305515  152.55000305    4.42999983    2.39000010
   14.44611073  141.36700439    4.90999985    2.44000006
   14.44944477  122.26200104    4.88999987    2.48000002
   14.45249939  134.62600708    4.23999977    2.51999998
   14.45583344  144.84399414    4.11999989    2.51999998
   14.45916653  124.83399963    4.07999992    2.50000000
   14.46138859  141.16499329    4.13999987    2.50000000
   14.46277714  121.15599823    4.07999992    2.48000002
   14.46611118  127.27700043    4.00000000    2.50000000
   14.47194386  127.27700043    4.26999998    2.50000000
   14.47611046  132.63200378    4.53999996    2.53999996
   14.47944355  124.32700348    4.90999985    2.51999998
   14.48249912  138.17799377    4.90999985    2.46000004
   14.48583317  137.40699768    4.90999985    2.46000004
   14.48888874  128.11900330    4.90999985    2.42000008
   14.49222279  136.36799622    4.90999985    2.46000004
   14.49472237  135.70199585    4.90999985    2.36999989
   14.49583340  152.52000427    4.90999985    2.32999992
   14.49916649  184.10000610    4.90999985    2.39000010
   14.50222206  187.60000610    4.90999985    2.15000010
   14.50555515  180.40699768    4.90999985    2.11999989
   14.50861073  182.84700012    4.90999985    2.25000000
   14.51472187  182.84700012    4.90999985    2.01999998
   14.51888847  137.25599670    4.90999985    2.25000000
   14.52222157  145.44200134    4.90999985    2.32999992
   14.52527714  166.36500549    4.90999985    2.30999994
   14.52916622   -1.00000000    4.90999985    1.66999996
   14.53222179   -1.00000000    4.90999985    1.30999994
   14.53555584   -1.00000000    4.90999985    0.63000000
   14.53888893   -1.00000000    4.90999985    0.46000001
   14.54194450   -1.00000000    4.90999985    0.47999999
   14.54527855   -1.00000000    4.90999985    0.46000001
   14.54833412   -1.00000000    4.90999985    0.40000001
   14.55166721   -1.00000000    4.90999985    0.70999998
   14.55777836   -1.00000000    4.90999985    2.01999998
   14.56166649  162.30400085    4.90999985    2.15000010
   14.56500053  161.10299683    4.90999985    2.13000011
   14.56833363  209.03100586    4.90999985    2.23000002
   14.57138920  170.50300598    4.90999985    2.17000008
   14.57472229  234.74299622    4.90999985    2.17000008
   14.57805538   -1.00000000    4.90999985    1.94000006
   14.58111095   -1.00000000    4.90999985    1.39999998
   14.58444405   -1.00000000    4.90999985    1.00000000
   14.58749962   -1.00000000    4.90999985    0.83999997
   14.59083271   -1.00000000    4.90999985    1.14999998
   14.59416676   -1.00000000    4.90999985    1.21000004
   14.60444450   -1.00000000    4.90999985    0.55000001
   14.60777855   -1.00000000    4.90999985    0.50000000
   14.61111164   -1.00000000    4.90999985    0.47999999
   14.61416721   -1.00000000    4.90999985    0.44000000
   14.61750031   -1.00000000    4.90999985    0.47999999
   14.62083340   -1.00000000    4.90999985    0.50000000
   14.62388897   -1.00000000    4.90999985    0.69000000
   14.62722206   -1.00000000    4.90999985    0.69000000
   14.63083363   -1.00000000    4.90999985    0.63000000
   14.63388920   -1.00000000    4.90999985    0.55000001
   14.63722229   -1.00000000    4.90999985    0.51999998
   14.64750004   -1.00000000    4.90999985    0.69000000
   14.65055561   -1.00000000    4.90999985    0.81999999
   14.65388870   -1.00000000    4.90999985    0.83999997
