    HOUR (UT)   FLARE FACTOR    SKY TESTER    SUN TESTER
   12.73861122   -1.00000000   -1.00000000   -1.00000000
   13.55555534   89.17109680    4.90999985    2.48000002
   13.55861092   86.07160187    4.90999985    2.53999996
   13.56194496   91.80090332    4.90999985    2.55999994
   13.56527805  103.72799683    4.90999985    2.53999996
   13.56833363   91.50839996    4.90999985    2.40000010
   13.57166672   98.43669891    4.90999985    2.39000010
   13.57583332   98.43669891    4.90999985    2.28999996
   13.57999992  100.95999908    4.90999985    2.28999996
   13.58305550  109.76200104    4.90999985    2.34999990
   13.58638859  111.49700165    4.90999985    2.19000006
   13.58888817  105.71399689    4.90999985    2.11999989
   13.59000015  126.58399963    4.90999985    2.19000006
   13.59333324  116.80200195    4.90999985    2.19000006
   13.59666634  124.94899750    4.90999985    2.05999994
   13.59972191  172.94700623    4.90999985    1.75000000
   13.60305595  145.57200623    4.90999985    1.88000000
   13.60611153  142.98800659    4.90999985    1.88000000
   13.60944462   -1.00000000    4.90999985    1.75000000
   13.61277771   -1.00000000    4.90999985    1.55999994
   13.61861134   -1.00000000    4.90999985    1.38000000
   13.62277794  125.51399994    4.90999985    1.48000002
   13.62611103  119.17600250    4.90999985    1.96000004
   13.62916660  112.41500092    4.90999985    2.25000000
   13.63249969  109.40799713    4.90999985    2.25000000
   13.63555527   94.90940094    4.90999985    2.39000010
   13.63888836   90.21679688    4.90999985    2.55999994
   13.64222240   85.11769867    4.90999985    2.55999994
   13.64527798   97.25630188    4.90999985    2.51999998
   13.64861107   96.44400024    4.90999985    2.50000000
   13.65194416   89.02059937    4.21999979    2.50000000
   13.65499973   88.58509827    3.76999998    2.48000002
   13.65555477   97.98370361    3.76999998    2.48000002
   13.66138840   97.98370361    4.80000019    2.36999989
   13.66555500  122.03500366    4.90999985    2.28999996
   13.66888905  113.53600311    4.90999985    2.17000008
   13.67194462  114.23000336    4.90999985    2.19000006
   13.67527771  108.43099976    4.90999985    2.11999989
   13.67861176  134.85699463    4.90999985    2.13000011
   13.68166733   76.72309875    4.90999985    1.96000004
   13.68500042  113.42700195    4.90999985    1.80999994
   13.68833351  196.84199524    4.90999985    2.09999990
   13.68888855  161.03999329    4.90999985    2.01999998
   13.69194412  182.72900391    4.90999985    1.88000000
   13.69499969  139.14599609    4.90999985    1.85000002
   13.69833374   -1.00000000    4.90999985    1.71000004
   13.70444393   -1.00000000    4.90999985    1.83000004
   13.70833302   -1.00000000    4.90999985    1.69000006
   13.71222210   -1.00000000    4.90999985    1.51999998
   13.71555519   -1.00000000    4.90999985    1.41999996
   13.71888828   -1.00000000    4.90999985    1.48000002
   13.72194386   -1.00000000    4.90999985    1.50000000
   13.72555542   -1.00000000   -1.00000000   -1.00000000
   13.72888851  261.08099365    4.90999985    1.66999996
   13.73222160  196.01800537    4.90999985    1.83000004
   13.73527813  143.00900269    4.90999985    1.88000000
   13.73861122  159.48300171    4.90999985    1.86000001
   13.74194431  192.61300659    4.90999985    1.88000000
   13.74722290  192.61300659    4.90999985    2.07999992
   13.75138855   98.23660278    4.90999985    2.21000004
   13.75444412   96.52719879    4.90999985    2.28999996
   13.75583363  100.83999634    4.90999985    2.25000000
   13.75833321  105.97299957    4.90999985    2.19000006
   13.76138878  198.73100281    4.90999985    2.03999996
   13.76472187  113.52999878    4.90999985    1.78999996
   13.76805496  118.51300049    4.90999985    1.89999998
   13.77111053  119.49500275    4.90999985    2.01999998
   13.77444458  114.94499969    4.90999985    2.13000011
   13.77750015   99.90750122    4.90999985    2.19000006
   13.78083324   92.69879913    4.90999985    2.42000008
   13.78416729  107.76300049    4.90999985    2.39000010
   13.79000092  107.76300049    4.90999985    1.75000000
   13.79416752   -1.00000000    4.90999985    1.53999996
   13.79750061   -1.00000000    4.90999985    1.38000000
   13.80055618   -1.00000000    4.90999985    1.34000003
   13.80388927   -1.00000000    4.90999985    1.60000002
   13.80694485   -1.00000000    4.90999985    1.61000001
   13.81027794   -1.00000000    4.90999985    1.51999998
   13.81361103   -1.00000000    4.90999985    1.41999996
   13.81666660   -1.00000000    4.90999985    1.33000004
   13.81999969   -1.00000000    4.90999985    1.28999996
   13.82333374   -1.00000000    4.90999985    1.23000002
   13.82666683   -1.00000000    4.90999985    1.34000003
   13.83277798   -1.00000000    4.90999985    1.60000002
   13.83694458  148.44999695    4.90999985    1.91999996
   13.84027767   -1.00000000    4.90999985    1.80999994
   13.84333324  181.74800110    4.90999985    1.63000000
   13.84666634  144.80499268    4.90999985    1.88000000
   13.85000038  106.02500153    4.90999985    2.13000011
   13.85305595  106.01599884    4.90999985    2.26999998
   13.85583401   90.68869781    4.90999985    2.30999994
   13.85694504   94.69580078    4.90999985    2.39000010
   13.86000061  101.94899750    4.90999985    2.39000010
   13.86333370  103.14199829    4.90999985    2.23000002
   13.86666679  107.95899963    4.90999985    2.19000006
   13.86972237  110.24800110    4.90999985    2.17000008
   13.87583351  110.24800110    4.90999985    2.01999998
   13.87972260  124.39199829    4.90999985    1.96000004
   13.88305569  169.41600037    4.90999985    1.78999996
   13.88638878  202.05900574    4.90999985    1.75000000
   13.88916683  146.48599243    4.90999985    1.86000001
   13.89000034  138.35899353    4.90999985    1.91999996
   13.89305496  121.72299957    4.90999985    2.05999994
   13.89638901   98.79250336    4.90999985    2.17000008
   13.89972210   98.22260284    4.90999985    2.28999996
   13.90277767   90.88590240    4.90999985    2.28999996
   13.90611076   92.14459991    4.90999985    2.39000010
   13.90944386   90.83350372    4.90999985    2.48000002
   13.91249943   88.47059631    4.90999985    2.48000002
   13.91861153   88.47059631    4.90999985    2.26999998
   13.92277813   96.46939850    4.90999985    2.36999989
   13.92583370   90.77140045    4.90999985    2.40000010
   13.92916679   94.12609863    4.90999985    2.46000004
   13.93249989   94.28130341    4.90999985    2.46000004
   13.93555546   81.83719635    4.90999985    2.48000002
   13.93888855   81.93409729    4.90999985    2.53999996
   13.94194412   84.76020050    4.90999985    2.50000000
   13.94527817   84.72090149    4.53999996    2.50000000
   13.94861126   84.45069885    4.34999990    2.53999996
   13.95166683   84.60479736    4.26999998    2.51999998
   13.95499992   84.79090118    4.15999985    2.48000002
   13.95583344   82.56490326    4.09999990    2.51999998
   13.96138859   82.56490326    4.17999983    2.51999998
   13.96555519   89.94709778    4.51000023    2.50000000
   13.96888828   90.31780243    4.90999985    2.42000008
   13.97194386   90.47419739    4.90999985    2.39000010
   13.97527695   90.71700287    4.90999985    2.30999994
   13.97861099   98.35079956    4.90999985    2.30999994
   13.98166656   95.04650116    4.90999985    2.26999998
   13.98500061   95.64710236    4.90999985    2.32999992
   13.98833370   88.91860199    4.90999985    2.39000010
   13.98916721   92.86820221    4.90999985    2.42000008
   13.99194431   85.76339722    4.90999985    2.44000006
   13.99499989   85.45690155    4.90999985    2.46000004
   13.99833393   87.16079712    4.90999985    2.50000000
   14.00416660   87.16079712    4.90999985    2.51999998
   14.00833321   83.77130127    4.80000019    2.53999996
   14.01166630   84.75099945    4.67999983    2.51999998
   14.01472187   86.61399841    4.63999987    2.50000000
   14.01805496   86.19400024    4.73999977    2.48000002
   14.02138901   84.43129730    4.78000021    2.53999996
   14.02250004   84.09359741    4.71999979    2.53999996
   14.02499962   81.54190063    4.34999990    2.51999998
   14.02805519   83.25260162    3.80999994    2.55999994
   14.03138828   82.35910034    3.45000005    2.55999994
   14.03472233   82.21219635    3.21000004    2.53999996
   14.03777790   82.25340271    3.36999989    2.48000002
   14.04111195   85.80699921    4.01999998    2.46000004
   14.04722309   85.80699921    4.53000021    2.55999994
   14.05111122   83.66609955    3.48000002    2.46000004
   14.05444431   78.91179657    3.14000010    2.53999996
   14.05583382   85.41220093    3.05999994    2.55999994
   14.05805588   84.23699951    2.94000006    2.55999994
   14.06138897   83.41560364    2.40000010    2.55999994
   14.06444454   77.72850037    1.39999998    2.57999992
   14.06777763   83.43979645    1.03999996    2.57999992
   14.07083321   81.18740082    0.86000001    2.57999992
   14.07416630   78.20330048    0.86000001    2.57999992
   14.07750034   80.33419800    0.86000001    2.57999992
   14.08055592   76.10980225    1.19000006    2.57999992
   14.08388901   80.59059906    1.19000006    2.57999992
   14.09000015   80.59059906    1.58000004    2.57999992
   14.09416676   83.01490021    1.78999996    2.55999994
   14.09722233   86.50080109    2.51999998    2.42000008
   14.10055637   84.43900299    3.25000000    2.46000004
   14.10388947   83.47360229    3.43000007    2.44000006
   14.10694504   83.15489960    3.48000002    2.51999998
   14.11027813   83.53330231    3.32999992    2.53999996
   14.11333370   78.84760284    2.91000009    2.53999996
   14.11666679   78.72440338    2.40000010    2.55999994
   14.11999989   79.23110199    2.11999989    2.55999994
   14.12250042   79.66880035    1.83000004    2.55999994
   14.12361145   78.33300018    1.83000004    2.55999994
   14.12694454   81.92739868    1.41999996    2.57999992
   14.13277817   81.92739868    1.05999994    2.57999992
   14.13694477   78.00879669    0.95999998    2.59999990
   14.14000034   80.39849854    0.94000000    2.57999992
   14.14333344   78.57700348    0.95999998    2.57999992
   14.14666653   77.77790070    1.00000000    2.57999992
   14.14972210   80.25309753    1.00000000    2.57999992
   14.15305519   78.26699829    1.07000005    2.57999992
   14.15583324   80.53790283    1.16999996    2.57999992
   14.15666676   79.51170349    1.16999996    2.57999992
   14.15999985   79.48149872    1.30999994    2.57999992
   14.16305542   83.26560211    1.28999996    2.57999992
   14.16638851   79.91519928    1.28999996    2.59999990
   14.16944504   79.12519836    1.28999996    2.59999990
   14.17555618   79.12519836    0.92000002    2.59999990
   14.17972279   78.64579773    0.86000001    2.59999990
   14.18305588   77.72509766    0.75000000    2.59999990
   14.18611145   80.61769867    0.75000000    2.59999990
   14.18916702   84.48639679    0.73000002    2.59999990
   14.18972206   79.66359711    0.73000002    2.59999990
   14.19305515   81.03739929    0.73000002    2.59999990
   14.19611073   81.26239777    0.70999998    2.59999990
   14.19944477   80.29840088    0.67000002    2.59999990
   14.20249939   78.92810059    0.69000000    2.59999990
   14.20583344   80.71440125    0.67000002    2.59999990
   14.20916653   80.14199829    0.69000000    2.59999990
   14.21222210   77.99069977    0.69000000    2.59999990
   14.21861076   77.99069977    0.67000002    2.59999990
   14.22249985   77.43859863    0.67000002    2.59999990
   14.22583294   75.10829926    0.67000002    2.59999990
   14.22916603   78.50360107    0.67000002    2.59999990
   14.23222160   80.53320313    0.69000000    2.59999990
   14.23555565   80.15899658    0.67000002    2.59999990
   14.23861122   81.64710236    0.69000000    2.59999990
   14.24194431   76.90360260    0.67000002    2.59999990
   14.24527836   77.70439911    0.69000000    2.59999990
   14.24833393   77.00949860    0.67000002    2.61999989
   14.25166702   78.49269867    0.67000002    2.61999989
   14.25500011   80.78859711    0.67000002    2.59999990
   14.25583363   79.45970154    0.69000000    2.59999990
   14.26138878   79.45970154    0.67000002    2.59999990
   14.26555538   79.68990326    0.67000002    2.59999990
   14.26861095   77.69159698    0.67000002    2.59999990
   14.27194405   80.12740326    0.67000002    2.59999990
   14.27499962   76.85119629    0.67000002    2.59999990
   14.27833271   76.82569885    0.67000002    2.59999990
   14.28166676   77.55780029    0.67000002    2.59999990
   14.28472233   79.26029968    0.67000002    2.59999990
   14.28805637   77.86990356    0.67000002    2.61999989
   14.28916740   77.04239655    0.67000002    2.61999989
   14.29166698   79.30599976    0.67000002    2.61999989
   14.29500008   80.43789673    0.67000002    2.61999989
   14.29805565   83.51490021    0.67000002    2.59999990
   14.30416679   83.51490021    0.64999998    2.59999990
   14.30833340   72.79319763    0.64999998    2.59999990
   14.31166649   81.82460022    0.64999998    2.61999989
   14.31472206   77.62960052    0.64999998    2.61999989
   14.31805515   76.41369629    0.64999998    2.61999989
   14.32111073   79.39240265    0.64999998    2.61999989
   14.32250023   78.64980316    0.67000002    2.61999989
   14.32499981   83.36239624    0.67000002    2.59999990
   14.32833290   79.62580109    0.64999998    2.59999990
   14.33138847   80.48370361    0.67000002    2.59999990
   14.33472157   78.80789948    0.67000002    2.59999990
   14.33805561   78.21189880    0.67000002    2.59999990
   14.34111118   77.36799622    0.69000000    2.61999989
   14.34694386   77.36799622    0.70999998    2.61999989
   14.35111141   74.85520172    0.81999999    2.61999989
   14.35444450   80.31410217    1.05999994    2.61999989
   14.35583401   77.75879669    1.07000005    2.61999989
   14.35805607   75.45619965    1.33000004    2.61999989
   14.36138916   78.03630066    1.36000001    2.59999990
   14.36444473   77.29229736    1.41999996    2.59999990
   14.36777782   79.30519867    1.83000004    2.59999990
   14.37111092   79.49710083    1.88000000    2.59999990
   14.37416649   80.78530121    1.83000004    2.57999992
   14.37750053   80.29360199    2.03999996    2.59999990
   14.38055611   77.03810120    2.01999998    2.59999990
   14.38388920   78.00060272    1.85000002    2.59999990
   14.38972187   78.00060272    1.69000006    2.61999989
   14.39388847   78.59030151    1.66999996    2.59999990
   14.39722252   76.65450287    1.69000006    2.61999989
   14.40055561   80.77130127    1.69000006    2.61999989
   14.40361118   77.91059875    1.48000002    2.64000010
   14.40694427   79.25959778    1.41999996    2.61999989
   14.40999985   75.67079926    1.44000006    2.61999989
   14.41333294   80.86669922    1.46000004    2.61999989
   14.41666698   78.07180023    1.46000004    2.61999989
   14.41972256   78.98870087    1.50000000    2.61999989
   14.42250061   76.36789703    1.58000004    2.61999989
   14.42333412   77.10720062    1.58000004    2.61999989
   14.42666721   80.42330170    1.55999994    2.61999989
   14.43277836   80.42330170    1.61000001    2.61999989
   14.43694496   79.68289948    1.61000001    2.64000010
   14.44027805   77.73529816    1.61000001    2.64000010
   14.44361115   79.97180176    1.60000002    2.61999989
   14.44666672   75.87750244    1.33000004    2.61999989
   14.44999981   77.80500031    1.03999996    2.61999989
   14.45305538   78.42220306    1.03999996    2.61999989
   14.45583344   76.67109680    0.81999999    2.64000010
   14.45666695   75.29440308    0.81999999    2.64000010
   14.46000004   80.35990143    0.81999999    2.61999989
   14.46305561   81.99870300    0.80000001    2.64000010
   14.46638870   79.89479828    0.76999998    2.61999989
   14.46972179   76.11579895    0.76999998    2.61999989
   14.47555542   76.11579895    0.80000001    2.61999989
   14.47972202   77.74069977    0.80000001    2.64000010
   14.48305511   80.08630371    0.81999999    2.61999989
   14.48611164   76.21479797    0.98000002    2.61999989
   14.48916721   77.60549927    1.00000000    2.61999989
   14.48972225   78.37310028    1.00000000    2.61999989
   14.49305534   77.86299896    1.01999998    2.61999989
   14.49611092   76.35530090    0.94000000    2.61999989
   14.49944496   76.55650330    0.86000001    2.61999989
   14.50277805   77.67130280    0.79000002    2.64000010
   14.50583363   76.45300293    0.75000000    2.61999989
   14.50916672   76.29570007    0.75000000    2.61999989
   14.51222229   78.97650146    0.75000000    2.61999989
   14.51833344   78.97650146    0.81999999    2.64000010
   14.52250004   74.47570038    0.94000000    2.64000010
   14.52305508   73.84770203    0.94000000    2.64000010
   14.52638817   77.82230377    0.98000002    2.64000010
   14.52944374   77.58529663    1.00000000    2.64000010
   14.53277779   78.28150177    1.33000004    2.64000010
   14.53611183   79.49579620    1.44000006    2.64000010
   14.53916740   77.49970245    1.71000004    2.61999989
   14.54250050   77.42970276    1.80999994    2.61999989
   14.54555607   76.18550110    1.80999994    2.61999989
   14.54888916   79.08540344    1.69000006    2.64000010
   14.55222225   75.74030304    1.75000000    2.61999989
   14.55527782   75.83699799    2.36999989    2.61999989
   14.55583382   76.50209808    2.53999996    2.64000010
   14.57666683   76.50209808    4.90999985    2.26999998
   14.58083344  153.61999512    4.90999985    1.80999994
   14.58416653  135.91700745    4.90999985    2.01999998
   14.58722210   82.07109833    4.90999985    2.13000011
   14.58916664   82.50599670    4.90999985    2.44000006
   14.59083271   84.00910187    4.90999985    2.48000002
   14.59416676   86.66230011    4.90999985    2.40000010
   14.59722233   79.53369904    4.90999985    2.46000004
   14.60055637   82.02100372    4.90999985    2.42000008
   14.60388947   76.74579620    4.90999985    2.46000004
   14.60694504   80.66580200    4.90999985    2.61999989
   14.61027813   75.98210144    4.90999985    2.61999989
   14.61361122   76.21279907    4.90999985    2.61999989
   14.61944485   76.21279907    4.90999985    2.61999989
   14.62361145   76.90930176    4.90999985    2.59999990
   14.62666702   79.02639771    4.90999985    2.59999990
   14.63000011   78.79479980    4.90999985    2.59999990
   14.63333321   77.15110016    4.90999985    2.59999990
   14.63638878   75.32319641    4.90999985    2.55999994
   14.63972187   77.95349884    4.90999985    2.55999994
   14.64305496   77.86229706    4.90999985    2.55999994
   14.64611053   82.86810303    4.90999985    2.57999992
   14.64944458   76.31939697    4.90999985    2.55999994
   14.65249920   75.01589966    4.90999985    2.55999994
   14.65583324   83.40540314    4.90999985    2.53999996
   14.65638828   85.84459686    4.90999985    2.53999996
   14.66222191   85.84459686    4.90999985    2.50000000
   14.66638851   78.56759644    4.90999985    2.50000000
   14.66972256   77.40409851    4.90999985    2.51999998
   14.67277813   84.12120056    4.90999985    2.53999996
   14.67611122   78.62740326    4.90999985    2.51999998
   14.67916679   81.09739685    4.90999985    2.53999996
   14.68249989   81.45749664    4.90999985    2.51999998
   14.68583298   83.11540222    4.90999985    2.51999998
   14.68888855   91.36799622    4.90999985    2.42000008
   14.68972206   88.28600311    4.90999985    2.42000008
   14.69277763   80.60079956    4.90999985    2.44000006
   14.69583321   85.20929718    4.90999985    2.53999996
   14.69916630   85.75160217    4.90999985    2.48000002
   14.70499992   85.75160217    4.90999985    2.48000002
   14.70916653   86.67700195    4.90999985    2.53999996
   14.71249962   80.24250031    4.90999985    2.46000004
   14.71555519   86.17980194    4.90999985    2.36999989
   14.71888828   90.67970276    4.90999985    2.42000008
   14.72222137   80.39499664    4.90999985    2.48000002
   14.72305489   81.58740234    4.90999985    2.51999998
   14.72583294   87.79190063    4.90999985    2.46000004
   14.72888851   88.28910065    4.90999985    2.36999989
   14.73222160   83.78589630    4.90999985    2.39000010
   14.73555565   88.05470276    4.90999985    2.39000010
   14.73861122   90.68939972    4.90999985    2.34999990
   14.74194431   88.50090027    4.90999985    2.30999994
   14.74805546   88.50090027    4.90999985    2.40000010
   14.75194454   84.73979950    4.90999985    2.44000006
   14.75527763   84.48989868    4.90999985    2.46000004
   14.75638866   79.93399811    4.90999985    2.46000004
   14.75888920   79.41940308    4.90999985    2.53999996
   14.76194477   79.11830139    4.90999985    2.61999989
   14.76527786   80.32240295    4.90999985    2.59999990
   14.76861095   78.60659790    4.90999985    2.59999990
   14.77166653   76.46779633    4.90999985    2.67000008
   14.77499962   73.59799957    4.90999985    2.67000008
   14.77805519   78.65630341    4.90999985    2.61999989
   14.78138828   81.07129669    4.90999985    2.57999992
   14.78472233   81.52269745    4.90999985    2.53999996
   14.79083347   81.52269745    4.90999985    2.57999992
   14.79500008   78.92849731    4.90999985    2.53999996
   14.79805565   78.34140015    4.90999985    2.50000000
   14.80138874   78.35340118    4.90999985    2.55999994
   14.80472279   84.70459747    4.90999985    2.57999992
   14.80777836   86.54019928    4.90999985    2.57999992
   14.81111145   85.86219788    4.90999985    2.57999992
   14.81416702   85.92800140    4.90999985    2.55999994
   14.81750011   84.95379639    4.90999985    2.57999992
   14.82083321   78.02919769    4.90999985    2.59999990
   14.82305527   82.06369781    4.90999985    2.64000010
   14.82444477   74.51290131    4.90999985    2.66000009
   14.82750034   79.82050323    4.90999985    2.64000010
   14.83361053   79.82050323    4.90999985    2.59999990
   14.83777714   77.06169891    4.90999985    2.61999989
   14.84111118   76.57299805    4.90999985    2.67000008
   14.84416676   79.47530365    4.90999985    2.67000008
   14.84749985   83.60530090    4.90999985    2.67000008
   14.85055637   82.22669983    4.90999985    2.53999996
   14.85388947   81.08419800    4.90999985    2.57999992
   14.85638905   78.02760315    4.90999985    2.57999992
   14.85750008   79.14360046    4.90999985    2.59999990
   14.86055565   76.75199890    4.90999985    2.67000008
   14.86388969   79.08940125    4.90999985    2.66000009
   14.86722279   80.84310150    4.90999985    2.55999994
   14.87027836   80.06069946    4.90999985    2.51999998
   14.87638855   80.06069946    4.90999985    2.61999989
   14.88055611   74.74069977    4.90999985    2.64000010
   14.98277760   -1.00000000   -1.00000000   -1.00000000
   15.08555508   -1.00000000   -1.00000000   -1.00000000
   15.18055630   -1.00000000   -1.00000000   -1.00000000
   15.29083347   -1.00000000   -1.00000000   -1.00000000
   15.33444405  100.83599854    4.90999985    2.55999994
   15.33749962   87.70379639    4.90999985    2.55999994
   15.34083271   91.61540222    4.90999985    2.57999992
   15.34416676   92.28079987    4.90999985    2.57999992
   15.34722233   88.81559753    4.90999985    2.57999992
   15.35055637   92.17630005    4.90999985    2.55999994
   15.35472298   92.17630005    4.90999985    2.59999990
   15.35888958   95.04789734    4.90999985    2.57999992
   15.36194515   86.61019897    4.90999985    2.57999992
   15.36527824   89.86519623    4.90999985    2.57999992
   15.36777782   88.51170349    4.90999985    2.57999992
   15.36888885   83.06099701    4.90999985    2.57999992
   15.37222195   86.93949890    4.90999985    2.57999992
   15.37555599   89.36070251    4.90999985    2.59999990
   15.37861156   88.88050079    4.90999985    2.59999990
   15.38194466   86.35119629    4.90999985    2.59999990
   15.38527775   86.65239716    4.90999985    2.61999989
   15.38833332   91.43810272    4.90999985    2.59999990
   15.39166641   94.73989868    4.90999985    2.59999990
   15.39750004   94.73989868    4.90999985    2.57999992
   15.40166664   86.70400238    4.90999985    2.59999990
   15.40499973   82.07839966    4.90999985    2.61999989
   15.40805531   86.45410156    4.90999985    2.59999990
   15.41138840   88.89409637    4.90999985    2.57999992
   15.41444397   80.33740234    4.90999985    2.57999992
   15.41777802   84.95420074    4.90999985    2.59999990
   15.42111111   88.86270142    4.90999985    2.59999990
   15.42416668   80.75360107    4.90999985    2.57999992
   15.42750072   87.29560089    4.90999985    2.57999992
   15.43083382   87.25209808    4.90999985    2.55999994
   15.43388939   92.79579926    4.90999985    2.53999996
   15.43444443   81.41120148    4.90999985    2.55999994
   15.44027805   81.41120148    4.90999985    2.57999992
   15.44444466   73.58869934    4.90999985    2.61999989
   15.44777775   85.91329956    4.90999985    2.59999990
   15.45083332   87.22219849    4.90999985    2.64000010
   15.45416641   84.02790070    4.90999985    2.61999989
   15.45749950   80.04820251    4.90999985    2.59999990
   15.46055508   85.91320038    4.90999985    2.61999989
   15.46388912   88.46669769    4.90999985    2.61999989
   15.46722221   90.71769714    4.90999985    2.59999990
   15.46777725   87.37979889    4.90999985    2.59999990
   15.47083282   77.02500153    4.90999985    2.59999990
   15.47388840   87.41680145    4.90999985    2.59999990
   15.47722149   85.47440338    4.90999985    2.59999990
   15.48333359   85.47440338    4.90999985    2.59999990
   15.48722267   90.87879944    4.90999985    2.61999989
   15.49055576   76.81649780    4.90999985    2.59999990
   15.49388885   81.83460236    4.90999985    2.57999992
   15.49694443   85.21230316    4.90999985    2.57999992
   15.50027752   88.79000092    4.90999985    2.57999992
   15.50111103   86.02529907    4.90999985    2.55999994
   15.50388908   86.12390137    4.90999985    2.57999992
   15.50694466   88.53659821    4.90999985    2.57999992
   15.51027775   83.34329987    4.90999985    2.61999989
   15.51361084   83.91580200    4.90999985    2.61999989
   15.51666641   80.80439758    4.90999985    2.64000010
   15.51999950   86.13289642    4.90999985    2.64000010
   15.52611065   86.13289642    4.90999985    2.64000010
   15.53027725   90.97260284    4.90999985    2.64000010
   15.53333378   83.05290222    4.90999985    2.64000010
   15.53444481   86.56900024    4.90999985    2.64000010
   15.53722286   90.01020050    4.90999985    2.64000010
   15.54027843   79.49929810    4.90999985    2.64000010
   15.54361153   85.55989838    4.90999985    2.64000010
   15.54694462   85.02989960    4.90999985    2.64000010
   15.55000019   84.34449768    4.86999989    2.66000009
   15.55333328   89.05239868    4.34999990    2.66000009
   15.55666733   86.66539764    4.09999990    2.66000009
   15.55972195   84.38909912    4.05999994    2.67000008
   15.56305599   82.11650085    3.95000005    2.67000008
   15.56888866   82.11650085    4.01999998    2.66000009
   15.57305527   83.81549835    4.09999990    2.64000010
   15.57638836   80.30370331    4.00000000    2.66000009
   15.57944393   85.44450378    3.89000010    2.67000008
   15.58277798   83.44619751    3.89000010    2.66000009
   15.58583260   85.56510162    3.75000000    2.67000008
   15.58916664   78.46569824    3.80999994    2.66000009
   15.59249973   87.93009949    3.91000009    2.67000008
   15.59555531   89.75779724    3.84999990    2.67000008
   15.59888840   86.16819763    3.84999990    2.67000008
   15.60111141   90.65769958    3.93000007    2.67000008
   15.60249996   77.36389923    3.91000009    2.67000008
   15.60555553   87.36779785    3.86999989    2.66000009
   15.61166668   87.36779785    3.84999990    2.66000009
   15.61583328   83.06330109    3.59999990    2.67000008
   15.61916637   86.23770142    3.51999998    2.67000008
   15.62222195   90.96219635    3.43000007    2.67000008
   15.62555599   84.71779633    3.21000004    2.67000008
   15.62888908   88.98239899    3.18000007    2.69000006
   15.63194466   88.73100281    3.07999992    2.69000006
   15.63444424   86.74859619    2.98000002    2.69000006
   15.63583279   91.98220062    2.94000006    2.69000006
   15.63888836   93.21959686    2.93000007    2.67000008
   15.64222240   81.64600372    3.23000002    2.67000008
   15.64555550   87.55609894    3.28999996    2.69000006
   15.64861107   85.92620087    3.28999996    2.67000008
   15.65472221   85.92620087    3.14000010    2.67000008
   15.65861034   76.28579712    3.09999990    2.67000008
   15.66194439   79.05740356    3.16000009    2.67000008
   15.66527748   72.46970367    3.23000002    2.69000006
   15.66777802   88.34120178    3.23000002    2.69000006
   15.66888905   89.42199707    3.21000004    2.67000008
   15.67194462   79.90100098    3.05999994    2.67000008
   15.67527771   92.19129944    3.03999996    2.67000008
   15.67861176   80.00000000    2.91000009    2.69000006
   15.68166733   86.88580322    2.84999990    2.69000006
   15.68500042   91.08869934    2.67000008    2.69000006
   15.68833351   89.93509674    2.28999996    2.69000006
   15.69138908   81.68350220    2.17000008    2.69000006
   15.69750023   81.68350220    1.66999996    2.67000008
   15.70166683   85.76080322    1.71000004    2.69000006
   15.70472240   82.23789978    1.60000002    2.69000006
   15.70805550   85.51730347    1.58000004    2.69000006
   15.71138859   82.29270172    1.58000004    2.69000006
   15.71444416   85.41020203    1.60000002    2.69000006
   15.71777725   83.20580292    1.83000004    2.69000006
   15.72083282   88.58670044    1.96000004    2.67000008
   15.72416592   89.01740265    1.98000002    2.69000006
   15.72749996  106.72499847    1.98000002    2.69000006
   15.73055553   98.41380310    2.00000000    2.67000008
   15.73388958   87.24590302    2.07999992    2.69000006
   15.73444462   94.33100128    2.03999996    2.71000004
   15.74027824   94.33100128    1.88000000    2.69000006
   15.74444485   80.80760193    1.25000000    2.71000004
   15.74777794   81.18979645    1.19000006    2.69000006
   15.75083351   89.87300110    1.09000003    2.69000006
   15.75416660   85.57769775    1.00000000    2.69000006
   15.75749969   83.74579620    0.83999997    2.71000004
   15.76055527   91.35240173    0.79000002    2.69000006
   15.76388931   91.92489624    0.67000002    2.69000006
   15.76694393   86.75180054    0.58999997    2.71000004
   15.76777744   90.56300354    0.58999997    2.71000004
   15.77083302   84.29750061    0.56999999    2.69000006
   15.77416611   90.62770081    0.56999999    2.69000006
   15.77722168   86.87860107    0.58999997    2.69000006
   15.78305531   86.87860107    0.56999999    2.69000006
   15.78722286   90.40090179    0.56999999    2.69000006
   15.79055595   83.83110046    0.56999999    2.71000004
   15.79361153   85.92649841    0.55000001    2.69000006
   15.79694462   81.76760101    0.56999999    2.69000006
   15.80027771   77.54620361    0.58999997    2.71000004
   15.80111122   82.51950073    0.58999997    2.71000004
   15.80388927   88.39720154    0.56999999    2.69000006
   15.80722237   78.13860321    0.56999999    2.69000006
   15.81027794   75.21320343    0.55000001    2.69000006
   15.81361103   78.10340118    0.55000001    2.69000006
   15.81666660   76.38369751    0.55000001    2.69000006
   15.81999969   81.85330200    0.55000001    2.71000004
   15.82611084   81.85330200    0.55000001    2.69000006
   15.82999992   81.87419891    0.56999999    2.71000004
   15.83333302   90.42479706    0.56999999    2.69000006
   15.83444405   87.64060211    0.58999997    2.71000004
   15.83694458   80.27919769    0.61000001    2.69000006
   15.84027767   82.00910187    0.58999997    2.69000006
   15.84333324   78.46690369    0.56999999    2.69000006
   15.84666634   82.58489990    0.56999999    2.69000006
   15.84972191   91.50789642    0.56999999    2.69000006
   15.85305595   77.36990356    0.56999999    2.69000006
   15.85638905   79.52919769    0.56999999    2.69000006
   15.85944462   80.06120300    0.56999999    2.69000006
   15.86277771   87.12770081    0.61000001    2.69000006
   15.86888885   87.12770081    0.70999998    2.71000004
   15.87305546   86.00119781    0.70999998    2.71000004
   15.87611103   78.33039856    0.70999998    2.69000006
   15.87944412   75.66529846    0.70999998    2.69000006
   15.88249969   86.93270111    0.76999998    2.71000004
   15.88583279   77.68430328    0.81999999    2.69000006
   15.88916683   72.50579834    0.83999997    2.69000006
   15.89222240   81.55490112    0.98000002    2.69000006
   15.89555550   83.37729645    1.01999998    2.69000006
   15.89888859   85.09500122    1.25000000    2.71000004
   15.90111065   80.78970337    1.25000000    2.71000004
   15.90249920   80.23179626    1.28999996    2.71000004
   15.90583324   79.41889954    2.09999990    2.69000006
   15.91166592   79.41889954    2.53999996    2.69000006
   15.91583252   84.90260315    3.53999996    2.69000006
   15.91888905   78.00440216    4.57999992    2.69000006
   15.92222214   82.55570221    4.90999985    2.67000008
   15.92555618   83.09279633    4.90999985    2.66000009
   15.92861176   82.94730377    4.90999985    2.66000009
   15.93194485   81.59999847    4.90999985    2.64000010
   15.93444443   80.69730377    4.90999985    2.66000009
   15.93555546   82.36160278    4.90999985    2.66000009
   15.93888855   81.09980011    4.90999985    2.64000010
   15.94194412   79.15399933    4.90999985    2.64000010
   15.94527817   84.48090363    4.90999985    2.64000010
   15.94833374   72.94210052    4.90999985    2.66000009
   15.95444393   72.94210052    4.90999985    2.66000009
   15.95861053   83.85849762    4.90999985    2.61999989
   15.96194458   86.30039978    4.90999985    2.61999989
   15.96500015   80.97820282    4.90999985    2.61999989
   15.96777725   85.03170013    4.90999985    2.61999989
   15.96861076   83.79519653    4.90999985    2.61999989
   15.97194386   87.78730011    4.90999985    2.64000010
   15.97499943   85.02660370    4.90999985    2.64000010
   15.97833252   80.20500183    4.90999985    2.61999989
   15.98138809   90.69909668    4.90999985    2.61999989
   15.98472214   89.39620209    4.90999985    2.59999990
   15.98805618   84.61740112    4.90999985    2.59999990
   15.99111176   91.21920013    4.90999985    2.61999989
   15.99722290   91.21920013    4.90999985    2.61999989
   16.00138855   84.34809875    4.90999985    2.57999992
   16.00472260   75.18260193    4.90999985    2.59999990
   16.00805473   81.12660217    4.90999985    2.55999994
   16.01111031   85.85880280    4.90999985    2.59999990
   16.01444435   86.99819946    4.90999985    2.57999992
   16.01749992   87.75569916    4.90999985    2.55999994
   16.02083397   88.95120239    4.90999985    2.55999994
   16.02416611   75.48970032    4.90999985    2.53999996
   16.02722168   85.70570374    4.90999985    2.57999992
   16.03055573   80.03780365    4.90999985    2.57999992
   16.03388786   85.30159760    4.90999985    2.51999998
   16.03444481   84.01000214    4.90999985    2.50000000
   16.04027748   84.01000214    4.90999985    2.53999996
   16.04444313   91.70490265    4.90999985    2.51999998
   16.04749870   83.07099915    4.90999985    2.48000002
   16.05083275   79.89510345    4.90999985    2.48000002
   16.05388832   90.04709625    4.90999985    2.48000002
   16.05722237   84.45989990    4.90999985    2.51999998
   16.06055450   92.24340057    4.90999985    2.50000000
   16.06361008   94.63189697    4.90999985    2.50000000
   16.06694603   86.08560181    4.90999985    2.46000004
   16.06777954   79.86289978    4.90999985    2.46000004
   16.07055664   93.41600037    4.90999985    2.46000004
   16.07389069   97.69979858    4.90999985    2.44000006
   16.07694626   91.25759888    4.90999985    2.42000008
   16.08305550   91.25759888    4.90999985    2.42000008
   16.08722305   90.91210175    4.90999985    2.44000006
   16.09027863   93.62519836    4.90999985    2.40000010
   16.09361267  102.19400024    4.90999985    2.42000008
   16.09694481   85.13829803    4.90999985    2.42000008
   16.10027885   86.86450195    4.90999985    2.44000006
   16.10111237   90.55229950    4.90999985    2.40000010
   16.10388947   90.56939697    4.90999985    2.39000010
   16.10722351   90.31120300    4.90999985    2.36999989
   16.11027908   98.06390381    4.90999985    2.36999989
   16.11361122   86.65429688    4.90999985    2.34999990
   16.11694527   87.36360168    4.90999985    2.36999989
   16.12000084   89.96600342    4.90999985    2.36999989
   16.12583351   89.96600342    4.90999985    2.32999992
   16.13000107   96.25650024    4.90999985    2.36999989
   16.13333321   97.88469696    4.90999985    2.36999989
   16.13444519   99.68869781    4.90999985    2.36999989
   16.13694382   91.12740326    4.90999985    2.34999990
   16.14027786   98.16570282    4.90999985    2.36999989
   16.14333344   88.01370239    4.90999985    2.34999990
   16.14666748   93.21170044    4.90999985    2.34999990
   16.14999962  101.52200317    4.90999985    2.34999990
   16.15305519   93.15969849    4.90999985    2.34999990
   16.15638924  101.64399719    4.90999985    2.36999989
   16.15944481   99.63009644    4.90999985    2.34999990
   16.16277695   96.48079681    4.90999985    2.34999990
   16.16860962   96.48079681    4.90999985    2.32999992
   16.17277718  111.26100159    4.90999985    2.32999992
   16.17611122  121.95899963    4.90999985    2.32999992
   16.17944336  116.87300110    4.90999985    2.30999994
   16.18249893  105.77500153    4.90999985    2.30999994
   16.18583298   95.24469757    4.90999985    2.32999992
   16.18916512  102.27899933    4.90999985    2.30999994
   16.19222069  102.72000122    4.90999985    2.30999994
   16.19555473  103.08100128    4.90999985    2.32999992
   16.19888878  115.37300110    4.90999985    2.34999990
   16.20111275  101.50000000    4.90999985    2.32999992
   16.20250130  100.01699829    4.90999985    2.30999994
   16.20583344  104.77899933    4.90999985    2.32999992
   16.21166801  104.77899933    4.90999985    2.34999990
   16.21583366  110.18399811    4.90999985    2.32999992
   16.21888924  114.47299957    4.90999985    2.30999994
   16.22222328  119.45300293    4.90999985    2.32999992
   16.22527885  116.36499786    4.90999985    2.30999994
   16.22861099  121.45600128    4.90999985    2.32999992
   16.23194504  103.15799713    4.90999985    2.32999992
   16.23444557   93.57830048    4.90999985    2.36999989
   16.23555565   96.91369629    4.90999985    2.36999989
   16.23888969  103.46299744    4.90999985    2.34999990
   16.24194527   93.13099670    4.90999985    2.36999989
   16.24527740  103.33300018    4.90999985    2.36999989
   16.24861145  108.55899811    4.90999985    2.39000010
   16.25444412  108.55899811    4.90999985    2.40000010
   16.25861168  103.04599762    4.90999985    2.39000010
   16.26166725  102.74299622    4.90999985    2.40000010
   16.26499939   97.52140045    4.90999985    2.39000010
   16.26805496   97.94409943    4.90999985    2.39000010
   16.26861000   98.91529846    4.90999985    2.39000010
   16.27194405  106.10800171    4.90999985    2.39000010
   16.27499962  106.95700073    4.90999985    2.36999989
   16.27833366   97.63839722    4.90999985    2.32999992
   16.28166580  104.54199982    4.90999985    2.36999989
   16.28472137  101.22599792    4.90999985    2.39000010
   16.28805542   97.02960205    4.90999985    2.39000010
   16.29138756  101.55699921    4.90999985    2.40000010
   16.29722214  101.55699921    4.90999985    2.36999989
   16.30138779   95.04630280    4.90999985    2.34999990
   16.30472183   94.76580048    4.90999985    2.34999990
   16.30777740   93.42459869    4.90999985    2.39000010
   16.31110954   91.97070313    4.90999985    2.39000010
   16.31444359  103.65499878    4.90999985    2.42000008
   16.31750107   93.12239838    4.90999985    2.40000010
   16.32083511   93.44840240    4.90999985    2.42000008
   16.32389069   92.85260010    4.90999985    2.40000010
   16.32722282  123.55500031    4.90999985    2.39000010
   16.33055687   98.95210266    4.90999985    2.36999989
   16.33361244  104.56600189    4.90999985    2.42000008
   16.33472252  107.94899750    4.90999985    2.40000010
   16.35527802  107.94899750    4.90999985    2.42000008
   16.35944557  100.29799652    4.90999985    2.40000010
   16.36277771   93.55799866    4.90999985    2.40000010
   16.36583328   94.62159729    4.90999985    2.40000010
   16.36805534  108.76499939    4.90999985    2.40000010
   16.36944389   96.17359924    4.90999985    2.40000010
   16.37277794   96.56900024    4.90999985    2.42000008
   16.37583351  101.83999634    4.90999985    2.40000010
   16.37916756   96.96669769    4.90999985    2.39000010
   16.38249969   89.28260040    4.90999985    2.40000010
   16.38555527   94.43180084    4.90999985    2.40000010
   16.38888931  109.39199829    4.90999985    2.39000010
   16.39222145  118.97299957    4.90999985    2.39000010
   16.39805603  118.97299957    4.90999985    2.40000010
   16.40222168   98.69259644    4.90999985    2.39000010
   16.40527725   98.14700317    4.90999985    2.39000010
   16.40861130   99.12779999    4.90999985    2.40000010
   16.41194344   90.84459686    4.90999985    2.40000010
   16.41499901  115.78299713    4.90999985    2.40000010
   16.41833305   97.35130310    4.90999985    2.40000010
   16.42166519   96.72740173    4.90999985    2.42000008
   16.42472076   92.18099976    4.90999985    2.42000008
   16.42805481  100.03900146    4.90999985    2.40000010
   16.43111038   98.14040375    4.90999985    2.36999989
   16.43444443  105.45999908    4.90999985    2.39000010
   16.43499947   96.43479919    4.90999985    2.39000010
   16.44083214   96.43479919    4.90999985    2.36999989
   16.44499969   99.58920288    4.90999985    2.36999989
   16.44833183   96.80500031    4.90999985    2.36999989
   16.45138931  102.99199677    4.90999985    2.32999992
   16.45472336  121.25599670    4.90999985    2.32999992
   16.45805550  113.72299957    4.90999985    2.28999996
   16.46111107  108.45800018    4.90999985    2.30999994
   16.46444511  105.41999817    4.90999985    2.28999996
   16.46750069   99.28829956    4.90999985    2.30999994
   16.46833420  110.55999756    4.90999985    2.30999994
   16.47138977  108.29499817    4.90999985    2.32999992
   16.47444534  125.00900269    4.90999985    2.28999996
   16.47777748  124.26200104    4.90999985    2.23000002
   16.48361206  124.26200104    4.90999985    2.26999998
   16.48777771  131.14300537    4.90999985    2.26999998
   16.49111176  119.57800293    4.90999985    2.21000004
   16.49444389  123.16000366    4.90999985    2.21000004
   16.49749947  139.18400574    4.90999985    2.19000006
   16.50083351  122.11699677    4.90999985    2.19000006
   16.50166702  124.76100159    4.90999985    2.19000006
   16.50444412  127.27600098    4.90999985    2.19000006
   16.50749969  126.38800049    4.90999985    2.17000008
   16.51083374  126.27600098    4.90999985    2.17000008
   16.51416588  151.09599304    4.90999985    2.15000010
   16.51722145  178.04600525    4.90999985    2.13000011
   16.52055550  182.10800171    4.90999985    2.09999990
   16.52666664  182.10800171    4.90999985    2.09999990
   16.53083229  158.87399292    4.90999985    2.09999990
   16.53388786  213.19000244    4.90999985    2.07999992
   16.53499985  254.62800598    4.90999985    2.07999992
   16.53777695  290.71099854    4.90999985    2.03999996
   16.54083252  243.88699341    4.90999985    2.01999998
   16.54416656  225.04200745    4.90999985    2.01999998
   16.54749870  255.39199829    4.90999985    2.00000000
   16.55055428  226.93299866    4.90999985    2.01999998
   16.55388832  232.64700317    4.90999985    1.98000002
   16.55694389  196.75599670    4.90999985    1.98000002
   16.56027794  185.17500305    4.90999985    1.96000004
   16.56361008  123.05100250    4.90999985    1.94000006
   16.56944466  123.05100250    4.90999985    1.94000006
   16.57361221  152.14300537    4.90999985    1.94000006
   16.57666779  108.66799927    4.90999985    1.94000006
   16.58000183  149.79800415    4.90999985    1.91999996
   16.58333397  136.83200073    4.90999985    1.89999998
   16.58638954   79.51460266    4.90999985    1.91999996
   16.58972359   -1.00000000   -1.00000000   -1.00000000
   16.59305573   85.99939728    4.90999985    1.89999998
   16.59611130   -1.00000000   -1.00000000   -1.00000000
   16.59944534   87.16020203    4.90999985    1.89999998
   16.60277748   -1.00000000    4.90999985    1.86000001
   16.60611153   -1.00000000   -1.00000000   -1.00000000
   16.61222267   -1.00000000   -1.00000000   -1.00000000
   16.61638832   -1.00000000    4.90999985    1.86000001
   16.61972237   -1.00000000    4.90999985    1.85000002
   16.62277794   -1.00000000    4.90999985    1.85000002
   16.62611198   -1.00000000    4.90999985    1.83000004
   16.62916756   -1.00000000    4.90999985    1.80999994
   16.63249969   -1.00000000    4.90999985    1.78999996
   16.63611031   -1.00000000    4.90999985    1.80999994
   16.63944435   -1.00000000    4.90999985    1.80999994
   16.64249992   -1.00000000    4.90999985    1.85000002
   16.64583397   -1.00000000    4.90999985    1.83000004
   16.64916611   -1.00000000    4.90999985    1.80999994
   16.65499878   -1.00000000    4.90999985    1.85000002
   16.65916634   -1.00000000    4.90999985    1.83000004
   16.66250038   -1.00000000    4.90999985    1.78999996
   16.66555595   -1.00000000    4.90999985    1.80999994
   16.66916656   -1.00000000    4.90999985    1.85000002
   16.67249870   -1.00000000    4.90999985    1.80999994
   16.67555428   -1.00000000    4.90999985    1.78999996
   16.67888832   -1.00000000    4.90999985    1.78999996
   16.68222237   -1.00000000    4.90999985    1.80999994
   16.68527603   -1.00000000    4.90999985    1.85000002
   16.68861008   -1.00000000    4.90999985    1.80999994
   16.69194412   -1.00000000    4.90999985    1.83000004
   16.69805527   -1.00000000    4.90999985    1.80999994
   16.70194435   -1.00000000    4.90999985    1.80999994
   16.70527840   -1.00000000    4.90999985    1.76999998
   16.70861244   -1.00000000    4.90999985    1.80999994
   16.71166801   -1.00000000    4.90999985    1.78999996
   16.71500015   -1.00000000    4.90999985    1.80999994
   16.71833420   -1.00000000    4.90999985    1.78999996
   16.72138977   -1.00000000    4.90999985    1.85000002
   16.72472191   -1.00000000    4.90999985    1.83000004
   16.72777748   -1.00000000    4.90999985    1.86000001
   16.73111153   -1.00000000    4.90999985    1.85000002
   16.73444557   -1.00000000    4.90999985    1.83000004
   16.74083328   -1.00000000    4.90999985    1.78999996
   16.74500084   -1.00000000    4.90999985    1.80999994
   16.74805641   -1.00000000    4.90999985    1.83000004
   16.75138855   -1.00000000    4.90999985    1.85000002
   16.75472260   -1.00000000    4.90999985    1.89999998
   16.75777817   -1.00000000    4.90999985    1.80999994
   16.76111031   -1.00000000    4.90999985    1.86000001
   16.76416588   -1.00000000    4.90999985    1.83000004
   16.76749992   -1.00000000    4.90999985    1.85000002
   16.77083397  146.88900757    4.90999985    1.85000002
   16.77416611   82.90589905    4.90999985    1.89999998
   16.77750015   -1.00000000    4.90999985    1.88000000
   16.78361130   -1.00000000    4.90999985    1.96000004
   16.78777695  115.99400330    4.90999985    1.89999998
   16.79111099   59.00790024    4.90999985    1.94000006
   16.79416656   -1.00000000    4.90999985    1.91999996
   16.79749870   -1.00000000    4.90999985    1.88000000
   16.80055428   -1.00000000   -1.00000000   -1.00000000
   16.80416679   -1.00000000    4.90999985    1.86000001
   16.80749893   -1.00000000    4.90999985    1.88000000
   16.81083298   45.97679901    4.90999985    1.89999998
   16.81388855   82.62950134    4.90999985    1.91999996
   16.81722260   -1.00000000    4.90999985    1.89999998
   16.82055664  114.75599670    4.90999985    1.91999996
   16.82638931  114.75599670    4.90999985    1.94000006
   16.83055687   -1.00000000    4.90999985    1.89999998
   16.83388901   -1.00000000    4.90999985    1.85000002
   16.83722305   -1.00000000    4.90999985    1.85000002
   16.84055710   -1.00000000    4.90999985    1.88000000
   16.84388924   -1.00000000    4.90999985    1.85000002
   16.84694481   43.75120163    4.90999985    1.88000000
   16.85027885  158.57299805    4.90999985    1.91999996
   16.85333443  173.28799438    4.90999985    1.91999996
   16.85666656   87.01180267    4.90999985    1.91999996
   16.86000061   -1.00000000   -1.00000000   -1.00000000
   16.86305618   -1.00000000    4.90999985    1.88000000
   16.86944389   -1.00000000    4.90999985    1.94000006
   16.87333298  102.50399780    4.90999985    1.94000006
   16.87666702   97.20529938    4.90999985    1.91999996
   16.88000107   -1.00000000    4.90999985    1.85000002
   16.88305473   -1.00000000    4.90999985    1.86000001
   16.88638878   -1.00000000    4.90999985    1.85000002
   16.88972282   -1.00000000    4.90999985    1.88000000
   16.89277840   -1.00000000    4.90999985    1.86000001
   16.89611053   -1.00000000    4.90999985    1.86000001
   16.89916611   -1.00000000    4.90999985    1.86000001
   16.90277672   -1.00000000    4.90999985    1.86000001
   16.90611076   -1.00000000    4.90999985    1.86000001
   16.91222191   -1.00000000    4.90999985    1.86000001
   16.91638756   48.09420013    4.90999985    1.88000000
   16.91944313   35.32680130    4.90999985    1.89999998
   16.92277718   23.57019997    4.90999985    1.89999998
   16.92611122  175.46099854    4.90999985    1.91999996
   16.92916679   77.45850372    4.90999985    1.94000006
   16.93249893   30.09539986    4.90999985    1.89999998
   16.93499947  167.61700439    4.90999985    1.91999996
   16.93610954  158.29899597    4.90999985    1.94000006
   16.93916512  131.21899414    4.90999985    1.94000006
   16.94249916  103.02799988    4.90999985    1.94000006
   16.94583321  115.24900055    4.90999985    1.91999996
   16.94888878  284.38198853    4.90999985    1.94000006
   16.95499992  284.38198853    4.90999985    2.00000000
   16.95916748  221.98199463    4.90999985    1.94000006
   16.96250153  169.10400391    4.90999985    2.00000000
   16.96555710  316.08099365    4.90999985    2.01999998
   16.96777916  234.30599976    4.90999985    2.00000000
   16.96777916   30.09539986    4.90999985    1.89999998
   16.96777916  158.29899597    4.90999985    1.94000006
   16.96805573  131.21899414    4.90999985    1.94000006
   16.96805573  103.02799988    4.90999985    1.94000006
   16.96805573  115.24900055    4.90999985    1.91999996
   16.96833420  284.38198853    4.90999985    1.94000006
   16.96833420  221.98199463    4.90999985    1.94000006
   16.96833420  169.10400391    4.90999985    2.00000000
   16.97027779  264.35501099    4.90999985    2.03999996
   16.97361183  192.40800476    4.90999985    2.01999998
   16.97694588  360.91400146    4.90999985    2.03999996
   16.97888947  195.29499817    4.90999985    2.00000000
   16.97888947  264.35501099    4.90999985    2.03999996
   16.97916794  192.40800476    4.90999985    2.01999998
   16.97916794  360.91400146    4.90999985    2.03999996
   16.98111153  192.20199585    4.90999985    2.00000000
   16.98444557  206.25599670    4.90999985    2.00000000
   16.98750114  165.56199646    4.90999985    1.94000006
   16.99083328  258.74099731    4.90999985    1.98000002
   16.99416733  208.63099670    4.90999985    2.00000000
   16.99972153  208.63099670    4.90999985    2.03999996
   17.00388908  232.72999573    4.90999985    2.01999998
   17.00694466  206.55700684    4.90999985    2.01999998
   17.01027870  219.35200500    4.90999985    2.01999998
   17.01277733  275.25500488    4.90999985    2.01999998
   17.01388931  201.67599487    4.90999985    2.03999996
   17.01722145  186.13400269    4.90999985    2.07999992
   17.02055550  236.08099365    4.90999985    1.98000002
   17.02361107  238.97399902    4.90999985    2.00000000
   17.02694511  176.74200439    4.90999985    2.03999996
   17.03027725  186.81300354    4.90999985    2.07999992
   17.03333282  175.11399841    4.90999985    2.07999992
   17.03666687  164.39300537    4.90999985    2.03999996
   17.04249954  164.39300537    4.90999985    2.13000011
   17.04666710  175.08500671    4.90999985    2.11999989
   17.04972076  146.83900452    4.90999985    2.09999990
   17.05305481  184.82699585    4.90999985    2.11999989
   17.05638885  161.50000000    4.90999985    2.15000010
   17.05944443  158.61399841    4.90999985    2.05999994
   17.06277657  193.31799316    4.90999985    2.05999994
   17.06611061  140.66000366    4.90999985    2.07999992
   17.06916809  156.09599304    4.90999985    2.13000011
   17.07250023  178.31399536    4.90999985    2.09999990
   17.07555580  153.74499512    4.90999985    2.05999994
   17.07888985  144.88400269    4.90999985    2.11999989
   17.07944489  135.31700134    4.90999985    2.11999989
   17.08527756  135.31700134    4.90999985    2.17000008
   17.08944511  153.07600403    4.90999985    2.15000010
   17.09277916  130.20899963    4.90999985    2.15000010
   17.09583473  141.89799500    4.90999985    2.19000006
   17.09916687  147.72099304    4.90999985    2.17000008
   17.10250092  164.19799805    4.90999985    2.21000004
   17.10555649  146.55599976    4.90999985    2.19000006
   17.10888863  115.92400360    4.90999985    2.21000004
   17.11222267  110.77100372    4.90999985    2.23000002
   17.11277771  123.09899902    4.90999985    2.26999998
   17.11583328  120.04699707    4.90999985    2.19000006
   17.11888885   99.61450195    4.90999985    2.30999994
   17.12222290  117.79000092    4.90999985    2.30999994
   17.12833405  117.79000092    4.90999985    2.32999992
   17.13222313  110.18599701    4.90999985    2.28999996
   17.13555527  101.60900116    4.90999985    2.26999998
   17.13888931  111.94000244    4.90999985    2.25000000
   17.14194489  118.69400024    4.90999985    2.30999994
   17.14527702  112.55000305    4.90999985    2.34999990
   17.14611053  106.21399689    4.90999985    2.39000010
   17.14888954   97.46029663    4.90999985    2.36999989
   17.15194321  104.20800018    4.90999985    2.39000010
   17.15527725  108.40499878    4.90999985    2.39000010
   17.15861130   96.78669739    4.90999985    2.40000010
   17.16166687   99.36470032    4.90999985    2.39000010
   17.16499901   98.20780182    4.90999985    2.40000010
   17.17111015   98.20780182    4.90999985    2.40000010
   17.17527771  101.60800171    4.90999985    2.44000006
   17.17833328   90.39109802    4.90999985    2.42000008
   17.17944336   89.93419647    4.90999985    2.40000010
   17.18222237   88.66049957    4.90999985    2.44000006
   17.18527603   92.72049713    4.90999985    2.40000010
   17.18861008   89.66390228    4.90999985    2.46000004
   17.19194412   87.31569672    4.90999985    2.51999998
   17.19499969   87.72910309    4.90999985    2.48000002
   17.19833183   88.76789856    4.90999985    2.48000002
   17.20138931   86.63289642    4.90999985    2.48000002
   17.20472336   87.36679840    4.90999985    2.48000002
   17.20805550   90.59639740    4.90999985    2.48000002
   17.21389008   90.59639740    4.90999985    2.53999996
   17.21805573   87.12529755    4.90999985    2.53999996
   17.22111130   91.63459778    4.90999985    2.46000004
   17.22444534   88.62049866    4.90999985    2.48000002
   17.22777748   90.23159790    4.90999985    2.48000002
   17.23083305   81.51480103    4.90999985    2.48000002
   17.23416710   -1.00000000    4.90999985    2.51999998
   17.23750114   -1.00000000    4.90999985    2.50000000
   17.24055672   98.32350159    4.90999985    2.51999998
   17.24388885   92.44039917    4.90999985    2.48000002
   17.24611092   85.80339813    4.90999985    2.48000002
   17.24749947   85.72530365    4.90999985    2.48000002
   17.25055504   84.53070068    4.90999985    2.44000006
   17.25666618   84.53070068    4.90999985    2.53999996
   17.26083374   85.23729706    4.90999985    2.42000008
   17.26416588   83.09120178    4.90999985    2.48000002
   17.26722145   83.26609802    4.90999985    2.51999998
   17.27055550   85.18019867    4.90999985    2.53999996
   17.27388954   88.30549622    4.90999985    2.46000004
   17.27694511   92.39559937    4.90999985    2.50000000
   17.27944374   88.89019775    4.90999985    2.48000002
   17.28083229   87.88210297    4.90999985    2.50000000
   17.28388786   -1.00000000    4.90999985    2.48000002
   17.28722191   -1.00000000    4.90999985    2.44000006
   17.29055595   78.53939819    4.90999985    2.48000002
   17.29361153   92.14119720    4.90999985    2.48000002
   17.29972076   92.14119720    4.90999985    2.48000002
   17.30360985   90.89939880    4.90999985    2.51999998
   17.30694389   98.00839996    4.90999985    2.44000006
   17.31027794  101.18800354    4.90999985    2.50000000
   17.31277657   96.22080231    4.90999985    2.42000008
   17.31388855   85.81400299    4.90999985    2.48000002
   17.31694603   97.01930237    4.90999985    2.48000002
   17.32027817   94.13150024    4.90999985    2.53999996
   17.32361221   94.16639709    4.90999985    2.46000004
   17.32666779   90.51390076    4.90999985    2.46000004
   17.33000183   86.93000031    4.90999985    2.50000000
   17.33305550   -1.00000000    4.90999985    2.57999992
   17.33638954   -1.00000000    4.90999985    2.57999992
   17.34250069   -1.00000000    4.90999985    2.53999996
   17.34666824   92.02980042    4.90999985    2.50000000
   17.34972191   94.19650269    4.90999985    2.50000000
   17.36944389   87.93710327    4.90999985    2.48000002
   17.37277794   89.03669739    4.90999985    2.50000000
   17.37638855   93.55200195    4.90999985    2.48000002
   17.37972260   87.13829803    4.90999985    2.50000000
   17.38027763   91.00209808    4.90999985    2.51999998
   17.38527679   91.00209808    4.90999985    2.53999996
   17.38944435   88.16919708    4.90999985    2.46000004
   17.39249992   -1.00000000    4.90999985    2.46000004
   17.39638901   -1.00000000    4.90999985    2.50000000
   17.39944458   92.72450256    4.90999985    2.55999994
   17.40277672   83.52159882    4.90999985    2.57999992
   17.40611076   84.84799957    4.90999985    2.57999992
   17.40916634   82.41549683    4.90999985    2.59999990
   17.41250038   87.23979950    4.90999985    2.59999990
   17.41305542   84.76599884    4.90999985    2.61999989
   17.41611099   83.30180359    4.90999985    2.59999990
   17.41916656   85.32810211    4.90999985    2.57999992
   17.42249870   93.87030029    4.90999985    2.55999994
   17.42860985   93.87030029    4.90999985    2.59999990
   17.43277740   87.90080261    4.90999985    2.55999994
   17.43583298   87.12400055    4.90999985    2.55999994
   17.43916512   83.36080170    4.90999985    2.55999994
   17.44249916   84.98739624    4.90999985    2.57999992
   17.44555473   84.08249664    4.90999985    2.57999992
   17.44638824   85.45529938    4.90999985    2.55999994
   17.44944382   87.92259979    4.90999985    2.55999994
   17.45250130   93.39340210    4.90999985    2.55999994
   17.45583344   79.73729706    4.90999985    2.53999996
   17.45916748   87.29440308    4.90999985    2.55999994
   17.46222305   81.37400055    4.90999985    2.53999996
   17.46555710   86.77259827    4.90999985    2.61999989
   17.47138977   86.77259827    4.90999985    2.53999996
   17.47555542   86.86419678    4.90999985    2.55999994
   17.47888947   86.15170288    4.90999985    2.55999994
   17.47972298   85.22470093    4.90999985    2.55999994
   17.48250008   76.78209686    4.90999985    2.55999994
   17.48555565   93.16310120    4.90999985    2.53999996
   17.48888969   90.67800140    4.90999985    2.55999994
   17.49222183   83.47139740    4.90999985    2.51999998
   17.49527740   88.89659882    4.90999985    2.48000002
   17.49861145   92.01249695    4.90999985    2.55999994
   17.50166702   86.36589813    4.90999985    2.48000002
   17.50499916   84.43489838    4.90999985    2.48000002
   17.50833321   85.56700134    4.90999985    2.50000000
   17.51444435   85.56700134    4.90999985    2.46000004
   17.51833344   81.92389679    4.90999985    2.48000002
   17.52166557   87.40560150    4.90999985    2.46000004
   17.52499962   97.30110168    4.90999985    2.50000000
   17.52805519   83.97869873    4.90999985    2.46000004
   17.53138924   82.02700043    4.90999985    2.50000000
   17.53444481   89.79869843    4.90999985    2.44000006
   17.53777695   86.91290283    4.90999985    2.46000004
   17.54111099   93.77590179    4.90999985    2.48000002
   17.54416656   89.34760284    4.90999985    2.48000002
   17.54638863   86.03060150    4.90999985    2.53999996
   17.54805565   79.88970184    4.90999985    2.51999998
   17.55111122   83.36560059    4.90999985    2.46000004
   17.55722237   83.36560059    4.90999985    2.46000004
   17.56138802   88.04329681    4.90999985    2.48000002
   17.56444359   91.77210236    4.90999985    2.44000006
   17.56777954   88.47560120    4.90999985    2.46000004
   17.57083511   91.23030090    4.90999985    2.42000008
   17.57416725   98.40019989    4.90999985    2.48000002
   17.57750130   92.81839752    4.90999985    2.36999989
   17.57972336   86.93070221    4.90999985    2.46000004
   17.58111191   86.19499969    4.90999985    2.46000004
   17.58416748   89.36669922    4.90999985    2.42000008
   17.58750153   82.97669983    4.90999985    2.42000008
   17.59083366   92.01869965    4.90999985    2.42000008
   17.59388924   92.93820190    4.90999985    2.44000006
   17.60000038   92.93820190    4.90999985    2.40000010
   17.60416794   92.61399841    4.90999985    2.39000010
   17.60722351   93.29660034    4.90999985    2.40000010
   17.61055565   98.72470093    4.90999985    2.39000010
   17.61305618   90.36070251    4.90999985    2.34999990
   17.61416626   92.11070251    4.90999985    2.36999989
   17.61722183  105.93499756    4.90999985    2.32999992
   17.62055588   92.72319794    4.90999985    2.34999990
   17.62388992   86.80740356    4.90999985    2.50000000
   17.62694550  101.24500275    4.90999985    2.44000006
   17.63027763   95.29019928    4.90999985    2.42000008
   17.63333321   83.96199799    4.90999985    2.46000004
   17.63666725  105.01100159    4.90999985    2.46000004
   17.64277840  105.01100159    4.90999985    2.46000004
   17.64694405   93.64170074    4.90999985    2.42000008
   17.65027809  105.75099945    4.90999985    2.40000010
   17.65333366  106.43900299    4.90999985    2.26999998
   17.65666580   90.43769836    4.90999985    2.30999994
   17.65999985   90.42140198    4.90999985    2.39000010
   17.66305542   94.95040131    4.90999985    2.46000004
   17.66638756   98.23539734    4.90999985    2.40000010
   17.66972160   97.21959686    4.90999985    2.30999994
   17.67277718   99.68759918    4.90999985    2.28999996
   17.67611122  102.49099731    4.90999985    2.39000010
   17.67916679  102.37799835    4.90999985    2.30999994
   17.67972183   93.69059753    4.90999985    2.26999998
   17.68583298   93.69059753    4.90999985    2.34999990
   17.68972206   85.87840271    4.90999985    2.34999990
   17.69305420  103.55300140    4.90999985    2.39000010
   17.69638824  102.48999786    4.90999985    2.32999992
   17.69944382   97.99400330    4.90999985    2.32999992
   17.70277786  101.66699982    4.90999985    2.32999992
   17.70611191   91.87069702    4.90999985    2.32999992
   17.70916748   91.90499878    4.90999985    2.40000010
   17.71250153   90.39389801    4.90999985    2.39000010
   17.71305656   98.59580231    4.90999985    2.39000010
   17.71611214  101.01799774    4.90999985    2.36999989
   17.71944427  105.36100006    4.90999985    2.28999996
   17.72249985  116.19300079    4.90999985    2.30999994
   17.72861099  116.19300079    4.90999985    2.34999990
   17.73277855  104.76499939    4.90999985    2.30999994
   17.73583412  107.35600281    4.90999985    2.30999994
   17.73916626  100.80300140    4.90999985    2.26999998
   17.74222183  123.46399689    4.90999985    2.36999989
   17.74555588  126.39199829    4.90999985    2.19000006
   17.74638939  113.34300232    4.90999985    2.15000010
   17.74916649   98.09369659    4.90999985    2.15000010
   17.75250053  124.69000244    4.90999985    2.11999989
   17.75555611  291.85501099    4.90999985    2.09999990
   17.75888824  133.93400574    4.90999985    2.07999992
   17.76222229  130.52799988    4.90999985    2.19000006
   17.76527786  148.75300598    4.90999985    2.23000002
   17.77138901  148.75300598    4.90999985    2.25000000
   17.77555466  123.94699860    4.90999985    2.13000011
   17.77861023  135.99600220    4.90999985    2.11999989
   17.77972221  133.16000366    4.90999985    2.13000011
   17.78222275  203.76699829    4.90999985    2.17000008
   17.78555489  190.64199829    4.90999985    2.11999989
   17.78861046  167.73599243    4.90999985    2.05999994
   17.79194450  164.74699402    4.90999985    2.01999998
   17.79527664  191.53799438    4.90999985    2.07999992
   17.79833221  187.76100159    4.90999985    2.05999994
   17.80166626  170.68800354    4.90999985    2.11999989
   17.80472183  167.94200134    4.90999985    2.09999990
   17.80805397   97.16660309    4.90999985    2.07999992
   17.81416512   97.16660309    4.90999985    2.01999998
   17.81833458   -1.00000000    4.90999985    1.98000002
   17.82166672   38.16350174    4.90999985    2.00000000
   17.82472229   32.36949921    4.90999985    2.00000000
   17.82805634   -1.00000000    4.90999985    1.91999996
   17.83139038   -1.00000000    4.90999985    1.89999998
   17.83444595   -1.00000000    4.90999985    1.94000006
   17.83777809   23.57019997    4.90999985    1.86000001
   17.84111214   -1.00000000    4.90999985    1.88000000
   17.84416771   -1.00000000    4.90999985    1.89999998
   17.84777832   -1.00000000    4.90999985    1.86000001
   17.85083389   -1.00000000    4.90999985    1.88000000
   17.85722351   -1.00000000    4.90999985    1.88000000
   17.86111069   -1.00000000    4.90999985    1.86000001
   17.86444473   -1.00000000    4.90999985    1.88000000
   17.86777878   -1.00000000    4.90999985    1.86000001
   17.87083435   -1.00000000    4.90999985    1.86000001
   17.87416649   -1.00000000    4.90999985    1.85000002
   17.87750053   -1.00000000    4.90999985    1.94000006
   17.88111115   -1.00000000    4.90999985    1.80999994
   17.88416672   -1.00000000    4.90999985    1.76999998
   17.88750076   -1.00000000    4.90999985    1.88000000
   17.89083290   -1.00000000    4.90999985    1.86000001
   17.89444351   -1.00000000    4.90999985    1.78999996
   17.89999962   -1.00000000    4.90999985    1.75000000
   17.90416718   -1.00000000    4.90999985    1.83000004
   17.90722275   -1.00000000    4.90999985    1.76999998
   17.91055489   -1.00000000    4.90999985    1.75000000
   17.91416550   -1.00000000    4.90999985    1.76999998
   17.91722107   -1.00000000    4.90999985    1.76999998
   17.92055511   -1.00000000    4.90999985    1.76999998
   17.92388916   -1.00000000    4.90999985    1.80999994
   17.92694473   -1.00000000    4.90999985    1.80999994
   17.93027687   -1.00000000    4.90999985    1.73000002
   17.93333244   -1.00000000    4.90999985    1.71000004
   17.93666649   -1.00000000    4.90999985    1.75000000
   17.94277763   -1.00000000    4.90999985    1.76999998
   17.94694328   -1.00000000    4.90999985    1.64999998
   17.95027924   -1.00000000    4.90999985    1.66999996
   17.95333481   -1.00000000    4.90999985    1.69000006
   17.95666695   -1.00000000    4.90999985    1.60000002
   17.95972252   -1.00000000    4.90999985    1.36000001
   17.96305656   -1.00000000    4.90999985    1.46000004
   17.96638870   -1.00000000    4.90999985    1.44000006
   17.96944427   -1.00000000    4.90999985    1.50000000
   17.97277832   -1.00000000    4.90999985    1.23000002
   17.97611237   -1.00000000    4.90999985    1.30999994
   17.97916794   -1.00000000    4.90999985    1.23000002
   17.98972321   -1.00000000    4.90999985    1.03999996
   17.99277878   -1.00000000    4.90999985    1.05999994
   17.99611092   -1.00000000    4.90999985    1.07000005
   17.99944496   -1.00000000    4.90999985    1.01999998
   18.00250053   -1.00000000    4.90999985    0.89999998
   18.00583267   -1.00000000    4.90999985    0.86000001
   18.00916672   -1.00000000    4.90999985    0.83999997
   18.01222229   -1.00000000    4.90999985    0.81999999
   18.01583290   -1.00000000    4.90999985    0.79000002
   18.01888847   -1.00000000    4.90999985    0.75000000
   18.02222252   -1.00000000    4.90999985    0.70999998
   18.03249931   -1.00000000    4.90999985    0.70999998
   18.03583336   -1.00000000    4.90999985    0.70999998
   18.03888893   -1.00000000    4.90999985    0.79000002
   18.04222107   -1.00000000    4.90999985    0.75000000
   18.04555511   -1.00000000    4.90999985    0.70999998
   18.04888916   -1.00000000    4.90999985    0.63000000
   18.05194283   -1.00000000    4.90999985    0.55000001
   18.05527687   -1.00000000    4.90999985    0.52999997
   18.05861092   -1.00000000    4.90999985    0.55000001
   18.06166649   -1.00000000    4.90999985    0.55000001
   18.06499863   -1.00000000    4.90999985    0.55000001
   18.07527924   -1.00000000    4.90999985    0.50000000
   18.07861137   -1.00000000    4.90999985    0.51999998
   18.08222389   -1.00000000    4.90999985    0.50000000
   18.08527756   -1.00000000    4.90999985    0.47999999
   18.08861160   -1.00000000    4.90999985    0.50000000
   18.09194565   -1.00000000    4.90999985    0.56999999
   18.09500122   -1.00000000    4.90999985    0.56999999
   18.09833336   -1.00000000    4.90999985    0.56999999
   18.10166740   -1.00000000    4.90999985    0.52999997
   18.10472298   -1.00000000    4.90999985    0.51999998
   18.10805511   -1.00000000    4.90999985    0.46000001
   18.11833382   -1.00000000    4.90999985    0.50000000
   18.12138939   -1.00000000    4.90999985    0.40000001
   18.12472153   -1.00000000    4.90999985    0.40000001
   18.12777710   -1.00000000    4.90999985    0.40000001
   18.13111115   -1.00000000    4.90999985    0.40000001
   18.13444519   -1.00000000    4.90999985    0.38000000
   18.13750076   -1.00000000    4.90999985    0.38000000
   18.14083290   -1.00000000    4.90999985    0.44000000
   18.14416695   -1.00000000    4.90999985    0.47999999
   18.14749908   -1.00000000    4.90999985    0.47999999
   18.15055466   -1.00000000    4.90999985    0.47999999
   18.16110992   -1.00000000    4.90999985    0.41999999
   18.16416550   -1.00000000    4.90999985    0.40000001
   18.16749954   -1.00000000    4.90999985    0.40000001
   18.17083359   -1.00000000    4.90999985    0.40000001
   18.17388916   -1.00000000    4.90999985    0.41999999
   18.17722130   -1.00000000    4.90999985    0.40000001
   18.18083191   -1.00000000    4.90999985    0.38000000
   18.18388748   -1.00000000    4.90999985    0.40000001
   18.18722153   -1.00000000    4.90999985    0.38000000
   18.19055557   -1.00000000    4.90999985    0.38000000
   18.19361115   -1.00000000    4.90999985    0.34000000
   18.20388985   -1.00000000    4.90999985    0.38000000
   18.20722389   -1.00000000    4.90999985    0.38000000
   18.21027946   -1.00000000    4.90999985    0.41999999
   18.21389008   -1.00000000    4.90999985    0.40000001
   18.21694565   -1.00000000    4.90999985    0.44000000
   18.22027779   -1.00000000    4.90999985    0.40000001
   18.22361183   -1.00000000    4.90999985    0.36000001
   18.22666740   -1.00000000    4.90999985    0.36000001
   18.23000145   -1.00000000    4.90999985    0.34000000
   18.23333359   -1.00000000    4.90999985    0.34000000
   18.23638916   -1.00000000    4.90999985    0.34000000
   18.24666786   -1.00000000    4.90999985    0.31999999
   18.25000000   -1.00000000    4.90999985    0.30000001
   18.25333405   -1.00000000    4.90999985    0.30000001
   18.25638962   -1.00000000    4.90999985    0.30000001
   18.25972176   -1.00000000    4.90999985    0.31999999
   18.26277733   -1.00000000    4.90999985    0.28000000
   18.26611137   -1.00000000    4.90999985    0.30000001
   18.26944351   -1.00000000    4.90999985    0.30000001
   18.27249908   -1.00000000    4.90999985    0.31999999
   18.27583313   -1.00000000    4.90999985    0.30000001
   18.27916718   -1.00000000    4.90999985    0.31999999
   18.28972244   -1.00000000    4.90999985    0.28000000
   18.29277802   -1.00000000    4.90999985    0.30000001
   18.29611015   -1.00000000    4.90999985    0.28000000
   18.29916573   -1.00000000    4.90999985    0.30000001
   18.30249977   -1.00000000    4.90999985    0.30000001
   18.30583191   -1.00000000    4.90999985    0.31999999
   18.30888748   -1.00000000    4.90999985    0.31999999
   18.31222153   -1.00000000    4.90999985    0.31999999
   18.31583214   -1.00000000    4.90999985    0.31999999
   18.31916809   -1.00000000    4.90999985    0.31999999
   18.32222366   -1.00000000    4.90999985    0.34000000
   18.33250046   -1.00000000    4.90999985    0.34000000
   18.33555603   -1.00000000    4.90999985    0.34000000
   18.33889008   -1.00000000    4.90999985    0.34000000
   18.34222221   -1.00000000    4.90999985    0.36000001
   18.34527779   -1.00000000    4.90999985    0.38000000
   18.34889030   -1.00000000    4.90999985    0.36000001
   18.35222244   -1.00000000    4.90999985    0.36000001
   18.35527802   -1.00000000    4.90999985    0.34000000
   18.35861206   -1.00000000    4.90999985    0.36000001
   18.36166763   -1.00000000    4.90999985    0.31999999
   18.36499977   -1.00000000    4.90999985    0.31999999
   18.38583374   -1.00000000    4.90999985    0.30000001
   18.38916588   -1.00000000    4.90999985    0.28000000
   18.39222145   -1.00000000    4.90999985    0.25999999
   18.39555550   -1.00000000    4.90999985    0.28000000
   18.39861107   -1.00000000    4.90999985    0.30000001
   18.40194321   -1.00000000    4.90999985    0.30000001
   18.40527725   -1.00000000    4.90999985    0.31999999
   18.40833282   -1.00000000    4.90999985    0.34000000
   18.41805458   -1.00000000    4.90999985    0.41999999
   18.42166519   -1.00000000    4.90999985    0.40000001
   18.42472076   -1.00000000    4.90999985    0.40000001
   18.42805481   -1.00000000    4.90999985    0.44000000
   18.43111038   -1.00000000    4.90999985    0.44000000
   18.43444443   -1.00000000    4.90999985    0.41999999
   18.43777657   -1.00000000    4.90999985    0.40000001
   18.44083214   -1.00000000    4.90999985    0.38000000
   18.44416618   -1.00000000    4.90999985    0.40000001
   18.44749832   -1.00000000    4.90999985    0.41999999
   18.45055580   -1.00000000    4.90999985    0.41999999
   18.46111107   -1.00000000    4.90999985    0.47999999
   18.46416664   -1.00000000    4.90999985    0.47999999
   18.46750069   -1.00000000    4.90999985    0.47999999
   18.47055626   -1.00000000    4.90999985    0.55000001
   18.47389030   -1.00000000    4.90999985    0.56999999
   18.47722244   -1.00000000    4.90999985    0.61000001
   18.48027802   -1.00000000    4.90999985    0.64999998
   18.48361206   -1.00000000    4.90999985    0.69000000
   18.48722267   -1.00000000    4.90999985    0.73000002
   18.49027824   -1.00000000    4.90999985    0.70999998
   18.49361229   -1.00000000    4.90999985    0.73000002
   18.50388908   -1.00000000    4.90999985    0.75000000
   18.50694466   -1.00000000    4.90999985    0.73000002
   18.51027870   -1.00000000    4.90999985    0.70999998
   18.51361084   -1.00000000    4.90999985    0.73000002
   18.51666641   -1.00000000    4.90999985    0.70999998
   18.52027702   -1.00000000    4.90999985    0.69000000
   18.52333260   -1.00000000    4.90999985    0.73000002
   18.52666664   -1.00000000    4.90999985    0.73000002
   18.52972221   -1.00000000    4.90999985    0.67000002
   18.53305435   -1.00000000    4.90999985    0.70999998
   18.53638840   -1.00000000    4.90999985    0.67000002
   18.54666710   -1.00000000    4.90999985    0.63000000
   18.54999924   -1.00000000    4.90999985    0.61000001
   18.55360985   -1.00000000    4.90999985    0.58999997
   18.55666542   -1.00000000    4.90999985    0.61000001
   18.55999947   -1.00000000    4.90999985    0.58999997
   18.56305504   -1.00000000    4.90999985    0.61000001
   18.56638718   -1.00000000    4.90999985    0.58999997
   18.56972313   -1.00000000    4.90999985    0.58999997
   18.57277870   -1.00000000    4.90999985    0.56999999
   18.57611275   -1.00000000    4.90999985    0.56999999
   18.57944489   -1.00000000    4.90999985    0.56999999
   18.58944511   -1.00000000    4.90999985    0.52999997
   18.59277916   -1.00000000    4.90999985    0.52999997
   18.59611130   -1.00000000    4.90999985    0.52999997
   18.59916687   -1.00000000    4.90999985    0.52999997
   18.60250092   -1.00000000    4.90999985    0.52999997
   18.60555649   -1.00000000    4.90999985    0.51999998
   18.60888863   -1.00000000    4.90999985    0.51999998
   18.61222267   -1.00000000    4.90999985    0.50000000
   18.61527824   -1.00000000    4.90999985    0.47999999
   18.61861038   -1.00000000    4.90999985    0.46000001
   18.62222290   -1.00000000    4.90999985    0.46000001
   18.63249969   -1.00000000    4.90999985    0.46000001
   18.63555527   -1.00000000    4.90999985    0.44000000
   18.63888931   -1.00000000    4.90999985    0.44000000
   18.64194489   -1.00000000    4.90999985    0.44000000
   18.64527702   -1.00000000    4.90999985    0.44000000
   18.64861107   -1.00000000    4.90999985    0.44000000
   18.65166664   -1.00000000    4.90999985    0.41999999
   18.65527725   -1.00000000    4.90999985    0.44000000
   18.65861130   -1.00000000    4.90999985    0.46000001
   18.66166687   -1.00000000    4.90999985    0.47999999
   18.66499901   -1.00000000    4.90999985    0.46000001
   18.67527771   -1.00000000    4.90999985    0.46000001
   18.67833328   -1.00000000    4.90999985    0.46000001
   18.68166542   -1.00000000    4.90999985    0.50000000
   18.68499947   -1.00000000    4.90999985    0.50000000
   18.68833160   -1.00000000    4.90999985    0.50000000
   18.69166565   -1.00000000    4.90999985    0.51999998
   18.69472122   -1.00000000    4.90999985    0.52999997
   18.69805527   -1.00000000    4.90999985    0.52999997
   18.70138931   -1.00000000    4.90999985    0.52999997
   18.70444489   -1.00000000    4.90999985    0.55000001
   18.70777893   -1.00000000    4.90999985    0.51999998
   18.71805573   -1.00000000    4.90999985    0.50000000
   18.72166634   -1.00000000    4.90999985    0.50000000
   20.69027710   -1.00000000   -1.00000000   -1.00000000
