    HOUR (UT)   FLARE FACTOR    SKY TESTER    SUN TESTER
   11.87194443   -1.00000000   -1.00000000   -1.00000000
   11.93944454  112.01899719    0.94000000    0.30000001
   11.94250011  108.51699829    0.94000000    0.30000001
   11.94583321  110.76100159    0.94000000    0.30000001
   11.94916630  115.37699890    0.94000000    0.30000001
   11.95222187  106.69999695    0.94000000    0.30000001
   11.95555496  108.95600128    0.94000000    0.30000001
   11.95972157  108.95600128    0.94000000    0.30000001
   11.96388912  107.73200226    0.94000000    0.30000001
   11.96694374  109.76300049    0.92000002    0.30000001
   11.97027779  117.34400177    0.92000002    0.30000001
   11.97249985  108.44599915    0.92000002    0.30000001
   11.97388840  108.19899750    0.92000002    0.30000001
   11.97722149  103.68399811    0.92000002    0.30000001
   11.98027706  108.79799652    0.92000002    0.30000001
   11.98361111  109.77300262    0.92000002    0.30000001
   11.98694515  111.93499756    0.92000002    0.30000001
   11.99000072  100.42299652    0.89999998    0.30000001
   11.99333382  116.05400085    0.89999998    0.30000001
   11.99638939  106.47299957    0.89999998    0.30000001
   12.00249958  106.47299957    0.89999998    0.30000001
   12.00666714  113.37200165    0.89999998    0.30000001
   12.00972176  108.04199982    0.88000000    0.30000001
   12.01305580  107.36499786    0.88000000    0.30000001
   12.01638889  108.16200256    0.88000000    0.30000001
   12.01944447  106.94400024    0.88000000    0.30000001
   12.02277756  106.34799957    0.88000000    0.30000001
   12.02611065  103.08200073    0.86000001    0.30000001
   12.02916622  106.04699707    0.86000001    0.30000001
   12.03249931  110.67500305    0.86000001    0.30000001
   12.03555584  103.90499878    0.86000001    0.30000001
   12.03888893  104.69000244    0.86000001    0.30000001
   12.03944492  109.76799774    0.86000001    0.30000001
   12.04527855  109.76799774    0.86000001    0.30000001
   12.04944515  105.45200348    0.83999997    0.30000001
   12.05277824  104.53299713    0.83999997    0.30000001
   12.05583382  106.59100342    0.83999997    0.31999999
   12.05916691  104.50199890    0.83999997    0.30000001
   12.06250000  109.42500305    0.83999997    0.31999999
   12.06555557  107.31400299    0.83999997    0.31999999
   12.06888866  113.19499969    0.83999997    0.30000001
   12.07194424  107.89900208    0.81999999    0.30000001
   12.07277775  102.63999939    0.81999999    0.30000001
   12.07583332  106.38999939    0.83999997    0.30000001
   12.07888889  113.65699768    0.81999999    0.30000001
   12.08222198   99.47689819    0.81999999    0.30000001
   12.08805561   99.47689819    0.81999999    0.30000001
   12.09222221  102.50900269    0.81999999    0.31999999
   12.09555531  109.22299957    0.81999999    0.31999999
   12.09888840  106.81999969    0.81999999    0.31999999
   12.10194492  103.14700317    0.81999999    0.30000001
   12.10527802  104.55100250    0.81999999    0.30000001
   12.10611153  109.05300140    0.81999999    0.30000001
   12.10888958  103.27899933    0.80000001    0.30000001
   12.11194515  104.85700226    0.80000001    0.30000001
   12.11527824  105.48200226    0.80000001    0.30000001
   12.11861134  108.55799866    0.80000001    0.30000001
   12.12166691  104.98300171    0.80000001    0.30000001
   12.12500000  108.22799683    0.80000001    0.30000001
   12.13111115  108.22799683    0.80000001    0.31999999
   12.13527775  111.40200043    0.80000001    0.31999999
   12.13833332   98.60870361    0.79000002    0.31999999
   12.13944435  103.52200317    0.79000002    0.30000001
   12.14222240  103.03299713    0.79000002    0.30000001
   12.14527798   99.92019653    0.79000002    0.30000001
   12.14861107  102.92500305    0.79000002    0.30000001
   12.15194416   98.38120270    0.79000002    0.30000001
   12.15499973   98.75440216    0.79000002    0.30000001
   12.15833282   99.72859955    0.79000002    0.30000001
   12.16138840   97.76380157    0.79000002    0.30000001
   12.16472149   96.22589874    0.76999998    0.31999999
   12.16805553   99.27059937    0.79000002    0.31999999
   12.17388916   99.27059937    0.79000002    0.31999999
   12.17805576  100.53399658    0.76999998    0.30000001
   12.18111134  100.90599823    0.76999998    0.30000001
   12.18444443   99.27459717    0.76999998    0.30000001
   12.18777752  100.02799988    0.75000000    0.30000001
   12.19083309  101.05999756    0.75000000    0.30000001
   12.19416714  103.76300049    0.75000000    0.30000001
   12.19750023  101.85399628    0.75000000    0.31999999
   12.20055580  100.97200012    0.75000000    0.31999999
   12.20388889  104.88899994    0.75000000    0.31999999
   12.20611095  109.00099945    0.75000000    0.30000001
   12.20749950  103.91200256    0.75000000    0.30000001
   12.21055508  110.85099792    0.75000000    0.31999999
   12.21666622  110.85099792    0.75000000    0.30000001
   12.22083282  112.24600220    0.75000000    0.31999999
   12.22416592  106.13099670    0.75000000    0.31999999
   12.22722149  106.91500092    0.73000002    0.31999999
   12.23055553  103.30899811    0.75000000    0.31999999
   12.23388958   97.84870148    0.73000002    0.31999999
   12.23694515  104.53500366    0.73000002    0.31999999
   12.23944473  107.76799774    0.73000002    0.31999999
   12.24083328  108.65399933    0.75000000    0.31999999
   12.24388885  104.46099854    0.73000002    0.31999999
   12.24722290  105.61100006    0.73000002    0.31999999
   12.25055599   96.24590302    0.73000002    0.31999999
   12.25361156   94.76940155    0.73000002    0.31999999
   12.25944424   94.76940155    0.73000002    0.31999999
   12.26361084  106.25499725    0.73000002    0.31999999
   12.26694393   96.73149872    0.73000002    0.31999999
   12.27027798   96.05529785    0.73000002    0.31999999
   12.27277756  109.64199829    0.73000002    0.31999999
   12.27388859   94.60639954    0.73000002    0.31999999
   12.27694416  106.87500000    0.73000002    0.31999999
   12.28027725   98.74849701    0.73000002    0.31999999
   12.28361130   91.86440277    0.70999998    0.31999999
   12.28666687   97.25700378    0.70999998    0.31999999
   12.29000092   96.24130249    0.70999998    0.31999999
   12.29305553   97.17639923    0.70999998    0.31999999
   12.29638958   97.96679688    0.73000002    0.31999999
   12.30249977   97.96679688    0.70999998    0.31999999
   12.30666733   96.54419708    0.70999998    0.31999999
   12.30972195   96.97109985    0.70999998    0.31999999
   12.31305599   96.45619965    0.70999998    0.31999999
   12.31611156   94.50789642    0.70999998    0.31999999
   12.31944466   90.87740326    0.70999998    0.31999999
   12.32277775   91.87740326    0.69000000    0.31999999
   12.32583332   94.71720123    0.69000000    0.31999999
   12.32916641   94.21080017    0.69000000    0.31999999
   12.33249950   95.12439728    0.69000000    0.31999999
   12.33555508   91.27590179    0.69000000    0.31999999
   12.33888817   94.81099701    0.69000000    0.31999999
   12.33944416   95.77100372    0.69000000    0.31999999
   12.34527779   95.77100372    0.69000000    0.31999999
   12.34944439   87.36180115    0.69000000    0.31999999
   12.35249996   97.13880157    0.69000000    0.31999999
   12.35583401   94.44509888    0.69000000    0.31999999
   12.35916710   92.68470001    0.69000000    0.31999999
   12.36222267   96.35399628    0.67000002    0.31999999
   12.36555576   92.51830292    0.69000000    0.31999999
   12.36888885   91.77519989    0.67000002    0.31999999
   12.37194443   95.97509766    0.69000000    0.31999999
   12.37277794   92.23329926    0.67000002    0.31999999
   12.37583351   93.41230011    0.69000000    0.31999999
   12.37888908   88.50900269    0.67000002    0.31999999
   12.38222218   91.41429901    0.67000002    0.31999999
   12.38805580   91.41429901    0.67000002    0.31999999
   12.39222240   93.35700226    0.73000002    0.31999999
   12.39555550   94.39640045    0.67000002    0.31999999
   12.39861107   92.43370056    4.21999979    2.34999990
   12.40194416   90.48729706    2.44000006    2.36999989
   12.40527725   92.30570221    2.44000006    2.36999989
   12.40611076   90.18720245    2.44000006    2.36999989
   12.40888882   90.14720154    2.44000006    2.36999989
   12.41194439   96.15899658    2.42000008    2.36999989
   12.41527748   93.38500214    2.44000006    2.36999989
   12.41861153   95.16690063    2.44000006    2.36999989
   12.42166710   93.08979797    2.44000006    2.36999989
   12.42500019   93.28600311    2.44000006    2.36999989
   12.43083382   93.28600311    2.44000006    2.36999989
   12.43500042   91.87550354    2.42000008    2.36999989
   12.43833351   88.97260284    2.42000008    2.36999989
   12.43944454   91.99810028    2.42000008    2.39000010
   12.44194412   92.92430115    2.42000008    2.36999989
   12.44499969   88.54190063    2.42000008    2.39000010
   12.44833374   89.56529999    2.42000008    2.39000010
   12.45166683   91.55259705    2.42000008    2.36999989
   12.45472240   89.77729797    2.42000008    2.39000010
   12.45805550   92.18759918    2.42000008    2.39000010
   12.46138859   89.28610229    2.40000010    2.39000010
   12.46444416   86.11599731    2.40000010    2.39000010
   12.46777725   89.55139923    2.40000010    2.39000010
   12.47388840   89.55139923    2.39000010    2.39000010
   12.47805500   90.39939880    2.39000010    2.39000010
   12.48111057   95.14939880    2.39000010    2.39000010
   12.48444462   89.33020020    2.36999989    2.40000010
   12.48750019   92.36879730    2.36999989    2.40000010
   12.49083328   87.88970184    2.36999989    2.40000010
   12.49416733   89.40249634    2.34999990    2.39000010
   12.49722290   91.42209625    2.34999990    2.39000010
   12.50055599   92.28269958    2.34999990    2.39000010
   12.50388908   91.69219971    2.34999990    2.40000010
   12.50611115   92.07510376    2.32999992    2.39000010
   12.50749969   91.41400146    2.32999992    2.39000010
   12.51055527   92.46959686    2.32999992    2.39000010
   12.51666641   92.46959686    2.30999994    2.40000010
   12.52083302   93.31159973    2.30999994    2.40000010
   12.52388859   86.39510345    2.30999994    2.40000010
   12.52722168   89.17790222    2.30999994    2.40000010
   12.53055573   90.10330200    2.30999994    2.40000010
   12.53361130   96.03199768    2.30999994    2.40000010
   12.53694534   90.23780060    2.30999994    2.40000010
   12.53944492   88.35369873    2.30999994    2.40000010
   12.54055595   89.95539856    2.32999992    2.40000010
   12.54361153   90.06469727    2.30999994    2.40000010
   12.54694462   92.77410126    2.32999992    2.40000010
   12.55027771   99.96389771    2.30999994    2.40000010
   12.55333328   92.29440308    2.32999992    2.40000010
   12.55944443   92.29440308    2.32999992    2.42000008
   12.56361103   91.30000305    2.32999992    2.42000008
   12.56694412   94.09470367    2.32999992    2.42000008
   12.56999969  100.73999786    2.32999992    2.40000010
   12.57277775   93.52559662    2.30999994    2.42000008
   12.57361126   89.65480042    2.30999994    2.42000008
   12.57666683   92.53970337    2.32999992    2.40000010
   12.57999992   92.07150269    2.30999994    2.42000008
   12.58333302   91.30909729    2.30999994    2.42000008
   12.58638859   91.16249847    2.28999996    2.42000008
   12.58972168   95.35130310    2.28999996    2.44000006
   12.59305477   90.69139862    2.28999996    2.44000006
   12.59611034   92.31670380    2.28999996    2.42000008
   12.60222244   92.31670380    2.26999998    2.42000008
   12.60638905   94.56150055    2.26999998    2.42000008
   12.60972214   89.69640350    2.25000000    2.42000008
   12.61305618   94.73789978    2.25000000    2.42000008
   12.61611176   98.72619629    2.23000002    2.42000008
   12.61944485   94.87870026    2.23000002    2.44000006
   12.62277794   91.84870148    2.21000004    2.44000006
   12.62583351   95.09519958    2.21000004    2.44000006
   12.62916660   90.86930084    2.21000004    2.46000004
   12.63222218   94.58209991    2.21000004    2.44000006
   12.63555527   90.84719849    2.19000006    2.44000006
   12.63888836   91.98609924    2.19000006    2.44000006
   12.63944435   94.35359955    2.19000006    2.44000006
   12.64527798   94.35359955    2.17000008    2.44000006
   12.64916611   98.17160034    2.17000008    2.46000004
   12.65249920   94.99880219    2.17000008    2.46000004
   12.65583324   95.80960083    2.17000008    2.46000004
   12.65888882   94.79750061    2.17000008    2.44000006
   12.66222191   94.41760254    2.17000008    2.44000006
   12.66555500   97.31500244    2.17000008    2.46000004
   12.66861153   93.00489807    2.17000008    2.46000004
   12.67194462   95.80889893    2.19000006    2.46000004
   12.67277813   98.43730164    2.19000006    2.46000004
   12.67555618   95.80100250    2.19000006    2.46000004
   12.67888927   98.80619812    2.19000006    2.46000004
   12.68194485   94.16410065    2.17000008    2.46000004
   12.68805599   94.16410065    2.17000008    2.46000004
   12.69222260   93.83010101    2.17000008    2.46000004
   12.69527817   95.13549805    2.15000010    2.46000004
   12.69861126   92.68370056    2.17000008    2.46000004
   12.70194435   95.12570190    2.17000008    2.46000004
   12.70499992   92.65440369    2.15000010    2.46000004
   12.70611095   94.42990112    2.17000008    2.46000004
   12.70861053   93.50150299    2.15000010    2.46000004
   12.71194458  101.97200012    2.15000010    2.46000004
   12.71500015   96.59480286    2.15000010    2.46000004
   12.71833324   99.13430023    2.17000008    2.46000004
   12.72138882   92.53089905    2.15000010    2.46000004
   12.72472191   92.36170197    2.15000010    2.46000004
   12.73083305   92.36170197    2.15000010    2.48000002
   12.73500061   97.88619995    2.13000011    2.46000004
   12.73833370   89.82469940    2.15000010    2.46000004
   12.73944473   94.14170074    2.15000010    2.46000004
   12.74194431   94.23049927    2.13000011    2.48000002
   12.74527836   92.99739838    2.13000011    2.46000004
   12.74833393   89.58409882    2.13000011    2.46000004
   12.75166702   90.66149902    2.13000011    2.48000002
   12.75472260   87.80159760    2.11999989    2.48000002
   12.75805569   97.45570374    2.11999989    2.48000002
   12.76138878   92.64379883    2.11999989    2.48000002
   12.76444435   89.52140045    2.11999989    2.48000002
   12.76777744   91.47339630    2.09999990    2.46000004
   12.77361107   91.47339630    2.07999992    2.48000002
   12.77777767   93.54830170    2.07999992    2.48000002
   12.78111076   93.94309998    2.05999994    2.48000002
   12.78416729   92.54699707    2.05999994    2.48000002
   12.78750038   97.38590240    2.05999994    2.48000002
   12.79083347   87.33509827    2.03999996    2.48000002
   12.79388905   98.65170288    2.03999996    2.48000002
   12.79722309   92.79039764    2.03999996    2.50000000
   12.80055618   95.53479767    2.03999996    2.48000002
   12.80361176   96.31829834    2.03999996    2.48000002
   12.80611134  100.18800354    2.01999998    2.50000000
   12.80722237   94.55860138    2.01999998    2.48000002
   12.81055546   93.23809814    2.01999998    2.50000000
   12.81666660   93.23809814    2.01999998    2.50000000
   12.82055569   91.01020050    2.00000000    2.50000000
   12.82388878   95.60060120    2.00000000    2.50000000
   12.82722187   95.17970276    1.98000002    2.48000002
   12.83027744   91.88099670    1.98000002    2.48000002
   12.83361053   94.60559845    1.98000002    2.50000000
   12.83694458   98.53559875    1.98000002    2.50000000
   12.83944416   90.36180115    1.98000002    2.50000000
   12.84055519   93.21900177    1.98000002    2.50000000
   12.84388828   88.62760162    1.98000002    2.50000000
   12.84694386   95.85379791    1.98000002    2.50000000
   12.85027790   92.22640228    1.98000002    2.50000000
   12.85361195   83.99269867    1.98000002    2.50000000
   12.85944462   83.99269867    1.96000004    2.50000000
   12.86361122   89.44249725    1.96000004    2.50000000
   12.86666679   87.80290222    1.96000004    2.50000000
   12.86999989   91.50779724    1.98000002    2.50000000
   12.87277794   87.90850067    1.96000004    2.51999998
   12.87361145   86.55699921    1.96000004    2.51999998
   12.87694454   93.04769897    1.96000004    2.50000000
   12.88000011   92.51100159    1.96000004    2.50000000
   12.88333321   92.91870117    1.94000006    2.50000000
   12.88666630   99.98799896    1.94000006    2.50000000
   12.88972187   90.08239746    1.96000004    2.50000000
   12.89305496   94.49549866    1.96000004    2.50000000
   12.89611053   94.85530090    1.96000004    2.50000000
   12.90222168   94.85530090    1.96000004    2.50000000
   12.90638828   88.19670105    1.94000006    2.50000000
   12.90972137   92.51609802    1.94000006    2.51999998
   12.91277695   87.97899628    1.94000006    2.51999998
   12.91611099   89.34390259    1.94000006    2.50000000
   12.91916656   91.42810059    1.94000006    2.51999998
   12.92250061   90.09439850    1.94000006    2.50000000
   12.92583370   90.81900024    1.94000006    2.50000000
   12.92888927   88.04640198    1.94000006    2.51999998
   12.93222237   91.83820343    1.94000006    2.51999998
   12.93555546   91.12400055    1.94000006    2.51999998
   12.93861103   89.70690155    1.94000006    2.51999998
   12.93944454   88.60369873    1.94000006    2.51999998
   12.96027756   88.60369873    1.91999996    2.51999998
   12.96444416   91.15910339    1.91999996    2.51999998
   12.96749973   93.26899719    1.91999996    2.51999998
   12.97083282   88.96179962    1.91999996    2.51999998
   12.97277737   97.62580109    1.91999996    2.51999998
   12.97444439   91.98529816    1.94000006    2.51999998
   12.97777748   91.00180054    1.91999996    2.51999998
   12.98083305   92.69190216    1.94000006    2.51999998
   12.98416710   94.70649719    1.91999996    2.51999998
   12.98750019   91.73690033    1.91999996    2.51999998
   12.99055576   95.84480286    1.91999996    2.53999996
   12.99388885   92.95079803    1.91999996    2.51999998
   12.99694443   95.75029755    1.89999998    2.53999996
   13.00305557   95.75029755    1.89999998    2.53999996
   13.00722218   93.34580231    1.89999998    2.53999996
   13.01027775   89.26750183    1.91999996    2.53999996
   13.01361084   90.46669769    1.91999996    2.53999996
   13.01694393   96.37529755    1.96000004    2.51999998
   13.01999950   85.76470184    1.91999996    2.53999996
   13.02333355   88.20829773    1.91999996    2.53999996
   13.02638817   87.79250336    1.91999996    2.53999996
   13.02972221   84.16929626    1.94000006    2.53999996
   13.03305531   93.80169678    1.94000006    2.53999996
   13.03611183   95.46820068    1.94000006    2.53999996
   13.03944492   93.98410034    1.94000006    2.53999996
   13.04000092   84.03399658    1.96000004    2.53999996
   13.04583359   84.03399658    1.91999996    2.53999996
   13.05000019   92.56040192    1.91999996    2.53999996
   13.05333328   88.68070221    1.91999996    2.53999996
   13.05638885   93.23459625    1.91999996    2.53999996
   13.05972195   93.24669647    1.91999996    2.53999996
   13.06277752   92.75099945    1.89999998    2.53999996
   13.06611156   95.39920044    1.91999996    2.53999996
   13.06944466   90.52429962    1.88000000    2.53999996
   13.07250023   91.29989624    1.88000000    2.53999996
   13.07333374   91.82250214    1.88000000    2.53999996
   13.07638836   91.85070038    1.88000000    2.53999996
   13.07944393   94.47560120    1.88000000    2.55999994
   13.08277798   88.64849854    1.86000001    2.55999994
   13.08861065   88.64849854    1.88000000    2.53999996
   13.09277725   93.84320068    1.88000000    2.53999996
   13.09611034   88.12860107    1.88000000    2.53999996
   13.09944439   79.97239685    1.88000000    2.53999996
   13.10249996   94.30020142    1.88000000    2.55999994
   13.10583401   91.68319702    1.88000000    2.53999996
   13.10666752   94.41349792    1.88000000    2.53999996
   13.10944462   90.20189667    1.88000000    2.53999996
   13.11250019   92.20020294    1.86000001    2.55999994
   13.11583328   89.84120178    1.86000001    2.55999994
   13.11888885   97.46810150    1.86000001    2.55999994
   13.12222195   92.92759705    1.85000002    2.55999994
   13.12555599   86.70690155    1.80999994    2.55999994
   13.13166714   86.70690155    1.83000004    2.55999994
   13.13555527   94.86509705    1.83000004    2.55999994
   13.13888836   91.13200378    1.83000004    2.55999994
   13.14000034   90.12169647    1.85000002    2.55999994
   13.14277744   85.53630066    1.86000001    2.53999996
   13.14583302   88.60440063    1.88000000    2.55999994
   13.14916611   87.87460327    1.89999998    2.55999994
   13.15222168   92.13929749    1.89999998    2.55999994
   13.15555477   94.29660034    1.89999998    2.55999994
   13.15888882   88.71549988    1.89999998    2.55999994
   13.16194439   90.43190002    1.86000001    2.55999994
   13.16527748   90.82350159    1.86000001    2.55999994
   13.16861153   90.51319885    1.86000001    2.55999994
   13.17444515   90.51319885    1.85000002    2.55999994
   13.17861176   92.19869995    1.85000002    2.55999994
   13.18166733   90.68280029    1.83000004    2.55999994
   13.18500042   94.22730255    1.83000004    2.55999994
   13.18833351   93.36340332    1.85000002    2.55999994
   13.19138908   89.10900116    1.85000002    2.55999994
   13.19472218   89.52729797    1.85000002    2.55999994
   13.19777775   91.82579803    1.85000002    2.55999994
   13.20111084   93.96420288    1.85000002    2.55999994
   13.20444393   90.58239746    1.85000002    2.55999994
   13.20666695   94.43329620    1.85000002    2.55999994
   13.20805550   93.94129944    1.85000002    2.55999994
   13.21111107   91.91300201    1.85000002    2.55999994
   13.21722221   91.91300201    1.83000004    2.55999994
   13.22138882   92.83730316    1.83000004    2.55999994
   13.22472191   92.23290253    1.80999994    2.57999992
   13.22777748   94.51390076    1.80999994    2.55999994
   13.23111057   95.62750244    1.80999994    2.57999992
   13.23416710   96.09580231    1.80999994    2.57999992
   13.23750019   93.32270050    1.78999996    2.55999994
   13.24000072   88.53679657    1.78999996    2.55999994
   13.24138927   90.18969727    1.78999996    2.55999994
   13.24444485   91.55429840    1.78999996    2.57999992
   13.24777794   97.45439911    1.78999996    2.57999992
   13.25083351   95.75180054    1.76999998    2.57999992
   13.25416660  103.44300079    1.76999998    2.57999992
   13.26000023  103.44300079    1.76999998    2.57999992
   13.26416683   91.29090118    1.76999998    2.57999992
   13.26749992   93.78330231    1.76999998    2.57999992
   13.27055550   92.21730042    1.75000000    2.57999992
   13.27333355   95.05110168    1.75000000    2.59999990
   13.27444458   94.36340332    1.76999998    2.57999992
   13.27750015   98.84809875    1.76999998    2.57999992
   13.28083324   99.21250153    1.75000000    2.57999992
   13.28388977   96.23110199    1.75000000    2.57999992
   13.28722286   89.26180267    1.76999998    2.57999992
   13.29055595   93.65290070    1.76999998    2.57999992
   13.29388905   99.91709900    1.75000000    2.57999992
   13.29694462   91.43329620    1.76999998    2.59999990
   13.30305576   91.43329620    1.76999998    2.57999992
   13.30694485   96.97689819    1.76999998    2.57999992
   13.31027794  100.61399841    1.76999998    2.57999992
   13.31361103   96.66690063    1.76999998    2.57999992
   13.31666660   94.73069763    1.76999998    2.57999992
   13.31999969   89.12940216    1.76999998    2.57999992
   13.32333374   94.10959625    1.76999998    2.57999992
   13.32638836   94.86769867    1.76999998    2.57999992
   13.32972240   96.33029938    1.76999998    2.57999992
   13.33277798   95.11229706    1.76999998    2.59999990
   13.33611107   95.46759796    1.76999998    2.57999992
   13.33944416   94.08820343    1.76999998    2.59999990
   13.34000015   89.38559723    1.76999998    2.59999990
   13.34583282   89.38559723    1.75000000    2.59999990
   13.35000038   90.91539764    1.76999998    2.57999992
   13.35305595   95.64019775    1.76999998    2.59999990
   13.35638905   96.09660339    1.75000000    2.59999990
   13.35972214   94.56819916    1.76999998    2.59999990
   13.36277771  100.38800049    1.75000000    2.59999990
   13.36611176   93.59889984    1.73000002    2.59999990
   13.36916637   96.22679901    1.73000002    2.59999990
   13.37250042   91.12529755    1.71000004    2.59999990
   13.37333393   96.05560303    1.71000004    2.59999990
   13.37611103   93.55719757    1.71000004    2.59999990
   13.37916660   90.85040283    1.71000004    2.59999990
   13.38249969   94.87059784    1.69000006    2.59999990
   13.38861084   94.87059784    1.66999996    2.59999990
   13.39277744   96.58209991    1.64999998    2.57999992
   13.39611053   94.18399811    1.63000000    2.59999990
   13.39916611   92.72139740    1.63000000    2.59999990
   13.40249920   87.81140137    1.61000001    2.59999990
   13.40555477   96.55400085    1.61000001    2.59999990
   13.40666676   88.62740326    1.61000001    2.59999990
   13.40944386   94.04570007    1.61000001    2.59999990
   13.41249943   88.58709717    1.61000001    2.59999990
   13.41583252   87.35389709    1.61000001    2.59999990
   13.41916656   92.62159729    1.61000001    2.59999990
   13.42222214   89.99700165    1.63000000    2.59999990
   13.42555618   92.47810364    1.63000000    2.59999990
   13.43138885   92.47810364    1.63000000    2.61999989
   13.43555546   89.91899872    1.64999998    2.59999990
   13.43888855   88.39340210    1.66999996    2.59999990
   13.44000053   94.23200226    1.66999996    2.59999990
   13.44250011   94.29299927    1.66999996    2.59999990
   13.44555569   85.46749878    1.66999996    2.59999990
   13.44888878   85.56109619    1.66999996    2.61999989
   13.45222187   89.89440155    1.69000006    2.61999989
   13.45527744   90.69529724    1.69000006    2.59999990
   13.45861053   94.14859772    1.71000004    2.61999989
   13.46194458   91.77189636    1.69000006    2.61999989
   13.46500015   92.62429810    1.69000006    2.61999989
   13.46833324   84.48950195    1.69000006    2.59999990
   13.47444439   84.48950195    1.69000006    2.59999990
   13.47833252   94.91570282    1.64999998    2.61999989
   13.48166656   86.62539673    1.63000000    2.61999989
   13.48500061   92.94799805    1.63000000    2.61999989
   13.48805618   93.88849640    1.63000000    2.61999989
   13.49138927   93.72239685    1.63000000    2.61999989
   13.49472237   90.69869995    1.63000000    2.61999989
   13.49777794   96.03410339    1.61000001    2.61999989
   13.50111103   87.95909882    1.61000001    2.61999989
   13.50416660   89.46790314    1.60000002    2.61999989
   13.50666714   91.63729858    1.60000002    2.61999989
   13.50805569   90.66049957    1.60000002    2.61999989
   13.51111126   95.65640259    1.60000002    2.61999989
   13.51722240   95.65640259    1.60000002    2.61999989
   13.52138901   92.97799683    1.60000002    2.61999989
   13.52444458   90.40339661    1.60000002    2.61999989
   13.52777767   88.66329956    1.60000002    2.61999989
   13.53111076   90.68499756    1.60000002    2.64000010
   13.53416729   98.02089691    1.58000004    2.61999989
   13.53750038   86.36900330    1.58000004    2.61999989
   13.54000092   93.48079681    1.58000004    2.64000010
   13.54111195   93.91010284    1.58000004    2.64000010
   13.54416752   95.55609894    1.60000002    2.61999989
   13.54750061   93.84760284    1.60000002    2.61999989
   13.55083370   93.47489929    1.60000002    2.61999989
   13.55388927   94.96569824    1.58000004    2.61999989
   13.56000042   94.96569824    1.58000004    2.61999989
   13.56416702   92.72389984    1.58000004    2.64000010
   13.56750011  104.82599640    1.58000004    2.61999989
   13.57055569   90.27549744    1.58000004    2.61999989
   13.57333374   95.72319794    1.58000004    2.64000010
   13.57444477   94.32219696    1.60000002    2.61999989
   13.57750034   93.88410187    1.58000004    2.61999989
   13.58083344   93.89240265    1.58000004    2.61999989
   13.58416653   93.20249939    1.58000004    2.61999989
   13.58722210   92.72250366    1.58000004    2.61999989
   13.59055519   98.27719879    1.58000004    2.61999989
   13.59361076   93.04930115    1.58000004    2.61999989
   13.59694386   97.74089813    1.58000004    2.61999989
   13.60277843   97.74089813    1.55999994    2.64000010
   13.60694504   91.06890106    1.58000004    2.64000010
   13.61027813   95.87640381    1.55999994    2.64000010
   13.61333370   88.16419983    1.55999994    2.61999989
   13.61666679   95.18370056    1.58000004    2.64000010
   13.61999989   91.19339752    1.60000002    2.64000010
   13.62305546   97.26830292    1.63000000    2.64000010
   13.62638855   99.15670013    1.58000004    2.64000010
   13.62972260  101.45700073    1.58000004    2.61999989
   13.63277817   93.70379639    1.58000004    2.64000010
   13.63611126  100.87300110    1.58000004    2.64000010
   13.63916683  100.17299652    1.60000002    2.64000010
   13.64000034   98.70079803    1.60000002    2.64000010
   13.64555550   98.70079803    1.58000004    2.64000010
   13.64972210  102.17299652    1.58000004    2.64000010
   13.65305519   95.98549652    1.58000004    2.64000010
   13.65638828  106.72799683    1.58000004    2.64000010
   13.65944386   96.56050110    1.55999994    2.64000010
   13.66277695   99.02239990    1.55999994    2.64000010
   13.66611099   96.78739929    1.53999996    2.64000010
   13.66916656   94.46510315    1.53999996    2.64000010
   13.67250061   94.86270142    1.53999996    2.64000010
   13.67333412   90.52919769    1.51999998    2.64000010
   13.67611122   90.45010376    1.51999998    2.64000010
   13.67916679   94.63960266    1.51999998    2.64000010
   13.68249989   92.17449951    1.51999998    2.66000009
   13.68861103   92.17449951    1.50000000    2.64000010
   13.69277763  100.71600342    1.50000000    2.64000010
   13.69583321   90.95089722    1.50000000    2.64000010
   13.69916630   98.97129822    1.50000000    2.64000010
   13.70249939   94.53250122    1.50000000    2.66000009
   13.70555496   93.86109924    1.50000000    2.66000009
   13.70666695   94.39679718    1.50000000    2.64000010
   13.70916653   93.16750336    1.50000000    2.64000010
   13.71222210   92.41210175    1.51999998    2.66000009
   13.71555519   91.35540009    1.48000002    2.64000010
   13.71888828   93.96189880    1.46000004    2.66000009
   13.72194386   95.06890106    1.46000004    2.64000010
   13.72527695  100.10199738    1.46000004    2.64000010
   13.73138809  100.10199738    1.46000004    2.66000009
   13.73555565   92.30709839    1.46000004    2.66000009
   13.73888874   91.70290375    1.44000006    2.66000009
   13.74000072  107.63999939    1.44000006    2.66000009
   13.74250031   93.29579926    1.44000006    2.66000009
   13.74555588   97.75450134    1.46000004    2.66000009
   13.74888897   95.34480286    1.46000004    2.64000010
   13.75222206   97.77690125    1.48000002    2.66000009
   13.75527763   92.72530365    1.50000000    2.64000010
   13.75861073   96.52729797    1.48000002    2.66000009
   13.76194477   93.32199860    1.50000000    2.66000009
   13.76500034   90.97699738    1.51999998    2.64000010
   13.76833344   92.97679901    1.51999998    2.64000010
   13.77416611   92.97679901    1.51999998    2.64000010
   13.77833271   96.75199890    1.51999998    2.66000009
   13.78166676   98.13289642    1.51999998    2.66000009
   13.78500080   92.72480011    1.51999998    2.66000009
   13.78805637   97.14839935    1.51999998    2.64000010
   13.79138947   98.78639984    1.51999998    2.66000009
   13.79444504   97.85230255    1.51999998    2.66000009
   13.79777813   90.22889709    1.50000000    2.66000009
   13.80111122  102.37000275    1.51999998    2.64000010
   13.80416679  101.08499908    1.50000000    2.64000010
   13.80666733   94.86489868    1.50000000    2.66000009
   13.80805588   93.70110321    1.48000002    2.66000009
   13.81111145   94.41649628    1.48000002    2.66000009
   13.81722260   94.41649628    1.50000000    2.66000009
   13.82111073  102.02899933    1.48000002    2.66000009
   13.82444477   95.78710175    1.46000004    2.66000009
   13.82777786   94.49870300    1.44000006    2.66000009
   13.83083344   97.86669922    1.46000004    2.66000009
   13.83416653   92.65779877    1.44000006    2.66000009
   13.83749962   93.39119720    1.41999996    2.66000009
   13.84000015   92.10959625    1.44000006    2.66000009
   13.84111118   97.21949768    1.44000006    2.66000009
   13.84416676   92.91320038    1.41999996    2.66000009
   13.84749985  102.01499939    1.41999996    2.66000009
   13.85083389  102.16999817    1.41999996    2.67000008
   13.85388947   97.33429718    1.41999996    2.66000009
   13.86000061   97.33429718    1.41999996    2.66000009
   13.86416721   96.68869781    1.41999996    2.67000008
   13.86722279   95.75070190    1.41999996    2.66000009
   13.87055588   92.95400238    1.41999996    2.66000009
   13.87333393   93.48100281    1.44000006    2.66000009
   13.87416649   91.20880127    1.46000004    2.67000008
   13.87722206   91.43399811    1.46000004    2.67000008
   13.88055611   93.91979980    1.46000004    2.66000009
   13.88388920   95.08850098    1.48000002    2.66000009
   13.88694477   97.23819733    1.50000000    2.67000008
   13.89027786  102.06900024    1.50000000    2.67000008
   13.89361095   92.21019745    1.50000000    2.66000009
   13.89666653   94.91539764    1.51999998    2.66000009
   13.90277767   94.91539764    1.51999998    2.66000009
   13.90694427   94.32070160    1.51999998    2.66000009
   13.91027737  104.14900208    1.53999996    2.67000008
   13.91333294   94.12509918    1.51999998    2.67000008
   13.91666698   99.00569916    1.53999996    2.66000009
   13.91972256   97.78230286    1.51999998    2.66000009
   13.92305565  100.27400208    1.55999994    2.66000009
   13.92638874   93.84269714    1.51999998    2.66000009
   13.92944431   98.36109924    1.51999998    2.66000009
   13.93277836  102.02200317    1.51999998    2.66000009
   13.93611145   96.07869720    1.51999998    2.66000009
   13.93916702   94.84459686    1.50000000    2.66000009
   13.94000053   89.49250031    1.50000000    2.67000008
   13.94555569   89.49250031    1.50000000    2.67000008
   13.94972229   92.18029785    1.48000002    2.67000008
   13.95305538   92.73459625    1.46000004    2.67000008
   13.95611095   92.80439758    1.46000004    2.67000008
   13.97388840   96.41079712    1.41999996    2.67000008
   13.97611046   93.09059906    1.44000006    2.67000008
   13.97944355   89.57679749    1.41999996    2.67000008
   13.98277760   96.20290375    1.41999996    2.67000008
   13.98861122   96.20290375    1.39999998    2.67000008
   13.99277782  100.67099762    1.39999998    2.67000008
   13.99611092   99.45619965    1.39999998    2.67000008
   13.99916649  106.45800018    1.39999998    2.67000008
   14.00249958   98.70480347    1.39999998    2.66000009
   14.00583363  102.80999756    1.39999998    2.67000008
   14.00694466  101.00000000    1.39999998    2.67000008
   14.00944424   98.19370270    1.39999998    2.67000008
   14.01277733   98.25820160    1.39999998    2.67000008
   14.01583290   96.24970245    1.41999996    2.67000008
   14.01916599   98.45069885    1.41999996    2.67000008
   14.02250004  102.47100067    1.44000006    2.67000008
   14.02555561  103.13200378    1.44000006    2.67000008
   14.03138828  103.13200378    1.44000006    2.67000008
   14.03555584  100.43399811    1.44000006    2.67000008
   14.03888893  102.45800018    1.44000006    2.67000008
   14.04027843   95.31269836    1.44000006    2.67000008
   14.04250050  100.37899780    1.44000006    2.67000008
   14.04583359  103.82900238    1.44000006    2.67000008
   14.04888916  100.71499634    1.44000006    2.67000008
   14.05222225  103.46299744    1.44000006    2.67000008
   14.05555534  102.56400299    1.44000006    2.67000008
   14.05861092   97.13279724    1.46000004    2.67000008
   14.06194496  105.58499908    1.44000006    2.67000008
   14.06527805  106.89900208    1.46000004    2.67000008
   14.06833363  107.29799652    1.44000006    2.67000008
   14.07444477  107.29799652    1.44000006    2.67000008
   14.07861137  100.45200348    1.44000006    2.67000008
   14.08166695  100.84100342    1.41999996    2.67000008
   14.08500004   99.92379761    1.44000006    2.67000008
   14.08805561  107.48699951    1.44000006    2.67000008
   14.09138870   99.01959991    1.44000006    2.67000008
   14.09472179  103.68000031    1.41999996    2.67000008
   14.09777737  105.16999817    1.46000004    2.67000008
   14.10111141  105.18699646    1.39999998    2.67000008
   14.10444450  112.61299896    1.39999998    2.67000008
   14.10722256  106.23600006    1.44000006    2.67000008
   14.10777855  110.93000031    1.41999996    2.67000008
   14.11111164  105.07900238    1.39999998    2.67000008
   14.11722279  105.07900238    1.39999998    2.69000006
   14.12138939  104.54699707    1.38000000    2.69000006
   14.12444496  100.91699982    1.38000000    2.67000008
   14.12777805  106.56800079    1.38000000    2.67000008
   14.13111115  103.50199890    1.38000000    2.69000006
   14.13416672   98.80919647    1.36000001    2.67000008
   14.13749981  106.57199860    1.38000000    2.67000008
   14.14027786   97.78649902    1.38000000    2.67000008
   14.14111137  107.07299805    1.38000000    2.67000008
   14.14444447  109.14199829    1.39999998    2.67000008
   14.14750004  103.08999634    1.38000000    2.67000008
   14.15083313  115.00800323    1.39999998    2.67000008
   14.15416622   98.45800018    1.39999998    2.67000008
   14.15999985   98.45800018    1.39999998    2.67000008
   14.16416645  106.97499847    1.46000004    2.69000006
   14.16750050  103.09500122    1.41999996    2.67000008
   14.17055607  106.76300049    1.44000006    2.69000006
   14.17361164  104.41600037    1.41999996    2.67000008
   14.17416668   99.35160065    1.41999996    2.67000008
   14.17750072  115.34300232    1.41999996    2.69000006
   14.18055630   99.63690186    1.41999996    2.67000008
   14.18388939  104.61900330    1.44000006    2.67000008
   14.18722248  104.42900085    1.44000006    2.67000008
   14.19027805  103.39800262    1.44000006    2.67000008
   14.19361115  100.37599945    1.44000006    2.67000008
   14.19694424   98.20899963    1.41999996    2.67000008
   14.20277786   98.20899963    1.41999996    2.67000008
   14.20722198   94.92009735    1.44000006    2.67000008
   14.20749950   99.87550354    1.44000006    2.67000008
   14.21083355  104.38700104    1.44000006    2.69000006
   14.21388912  103.00299835    1.41999996    2.67000008
   14.21722221  103.70300293    1.39999998    2.69000006
   14.22055531  100.65899658    1.38000000    2.67000008
   14.22361088  105.23000336    1.38000000    2.69000006
   14.22694397  101.43800354    1.44000006    2.69000006
   14.23027706  104.05100250    1.46000004    2.69000006
   14.23333359  106.91300201    1.34000003    2.69000006
   14.23666668  104.77799988    1.34000003    2.69000006
   14.24000072   96.74120331    1.34000003    2.71000004
   14.24055576  101.36299896    1.34000003    2.71000004
   14.24583340  101.36299896    1.34000003    2.67000008
   14.25000000  106.83999634    1.36000001    2.69000006
   14.25305557  100.34600067    1.36000001    2.69000006
   14.25638866  102.41799927    1.36000001    2.69000006
   14.25944424  102.18099976    1.36000001    2.69000006
   14.26277733  104.60700226    1.38000000    2.69000006
   14.26611137  105.91699982    1.38000000    2.69000006
   14.26916599  103.75399780    1.38000000    2.69000006
   14.27250004  100.79100037    1.38000000    2.69000006
   14.27388859  110.94499969    1.39999998    2.69000006
   14.27611065  104.03299713    1.38000000    2.69000006
   14.27944374   99.07869720    1.39999998    2.69000006
   14.28277779  104.07900238    1.38000000    2.69000006
   14.28861141  104.07900238    1.44000006    2.69000006
   14.29277802  100.76999664    1.39999998    2.69000006
   14.29583359  105.98300171    1.39999998    2.69000006
   14.29916668  104.69699860    1.39999998    2.69000006
   14.30249977  100.92600250    1.39999998    2.69000006
   14.30555534  108.13400269    1.39999998    2.69000006
   14.30722237  109.85199738    1.39999998    2.69000006
   14.30916691  104.08200073    1.39999998    2.69000006
   14.31250000  103.11100006    1.39999998    2.69000006
   14.31583309  105.84500122    1.39999998    2.69000006
   14.31888866  101.67299652    1.39999998    2.69000006
   14.32222176  104.71800232    1.39999998    2.69000006
   14.32527733  112.23699951    1.39999998    2.69000006
   14.33138847  112.23699951    1.44000006    2.69000006
   14.33555508   98.75199890    1.44000006    2.71000004
   14.33888817   99.68470001    1.44000006    2.69000006
   14.34055519  104.48500061    1.44000006    2.69000006
   14.34222221  111.78700256    1.39999998    2.69000006
   14.34555531  110.87899780    1.39999998    2.69000006
   14.34888840  109.26599884    1.39999998    2.69000006
   14.35194492  104.92900085    1.44000006    2.69000006
   14.35527802  103.16100311    1.39999998    2.69000006
   14.35833359  108.37799835    1.38000000    2.69000006
   14.36166668  104.12200165    1.39999998    2.69000006
   14.36500072  104.10299683    1.41999996    2.69000006
   14.36805534  102.77999878    1.38000000    2.69000006
   14.37416649  102.77999878    1.36000001    2.69000006
   14.37833309   95.70999908    1.36000001    2.69000006
   14.38166714   97.99130249    1.36000001    2.69000006
   14.38500023   99.83039856    1.36000001    2.71000004
   14.38805580   99.74410248    1.39999998    2.69000006
   14.39138889  100.66000366    1.34000003    2.69000006
   14.39472198  105.97499847    1.34000003    2.69000006
   14.39777756   94.17739868    1.34000003    2.69000006
   14.40111065  102.97899628    1.34000003    2.69000006
   14.40416622  100.66500092    1.34000003    2.71000004
   14.40722179  101.46900177    1.34000003    2.71000004
   14.40777779  101.94200134    1.33000004    2.69000006
   14.41111088   94.11039734    1.33000004    2.69000006
   14.41722298   94.11039734    1.36000001    2.71000004
   14.42138958  103.83399963    1.33000004    2.71000004
   14.42444515  106.93099976    1.39999998    2.69000006
   14.42777824  103.93099976    1.33000004    2.71000004
   14.43083382  105.78700256    1.38000000    2.71000004
   14.43416691   99.17810059    1.36000001    2.69000006
   14.43750000   99.48159790    1.34000003    2.71000004
   14.44055557   97.95559692    1.34000003    2.71000004
   14.44083309  101.24099731    1.34000003    2.71000004
   14.44416714   97.15399933    1.36000001    2.69000006
   14.44722271  100.99600220    1.36000001    2.69000006
   14.45055580  106.63400269    1.39999998    2.69000006
   14.45388889  100.17500305    1.36000001    2.69000006
   14.46000004  100.17500305    1.36000001    2.69000006
   14.46416664  103.52600098    1.36000001    2.71000004
   14.46722221  105.64800262    1.34000003    2.69000006
   14.47055531  105.04799652    1.34000003    2.71000004
   14.47388840  102.52400208    1.34000003    2.69000006
   14.47416592  102.05000305    1.34000003    2.69000006
   14.47749996   92.06500244    1.34000003    2.71000004
   14.48055553  101.43800354    1.33000004    2.71000004
   14.48388958   93.52010345    1.33000004    2.71000004
   14.48722267   97.54470062    1.30999994    2.69000006
   14.49027824   98.75090027    1.28999996    2.71000004
   14.49361134  100.23200226    1.30999994    2.71000004
   14.49694443   97.70040131    1.28999996    2.71000004
   14.50277805   97.70040131    1.28999996    2.71000004
   14.50694466  105.76799774    1.28999996    2.71000004
   14.50749969   98.03379822    1.30999994    2.71000004
   14.51055527  102.90000153    1.28999996    2.71000004
   14.51388931  106.69999695    1.30999994    2.71000004
   14.51722240  107.26499939    1.28999996    2.71000004
   14.52027798  103.25000000    1.28999996    2.71000004
   14.52361107   98.70230103    1.28999996    2.71000004
   14.52694416  107.41600037    1.28999996    2.71000004
   14.52999973  105.82700348    1.28999996    2.69000006
   14.53333378  100.17400360    1.28999996    2.71000004
   14.53638935  104.46499634    1.28999996    2.71000004
   14.53972244  106.36900330    1.30999994    2.71000004
   14.54083347  103.87400055    1.28999996    2.71000004
   14.54555607  103.87400055    1.30999994    2.71000004
   14.54972267  108.92900085    1.30999994    2.71000004
   14.55305576  106.76300049    1.30999994    2.71000004
   14.55611134  103.69200134    1.39999998    2.71000004
   14.55944443  101.57499695    1.33000004    2.71000004
   14.56277752  103.52400208    1.33000004    2.71000004
   14.56611156  102.37400055    1.33000004    2.71000004
   14.56916618  103.44400024    1.33000004    2.71000004
   14.57250023   96.58850098    1.33000004    2.71000004
   14.57416630  102.60500336    1.33000004    2.71000004
   14.57611084  108.27500153    1.33000004    2.71000004
   14.57916641  103.95300293    1.33000004    2.71000004
   14.58249950  102.66200256    1.33000004    2.71000004
   14.58861065  102.66200256    1.30999994    2.71000004
   14.59249973  105.38800049    1.36000001    2.71000004
   14.59583282   95.05349731    1.30999994    2.71000004
   14.59916592  102.86699677    1.30999994    2.71000004
   14.60222244  105.35900116    1.30999994    2.71000004
   14.60555553  103.84400177    1.30999994    2.69000006
   14.60750008  108.54199982    1.34000003    2.71000004
   14.60944462  101.98300171    1.30999994    2.71000004
   14.61250019  105.69300079    1.33000004    2.71000004
   14.61583328  103.88500214    1.30999994    2.71000004
   14.61888885  104.30000305    1.33000004    2.71000004
   14.62222195   96.43630219    1.30999994    2.71000004
   14.62555599  104.09400177    1.28999996    2.73000002
   14.63138866  104.09400177    1.28999996    2.71000004
   14.63555527  102.04299927    1.30999994    2.71000004
   14.63861084   98.40529633    1.34000003    2.71000004
   14.64083290   97.90509796    1.30999994    2.71000004
   14.64249992  101.87999725    1.28999996    2.71000004
   14.64555550  104.01599884    1.28999996    2.73000002
   14.64888859   99.13390350    1.28999996    2.71000004
   14.65222168   97.76090240    1.26999998    2.71000004
   14.65527725   97.69509888    1.26999998    2.71000004
   14.65861034  106.05799866    1.28999996    2.71000004
   14.66166592  103.25800323    1.30999994    2.71000004
   14.66499996  104.20300293    1.28999996    2.71000004
   14.66833401  101.31500244    1.26999998    2.71000004
   14.67416668  101.31500244    1.28999996    2.71000004
   14.67833328   94.48819733    1.28999996    2.71000004
   14.68166733   98.41809845    1.28999996    2.71000004
   14.68472195   99.36869812    1.28999996    2.71000004
   14.68805599  101.59200287    1.28999996    2.73000002
   14.69111156  101.69499969    1.26999998    2.71000004
   14.69444466  103.36499786    1.26999998    2.71000004
   14.69777775  100.17400360    1.26999998    2.71000004
   14.70083332  107.95999908    1.26999998    2.71000004
   14.70416641  106.82599640    1.26999998    2.73000002
   14.70749950   94.61560059    1.26999998    2.71000004
   14.70805550  100.46099854    1.28999996    2.71000004
   14.71111107   99.26349640    1.28999996    2.71000004
   14.71694374   99.26349640    1.36000001    2.73000002
   14.72111034  102.01799774    1.33000004    2.71000004
   14.72444439  103.01000214    1.33000004    2.71000004
   14.72749996  101.71900177    1.36000001    2.73000002
   14.73083305  101.27300262    1.34000003    2.71000004
   14.73416710   98.67520142    1.33000004    2.73000002
   14.73722267   99.71230316    1.30999994    2.71000004
   14.74055576   93.82939911    1.30999994    2.73000002
   14.74138927  110.61299896    1.30999994    2.71000004
   14.74416733  108.45300293    1.33000004    2.71000004
   14.74750042   99.25319672    1.30999994    2.71000004
   14.75083351  103.41999817    1.30999994    2.71000004
   14.75388908  100.63600159    1.30999994    2.71000004
   14.76000023  100.63600159    1.30999994    2.73000002
   14.76416683  106.54900360    1.30999994    2.71000004
   14.76722240   98.46520233    1.30999994    2.71000004
   14.77055550   98.18930054    1.30999994    2.73000002
   14.77361107   98.92500305    1.30999994    2.73000002
   14.77472210   96.84259796    1.28999996    2.73000002
   14.77722168  100.31600189    1.28999996    2.71000004
   14.78055573   98.30549622    1.28999996    2.71000004
   14.78361130   99.18620300    1.26999998    2.73000002
   14.78694534   95.66870117    1.28999996    2.71000004
   14.79027843   96.48509979    1.26999998    2.71000004
   14.79333401  101.53399658    1.26999998    2.73000002
   14.79666710  101.47599792    1.26999998    2.73000002
   14.80277824  101.47599792    1.26999998    2.73000002
   14.80694485   95.17479706    1.33000004    2.71000004
   14.80805588   96.96440125    1.28999996    2.71000004
   14.81055546  100.01200104    1.28999996    2.71000004
   14.81388950   94.67220306    1.28999996    2.73000002
   14.81694412  101.34899902    1.30999994    2.73000002
   14.82027817  100.10600281    1.28999996    2.73000002
   14.82361126   98.06890106    1.28999996    2.73000002
   14.82666683   96.68650055    1.30999994    2.73000002
   14.82999992   91.01069641    1.30999994    2.73000002
   14.83333302   91.79309845    1.28999996    2.71000004
   14.83638859   99.42739868    1.28999996    2.71000004
   14.83972168  102.52500153    1.28999996    2.73000002
   14.84138870  100.37999725    1.33000004    2.73000002
   14.84555531  100.37999725    1.30999994    2.73000002
   14.84972191   97.93090057    1.28999996    2.73000002
   14.85305595  101.07099915    1.28999996    2.73000002
   14.85611153   99.15390015    1.30999994    2.71000004
   14.85944462   98.79769897    1.28999996    2.73000002
   14.86250019   96.24739838    1.28999996    2.71000004
   14.86583328   98.64550018    1.28999996    2.73000002
   14.86916637   99.62719727    1.26999998    2.71000004
   14.87222195  105.15299988    1.26999998    2.73000002
   14.87472248   95.56300354    1.26999998    2.73000002
   14.87583351  101.12899780    1.26999998    2.73000002
   14.87916660  102.72399902    1.25000000    2.73000002
   14.88222218  100.10299683    1.25000000    2.73000002
   14.88833332  100.10299683    1.23000002    2.73000002
   14.89249992   97.65709686    1.23000002    2.75000000
   14.89583302  112.90399933    1.23000002    2.73000002
   14.89916611   95.62210083    1.23000002    2.73000002
   14.90222168  106.84100342    1.23000002    2.73000002
   14.90555477   99.68640137    1.23000002    2.75000000
   14.90805531   99.21389771    1.23000002    2.73000002
   14.90916634  101.19000244    1.23000002    2.73000002
   14.91249943  103.02600098    1.23000002    2.73000002
   14.91555500   98.58380127    1.23000002    2.73000002
   14.91888905   96.15219879    1.23000002    2.73000002
   14.92222214   96.47180176    1.25000000    2.73000002
   14.92527771  106.49600220    1.30999994    2.75000000
   14.93138885  106.49600220    1.26999998    2.75000000
   14.93527794  102.11399841    1.33000004    2.73000002
   14.93861103   94.42929840    1.28999996    2.73000002
   14.94138908   99.26640320    1.30999994    2.73000002
   14.94222260  116.13800049    1.26999998    2.73000002
   14.94555569   97.84619904    1.26999998    2.75000000
   14.94861126  115.28900146    1.26999998    2.73000002
   14.95194435  100.26999664    1.28999996    2.73000002
   14.95527744   85.86229706    1.26999998    2.73000002
   14.95833302  102.85399628    1.26999998    2.73000002
   14.96166611  125.26399994    1.26999998    2.73000002
   14.96500015  106.93000031    1.26999998    2.73000002
   14.96805477   98.93930054    1.26999998    2.73000002
   14.97416592   98.93930054    1.26999998    2.73000002
   14.99250031   94.57119751    1.26999998    2.73000002
   14.99583340   95.87020111    1.28999996    2.75000000
   14.99888897   97.76090240    1.26999998    2.75000000
   15.00222206   94.18299866    1.28999996    2.75000000
   15.00527763   92.36160278    1.26999998    2.75000000
   15.00861073   99.63030243    1.26999998    2.73000002
   15.01194477   96.72149658    1.26999998    2.73000002
   15.01722240   96.72149658    1.26999998    2.73000002
   15.02138901  102.45099640    1.26999998    2.73000002
   15.02444458   97.14080048    1.28999996    2.73000002
   15.02555561   98.49629974    1.26999998    2.75000000
   15.02833271  106.49400330    1.28999996    2.75000000
   15.03138828   99.66680145    1.25000000    2.75000000
   15.03472233  102.84999847    1.28999996    2.75000000
   15.03777790  122.28800201    1.25000000    2.73000002
   15.04111195  114.41100311    1.25000000    2.75000000
   15.04444504  107.82299805    1.25000000    2.73000002
   15.04750061  102.90499878    1.25000000    2.73000002
   15.05083370   94.94400024    1.25000000    2.73000002
   15.05416679   99.01190186    1.25000000    2.73000002
   15.06000042   99.01190186    1.25000000    2.75000000
   15.06416702   96.01869965    1.23000002    2.75000000
   15.06750011   98.06199646    1.21000004    2.75000000
   15.07055569  101.44699860    1.21000004    2.75000000
   15.07388878  102.04799652    1.21000004    2.73000002
   15.17972279   -1.00000000   -1.00000000   -1.00000000
   15.30333328   -1.00000000   -1.00000000   -1.00000000
   15.46888828   -1.00000000   -1.00000000   -1.00000000
   15.61166668   70.77610016    1.30999994    2.75000000
   15.61500072   98.32810211    1.30999994    2.75000000
   15.61805534   97.10420227    1.30999994    2.75000000
   15.62138939   98.53199768    1.33000004    2.75000000
   15.62472248   93.05919647    1.34000003    2.75000000
   15.62777805  101.02799988    1.28999996    2.75000000
   15.63194466  101.02799988    1.26999998    2.75000000
   15.63611126   96.51290131    1.26999998    2.75000000
   15.63944435   95.17990112    1.25000000    2.76999998
   15.64249992   93.78639984    1.23000002    2.75000000
   15.64499950   92.87640381    1.23000002    2.75000000
   15.64638901   91.08100128    1.23000002    2.76999998
   15.64944458  101.99299622    1.25000000    2.75000000
   15.65277767   93.06189728    1.25000000    2.75000000
   15.65583324   97.81529999    1.26999998    2.76999998
   15.65916634   99.36949921    1.25000000    2.76999998
   15.66249943   94.84380341    1.26999998    2.75000000
   15.66555500   93.62670135    1.23000002    2.75000000
   15.66888905   95.81749725    1.23000002    2.75000000
   15.67472267   95.81749725    1.25000000    2.75000000
   15.67888927  101.55999756    1.23000002    2.75000000
   15.68222237  102.36599731    1.21000004    2.75000000
   15.68555546  100.12100220    1.23000002    2.76999998
   15.68861103   92.07649994    1.21000004    2.75000000
   15.69194412   97.87500000    1.21000004    2.76999998
   15.69499969   96.90930176    1.19000006    2.75000000
   15.69833374   97.78450012    1.26999998    2.75000000
   15.70166683   98.34870148    1.19000006    2.75000000
   15.70472240   96.28410339    1.19000006    2.75000000
   15.70805550   88.42960358    1.16999996    2.75000000
   15.71138859   90.83039856    1.19000006    2.75000000
   15.71166611   92.71250153    1.19000006    2.75000000
   15.71777725   92.71250153    1.19000006    2.76999998
   15.72194386   92.23449707    1.19000006    2.76999998
   15.72499943   97.65599823    1.19000006    2.75000000
   15.72833252   92.14209747    1.19000006    2.76999998
   15.73138809   92.26930237    1.26999998    2.75000000
   15.73472214   89.13210297    1.16999996    2.75000000
   15.73805618   89.25869751    1.19000006    2.76999998
   15.74111176   89.32569885    1.23000002    2.76999998
   15.74444485   88.97109985    1.16999996    2.76999998
   15.74499989   97.88770294    1.16999996    2.75000000
   15.74805546   89.52809906    1.16999996    2.75000000
   15.75138855   93.46869659    1.19000006    2.76999998
   15.75444412   90.48829651    1.14999998    2.75000000
   15.76055527   90.48829651    1.14999998    2.76999998
   15.76472187   90.68299866    1.14999998    2.76999998
   15.76777744   94.36720276    1.14999998    2.76999998
   15.77111053   96.70809937    1.14999998    2.75000000
   15.77444458   93.22630310    1.16999996    2.75000000
   15.77750015   96.98390198    1.19000006    2.76999998
   15.77861118   90.71600342    1.19000006    2.76999998
   15.78111076   94.60630035    1.19000006    2.76999998
   15.78444481   96.97830200    1.14999998    2.76999998
   15.78750038  101.72499847    1.14999998    2.76999998
   15.79083347   94.78099823    1.19000006    2.76999998
   15.79416752   95.34629822    1.14999998    2.76999998
   15.79722309   98.52140045    1.14999998    2.76999998
   15.80333328   98.52140045    1.14999998    2.76999998
   15.80749989   98.41870117    1.14999998    2.76999998
   15.81083393   99.25789642    1.13000000    2.76999998
   15.81194496   98.98970032    1.13000000    2.76999998
   15.81444454   97.70659637    1.13000000    2.76999998
   15.81777763   95.86710358    1.14999998    2.76999998
   15.82083321   95.82510376    1.16999996    2.76999998
   15.82416630   99.75849915    1.19000006    2.76999998
   15.82750034   94.36550140    1.16999996    2.76999998
   15.83055592   93.22650146    1.16999996    2.76999998
   15.83388901   92.19290161    1.21000004    2.76999998
   15.83722210   96.02490234    1.16999996    2.76999998
   15.84027767   94.01619720    1.19000006    2.75000000
   15.84611034   94.01619720    1.21000004    2.76999998
   15.85027790   94.84130096    1.23000002    2.75000000
   15.85361195   92.25009918    1.25000000    2.76999998
   15.85694504   92.78019714    1.25000000    2.75000000
   15.86000061   89.75119781    1.23000002    2.76999998
   15.86333370   91.84159851    1.21000004    2.76999998
   15.86638927   89.11519623    1.16999996    2.76999998
   15.86972237   96.62390137    1.16999996    2.76999998
   15.87305546   94.63349915    1.16999996    2.76999998
   15.87611103   98.86360168    1.16999996    2.76999998
   15.87861156  104.12899780    1.16999996    2.76999998
   15.87972260   99.18479919    1.16999996    2.76999998
   15.88305569  104.80100250    1.19000006    2.76999998
   15.88916683  104.80100250    1.16999996    2.76999998
   15.89333344   95.32869720    1.16999996    2.76999998
   15.89638901  103.75499725    1.16999996    2.76999998
   15.89972210   97.37370300    1.19000006    2.76999998
   15.90277767   94.48909760    1.25000000    2.76999998
   15.90611076  101.61499786    1.19000006    2.75000000
   15.90944386   92.94969940    1.21000004    2.76999998
   15.91194439   93.37909698    1.19000006    2.76999998
   15.91305542   97.22000122    1.21000004    2.75000000
   15.91638851   90.99680328    1.19000006    2.76999998
   15.91944504   98.15260315    1.19000006    2.75000000
   15.92277813   92.90260315    1.19000006    2.76999998
   15.92611122   94.33290100    1.19000006    2.76999998
   15.93194485   94.33290100    1.21000004    2.75000000
   15.93611145   93.31759644    1.19000006    2.76999998
   15.93916702   91.34249878    1.19000006    2.76999998
   15.94250011   92.01010132    1.19000006    2.76999998
   15.94527817   91.64530182    1.19000006    2.76999998
   15.94611073   92.86710358    1.21000004    2.76999998
   15.94944477   91.86969757    1.19000006    2.76999998
   15.95249939   93.18840027    1.19000006    2.76999998
   15.95583344   90.71450043    1.19000006    2.76999998
   15.95916653   92.34809875    1.21000004    2.76999998
   15.96222210   93.02480316    1.21000004    2.76999998
   15.96555519   94.41190338    1.21000004    2.76999998
   15.96888828   93.11959839    1.19000006    2.76999998
   15.97472191   93.11959839    1.21000004    2.75000000
   15.97888851   99.32900238    1.19000006    2.76999998
   15.98222160   94.43640137    1.19000006    2.76999998
   15.98527813   99.89350128    1.23000002    2.76999998
   15.98861122   99.06659698    1.21000004    2.76999998
   15.99194431  101.98200226    1.23000002    2.75000000
   15.99499989   99.67749786    1.21000004    2.75000000
   15.99833393   99.57689667    1.19000006    2.76999998
   16.00138855  100.09500122    1.19000006    2.76999998
   16.00472260   98.30699921    1.19000006    2.76999998
   16.00805473   94.73600006    1.19000006    2.75000000
   16.01111031  105.76200104    1.21000004    2.76999998
   16.01194382  101.40200043    1.21000004    2.76999998
   16.01749992  101.40200043    1.14999998    2.76999998
   16.02166557   99.34609985    1.14999998    2.76999998
   16.02499962   87.21970367    1.14999998    2.78999996
   16.02805519   89.23539734    1.13000000    2.78999996
   16.03138924   95.91570282    1.13000000    2.76999998
   16.03472137   92.43170166    1.16999996    2.76999998
   16.03777695   93.32910156    1.16999996    2.76999998
   16.04111099   93.81710052    1.19000006    2.78999996
   16.04444313   88.79100037    1.19000006    2.76999998
   16.04527664   92.25930023    1.19000006    2.76999998
   16.04777718   88.01740265    1.21000004    2.75000000
   16.05111122   88.65460205    1.19000006    2.75000000
   16.05444336   89.06369781    1.19000006    2.75000000
   16.06055450   89.06369781    1.16999996    2.75000000
   16.06444359   86.79100037    1.16999996    2.75000000
   16.06777954   90.48899841    1.21000004    2.76999998
   16.07111168   92.60420227    1.19000006    2.76999998
   16.07416725   90.99600220    1.19000006    2.76999998
   16.07750130   98.15309906    1.21000004    2.76999998
   16.07861137   99.15309906    1.19000006    2.76999998
   16.08111191   97.50990295    1.21000004    2.75000000
   16.08444595   93.46679688    1.19000006    2.76999998
   16.08777809   92.69259644    1.19000006    2.76999998
   16.09083366   91.72090149    1.19000006    2.76999998
   16.09416771   95.12989807    1.19000006    2.76999998
   16.09722328   95.44850159    1.21000004    2.76999998
   16.10333443   95.44850159    1.16999996    2.76999998
   16.10750008   97.19229889    1.16999996    2.76999998
   16.11055565   91.33300018    1.19000006    2.78999996
   16.11194420   99.25769806    1.19000006    2.78999996
   16.11444473   89.94889832    1.19000006    2.76999998
   16.11777878   94.08969879    1.19000006    2.76999998
   16.12111092   97.31479645    1.19000006    2.76999998
   16.12416649   96.88629913    1.19000006    2.76999998
   16.12750053   92.85679626    1.16999996    2.76999998
   16.13083267   94.34790039    1.21000004    2.76999998
   16.13388824   86.82920074    1.23000002    2.76999998
   16.13722229   95.12079620    1.19000006    2.75000000
   16.14055634   95.20950317    1.25000000    2.75000000
   16.14611053   95.20950317    1.21000004    2.76999998
   16.15027809   98.61959839    1.23000002    2.76999998
   16.15361023   93.93939972    1.25000000    2.75000000
   16.15666580   91.63659668    1.25000000    2.75000000
   16.15999985   92.44039917    1.21000004    2.75000000
   16.16305542   95.64019775    1.21000004    2.75000000
   16.16638756   94.86340332    1.21000004    2.76999998
   16.16972160   90.83989716    1.21000004    2.76999998
   16.17277718   92.68470001    1.21000004    2.76999998
   16.17611122   88.82360077    1.19000006    2.76999998
   16.17860985   95.57279968    1.19000006    2.76999998
   16.17972183   94.33309937    1.19000006    2.76999998
   16.18305397   92.14109802    1.16999996    2.75000000
   16.18888855   92.14109802    1.16999996    2.76999998
   16.19305420   98.46579742    1.16999996    2.76999998
   16.19638824  100.00399780    1.26999998    2.75000000
   16.19944382   99.85520172    1.23000002    2.75000000
   16.20277786   97.76809692    1.19000006    2.76999998
   16.20611191   98.79949951    1.21000004    2.76999998
   16.20916748  100.52500153    1.16999996    2.76999998
   16.21194458   95.59670258    1.19000006    2.75000000
   16.21277809   96.38729858    1.19000006    2.76999998
   16.21611214   96.69480133    1.16999996    2.76999998
   16.21944427   96.27999878    1.25000000    2.76999998
   16.22249985   97.35019684    1.21000004    2.76999998
   16.22583389  103.89299774    1.16999996    2.76999998
   16.23194504  103.89299774    1.16999996    2.76999998
   16.23583412  101.77200317    1.19000006    2.78999996
   16.23916626   96.80580139    1.16999996    2.75000000
   16.24250031  100.03399658    1.19000006    2.76999998
   16.24527740   99.67009735    1.23000002    2.76999998
   16.24583435   96.52149963    1.23000002    2.76999998
   16.24916649   98.16079712    1.16999996    2.76999998
   16.25250053   95.13990021    1.21000004    2.76999998
   16.25555611   95.50859833    1.14999998    2.76999998
   16.25888824   96.46559906    1.14999998    2.76999998
   16.26194382   97.67440033    1.19000006    2.78999996
   16.26527786   94.95089722    1.14999998    2.75000000
   16.26861000   98.29720306    1.16999996    2.76999998
   16.27472115   98.29720306    1.16999996    2.76999998
   16.27888870  100.24800110    1.19000006    2.76999998
   16.28194427   93.28900146    1.19000006    2.76999998
   16.28527641   97.81289673    1.21000004    2.75000000
   16.28861046   94.69100189    1.23000002    2.76999998
   16.29166603  101.46099854    1.26999998    2.75000000
   16.29500008  105.60500336    1.21000004    2.76999998
   16.29833221   96.66030121    1.19000006    2.76999998
   16.30138779  100.92600250    1.19000006    2.76999998
   16.30472183   95.39939880    1.19000006    2.76999998
   16.30777740   95.23979950    1.16999996    2.76999998
   16.31110954   97.25279999    1.16999996    2.76999998
   16.31194305   97.00160217    1.14999998    2.76999998
   16.31750107   97.00160217    1.21000004    2.76999998
   16.32166672   97.15080261    1.14999998    2.75000000
   16.32500076   99.87609863    1.21000004    2.76999998
   16.32805634  102.27799988    1.16999996    2.76999998
   16.33139038   93.74680328    1.16999996    2.76999998
   16.33444595  102.68800354    1.16999996    2.76999998
   16.33777809   92.14530182    1.16999996    2.76999998
   16.34111214   97.12310028    1.14999998    2.76999998
   16.34416771   98.14199829    1.14999998    2.76999998
   16.34527779   91.84300232    1.14999998    2.76999998
   16.34777832   93.59200287    1.16999996    2.76999998
   16.35111237  104.08799744    1.16999996    2.76999998
   16.35444450   94.28769684    1.16999996    2.76999998
   16.36027908   94.28769684    1.16999996    2.76999998
   16.36444473   97.79160309    1.23000002    2.76999998
   16.36777878   93.53769684    1.19000006    2.76999998
   16.37083435   93.10870361    1.16999996    2.76999998
   16.37416649   95.81349945    1.14999998    2.76999998
   16.37750053   97.97200012    1.19000006    2.76999998
   16.37861061   99.17990112    1.25000000    2.76999998
   16.38111115   93.97290039    1.25000000    2.76999998
   16.38416672   92.16020203    1.33000004    2.76999998
   16.38750076   92.99700165    1.21000004    2.76999998
   16.39083290   99.25900269    1.21000004    2.76999998
   16.39388847   96.24690247    1.21000004    2.76999998
   16.39722252  100.14299774    1.23000002    2.76999998
   16.40333366  100.14299774    1.33000004    2.76999998
   16.40722275   95.09519958    1.28999996    2.76999998
   16.41055489   95.21620178    1.25000000    2.75000000
   16.41194344   90.87210083    1.25000000    2.75000000
   16.41444397   97.30319977    1.26999998    2.76999998
   16.41749954   93.48600006    1.25000000    2.76999998
   16.42083359   88.51570129    1.21000004    2.76999998
   16.42388916   88.53309631    1.23000002    2.78999996
   16.42722130   96.40679932    1.19000006    2.76999998
   16.43055534   92.91049957    1.14999998    2.76999998
   16.43361092   90.64859772    1.16999996    2.76999998
   16.43694305  100.49700165    1.21000004    2.76999998
   16.44027710   96.81729889    1.16999996    2.76999998
   16.44610977   96.81729889    1.16999996    2.76999998
   16.45027924  100.74700165    1.11000001    2.78999996
   16.45333481   96.21479797    1.11000001    2.76999998
   16.45666695   99.61479950    1.11000001    2.76999998
   16.46000099   93.53150177    1.09000003    2.76999998
   16.46305656   87.36849976    1.11000001    2.76999998
   16.46638870   96.03659821    1.09000003    2.76999998
   16.46944427   96.01080322    1.11000001    2.76999998
   16.47277832   91.76039886    1.13000000    2.76999998
   16.47611237   89.06870270    1.13000000    2.76999998
   16.47861099   96.38749695    1.14999998    2.76999998
   16.47972298   92.40090179    1.14999998    2.76999998
   16.48305511   89.62940216    1.19000006    2.76999998
   16.48888969   89.62940216    1.19000006    2.76999998
   16.49305534   87.68129730    1.16999996    2.76999998
   16.49638939  100.53600311    1.14999998    2.78999996
   16.49944496   92.30490112    1.14999998    2.76999998
   16.50277710   97.02369690    1.14999998    2.76999998
   16.50583267   91.58280182    1.13000000    2.78999996
   16.50916672   93.01580048    1.11000001    2.78999996
   16.51194382   91.87879944    1.11000001    2.76999998
   16.51305580   91.19039917    1.11000001    2.76999998
   16.51611137   93.83170319    1.11000001    2.76999998
   16.51944351   95.27619934    1.11000001    2.76999998
   16.52249908   94.57109833    1.14999998    2.76999998
   16.52583313   88.13379669    1.09000003    2.76999998
   16.53166580   88.13379669    1.16999996    2.76999998
   16.53583336   92.04199982    1.07000005    2.76999998
   16.53916550   90.42859650    1.09000003    2.78999996
   16.54222107   91.55290222    1.09000003    2.76999998
   16.54527664   93.69920349    1.09000003    2.76999998
   16.54611015   87.86889648    1.09000003    2.76999998
   16.54916573   93.33239746    1.14999998    2.76999998
   16.55249977   93.11710358    1.14999998    2.76999998
   16.55555534   88.40989685    1.09000003    2.76999998
   16.55888748   92.44419861    1.13000000    2.76999998
   16.56222153   95.99610138    1.09000003    2.76999998
   16.56527710   93.22329712    1.09000003    2.78999996
   16.56861115   89.23629761    1.11000001    2.76999998
   16.57472229   89.23629761    1.11000001    2.76999998
   16.57861137   89.23200226    1.13000000    2.76999998
   16.58194542   94.62870026    1.11000001    2.78999996
   16.58527756   90.32129669    1.11000001    2.76999998
   16.58833313   92.92919922    1.09000003    2.76999998
   16.59166718   91.36460114    1.09000003    2.78999996
   16.59500122   91.22200012    1.11000001    2.76999998
   16.59805679   95.90360260    1.11000001    2.78999996
   16.60138893   91.33969879    1.11000001    2.76999998
   16.60444450   95.57910156    1.11000001    2.76999998
   16.60777855   89.89630127    1.14999998    2.76999998
   16.61111069   95.50199890    1.13000000    2.76999998
   16.61194420   90.05889893    1.11000001    2.78999996
   16.63249969   90.05889893    1.13000000    2.78999996
   16.63666725   94.62310028    1.07000005    2.78999996
   16.63999939   92.03140259    1.07000005    2.76999998
   16.64305496   97.65750122    1.07000005    2.76999998
   16.64527702   97.99449921    1.05999994    2.78999996
   16.64694405  100.59400177    1.05999994    2.78999996
   16.64999962  102.15200043    1.05999994    2.78999996
   16.65333366  102.22100067    1.05999994    2.76999998
   16.65666580  106.04100037    1.07000005    2.78999996
   16.65972137  100.19599915    1.07000005    2.76999998
   16.66305542  104.85099792    1.05999994    2.78999996
   16.66638756  100.56600189    1.07000005    2.78999996
   16.66944313   98.35030365    1.07000005    2.76999998
   16.67527771   98.35030365    1.09000003    2.78999996
   16.67944336   92.67720032    1.09000003    2.76999998
   16.68277740  100.76799774    1.09000003    2.76999998
   16.68583298   91.81020355    1.09000003    2.76999998
   16.68916512   95.62909698    1.09000003    2.78999996
   16.69249916  102.00900269    1.09000003    2.76999998
   16.69555473   99.50209808    1.09000003    2.76999998
   16.69888878   97.08360291    1.09000003    2.76999998
   16.70194435   99.34079742    1.11000001    2.78999996
   16.70527840  100.24299622    1.09000003    2.76999998
   16.70861244   98.54640198    1.09000003    2.78999996
   16.71166801   92.27349854    1.11000001    2.76999998
   16.71222305   96.37629700    1.11000001    2.76999998
   16.71805573   96.37629700    1.07000005    2.76999998
   16.72222328  101.13700104    1.13000000    2.78999996
   16.72555542   93.73860168    1.07000005    2.76999998
   16.72861099   94.71640015    1.07000005    2.76999998
   16.73194504   98.92269897    1.11000001    2.76999998
   16.73527718   93.71690369    1.05999994    2.78999996
   16.73833275   93.76300049    1.11000001    2.76999998
   16.74166679   90.33329773    1.05999994    2.76999998
   16.74500084   93.02709961    1.05999994    2.76999998
   16.74555588   91.10870361    1.07000005    2.78999996
   16.74861145  100.33799744    1.07000005    2.76999998
   16.75194359   93.56819916    1.07000005    2.76999998
   16.75499916   92.75589752    1.11000001    2.76999998
   16.76111031   92.75589752    1.07000005    2.76999998
   16.76527786   96.06629944    1.07000005    2.76999998
   16.76833344   95.40820313    1.07000005    2.78999996
   16.77166557   94.70819855    1.09000003    2.78999996
   16.77472115   91.52940369    1.09000003    2.78999996
   16.77805519   88.11150360    1.09000003    2.78999996
   16.77888870   93.20520020    1.09000003    2.78999996
   16.78166580   88.75849915    1.09000003    2.76999998
   16.78499985   97.39969635    1.09000003    2.76999998
   16.78805542   85.56990051    1.11000001    2.76999998
   16.79138756   94.04560089    1.07000005    2.78999996
   16.79444313   93.61849976    1.07000005    2.76999998
   16.79777718   93.97789764    1.07000005    2.76999998
   16.80388832   93.97789764    1.14999998    2.76999998
   16.80805397   90.20320129    1.11000001    2.76999998
   16.81110954   87.14849854    1.11000001    2.76999998
   16.81222153   90.66200256    1.11000001    2.76999998
   16.81472206   99.53700256    1.14999998    2.78999996
   16.81805611   96.44259644    1.09000003    2.76999998
   16.82111168   97.62670135    1.07000005    2.76999998
   16.82444572  101.92800140    1.05999994    2.78999996
   16.82750130   96.49530029    1.03999996    2.78999996
   16.83083344   99.94149780    1.05999994    2.76999998
   16.83416748   87.89350128    1.03999996    2.76999998
   16.83722305   96.79750061    1.03999996    2.78999996
   16.84055710   92.95459747    1.01999998    2.78999996
   16.84666824   92.95459747    1.03999996    2.78999996
   16.85083389   95.98490143    1.03999996    2.76999998
   16.85416794   99.29979706    1.05999994    2.78999996
   16.85722351   97.25409698    1.03999996    2.78999996
   16.86055565   93.58059692    1.09000003    2.76999998
   16.86361122  101.39800262    1.03999996    2.76999998
   16.86694527   89.80390167    1.03999996    2.78999996
   16.87027740   94.18830109    1.07000005    2.76999998
   16.87333298   99.14520264    1.09000003    2.78999996
   16.87666702   95.93509674    1.05999994    2.76999998
   16.87888908   93.73139954    1.11000001    2.78999996
   16.88027763   93.43240356    1.07000005    2.76999998
   16.88361168   90.66510010    1.09000003    2.76999998
   16.88944435   90.66510010    1.11000001    2.76999998
   16.89361191   90.64980316    1.13000000    2.76999998
   16.89694405   85.93060303    1.13000000    2.76999998
   16.89999962   91.30529785    1.11000001    2.76999998
   16.90333366   99.73470306    1.09000003    2.76999998
   16.90666580   98.60720062    1.09000003    2.76999998
   16.90972137   99.70210266    1.11000001    2.78999996
   16.91222191   94.78130341    1.11000001    2.78999996
   16.91333389   94.42179871    1.09000003    2.78999996
   16.91666603   93.87449646    1.09000003    2.78999996
   16.91972160   92.29689789    1.09000003    2.78999996
   16.92305565   92.46569824    1.09000003    2.76999998
   16.92611122   96.07810211    1.09000003    2.78999996
   16.93249893   96.07810211    1.09000003    2.78999996
   16.93638802   93.07569885    1.09000003    2.76999998
   16.93972206  101.20700073    1.09000003    2.78999996
   16.94305420  102.80699921    1.11000001    2.76999998
   16.94555473   97.00710297    1.07000005    2.78999996
   16.94666672  108.12000275    1.07000005    2.78999996
   16.95000076  105.35700226    1.09000003    2.78999996
   16.95305634  102.12599945    1.05999994    2.76999998
   16.95639038  102.97699738    1.05999994    2.76999998
   16.95944595   91.46600342    1.05999994    2.76999998
   16.96277809  102.81400299    1.05999994    2.78999996
   16.96611214   93.40859985    1.07000005    2.76999998
   16.96916771   98.03060150    1.07000005    2.78999996
   16.97527885   98.03060150    1.05999994    2.78999996
   16.97944450   88.79879761    1.07000005    2.78999996
   16.98250008   82.78939819    1.09000003    2.78999996
   16.98583412   86.75830078    1.09000003    2.78999996
   16.98916626   86.59770203    1.09000003    2.76999998
   16.99222183   95.36119843    1.09000003    2.78999996
   16.99555588   96.16480255    1.07000005    2.78999996
   16.99861145   85.84490204    1.07000005    2.78999996
   17.00194359   97.55760193    1.09000003    2.76999998
   17.00527763   95.00119781    1.05999994    2.78999996
   17.00833321   92.62169647    1.09000003    2.76999998
   17.01166725   93.55560303    1.07000005    2.76999998
   17.01222229   96.03869629    1.07000005    2.78999996
   17.01805496   96.03869629    1.09000003    2.78999996
   17.02222252   96.37310028    1.07000005    2.78999996
   17.02555466   99.94860077    1.05999994    2.78999996
   17.02861023   99.88379669    1.05999994    2.76999998
   17.03194427  102.47100067    1.05999994    2.78999996
   17.03499985   93.52249908    1.09000003    2.76999998
   17.03833199  105.54499817    1.05999994    2.78999996
   17.04166603   95.25119781    1.07000005    2.78999996
   17.04472160   99.82790375    1.05999994    2.76999998
   17.04555511   97.74310303    1.05999994    2.76999998
   17.04833221   97.91510010    1.07000005    2.78999996
   17.05166626   95.49150085    1.09000003    2.76999998
   17.05472183   99.88829803    1.05999994    2.78999996
   17.06083298   99.88829803    1.05999994    2.78999996
   17.06499863  111.05799866    1.05999994    2.76999998
   17.06833458  100.04199982    1.05999994    2.76999998
   17.07139015   93.97830200    1.05999994    2.78999996
   17.07472229   95.24050140    1.05999994    2.76999998
   17.07805634   95.00379944    1.05999994    2.76999998
   17.07888985   89.09470367    1.05999994    2.76999998
   17.08166695   98.03970337    1.05999994    2.76999998
   17.08500099   91.95420074    1.05999994    2.78999996
   17.08805656   86.64790344    1.05999994    2.76999998
   17.09138870   93.52220154    1.07000005    2.78999996
   17.09472275   89.82630157    1.09000003    2.76999998
   17.09777832   97.47989655    1.07000005    2.76999998
   17.10388947   97.47989655    1.09000003    2.76999998
   17.10777855   98.96309662    1.09000003    2.76999998
   17.11111069   89.10079956    1.11000001    2.76999998
   17.11222267  101.93299866    1.13000000    2.76999998
   17.11472321   94.66580200    1.11000001    2.78999996
   17.11805534   91.83660126    1.11000001    2.78999996
   17.12111092   92.90769958    1.09000003    2.78999996
   17.12444496   93.18029785    1.07000005    2.78999996
   17.12777710  100.78700256    1.07000005    2.78999996
   17.13083267   96.04170227    1.05999994    2.78999996
   17.13416672   95.13420105    1.07000005    2.78999996
   17.13722229   96.08719635    1.05999994    2.78999996
   17.14055634   91.80239868    1.05999994    2.76999998
   17.14666748   91.80239868    1.05999994    2.78999996
   17.15083313   96.73799896    1.05999994    2.76999998
   17.15388870  102.09500122    1.09000003    2.76999998
   17.15722275   92.08209991    1.07000005    2.78999996
   17.16055489   97.47779846    1.09000003    2.78999996
   17.16361046   95.41000366    1.07000005    2.78999996
   17.16694450   93.79149628    1.09000003    2.76999998
   17.17000008   91.94339752    1.05999994    2.76999998
   17.17333221   91.30180359    1.09000003    2.76999998
   17.17666626  102.00099945    1.09000003    2.78999996
   17.17888832  106.65899658    1.05999994    2.78999996
   17.18027687   99.83779907    1.05999994    2.78999996
   17.18361092   99.38150024    1.09000003    2.78999996
   17.18944359   99.38150024    1.05999994    2.76999998
   17.19361115  110.23999786    1.11000001    2.78999996
   17.19694328  100.74299622    1.05999994    2.78999996
   17.20000076  103.39299774    1.03999996    2.76999998
   17.20333481   93.39669800    1.07000005    2.78999996
   17.20639038   96.85330200    1.05999994    2.78999996
   17.20972252   90.40280151    1.01999998    2.78999996
   17.21250153   98.15450287    1.03999996    2.76999998
   17.21361160   92.61579895    1.03999996    2.78999996
   17.21666718   98.47660065    1.01999998    2.78999996
   17.22000122   89.13079834    1.01999998    2.78999996
   17.22333336   90.83979797    1.01999998    2.76999998
   17.22638893   96.81620026    1.01999998    2.78999996
   17.23222351   96.81620026    1.01999998    2.78999996
   17.23638916   91.55130005    1.01999998    2.76999998
   17.23972321  103.18800354    1.01999998    2.76999998
   17.24277878   96.96949768    1.01999998    2.76999998
   17.24555588   92.33809662    1.01999998    2.76999998
   17.24638939   98.92990112    1.01999998    2.76999998
   17.24972153   97.84480286    1.01999998    2.76999998
   17.25305557   93.75340271    1.01999998    2.76999998
   17.25611115  102.61799622    1.01999998    2.76999998
   17.25944519   85.83380127    1.01999998    2.76999998
   17.26250076   92.66100311    1.00000000    2.78999996
   17.26583290   96.43090057    1.00000000    2.78999996
   17.26916695   96.93360138    1.00000000    2.78999996
   17.27527809   96.93360138    1.00000000    2.78999996
   17.27916718   90.44770050    1.00000000    2.78999996
   17.28249931  100.55400085    1.00000000    2.76999998
   17.28583336  101.78700256    1.00000000    2.76999998
   17.28888893   94.02909851    1.05999994    2.76999998
   17.29222107   94.85130310    1.03999996    2.78999996
   17.29555511   92.14730072    1.03999996    2.76999998
   17.29861069   99.81700134    1.01999998    2.78999996
   17.30194283   91.39469910    1.00000000    2.78999996
   17.30499840   88.07450104    1.05999994    2.76999998
   17.30833244  101.59600067    1.07000005    2.78999996
   17.31166649   90.81870270    1.03999996    2.78999996
   17.31222153   91.60379791    1.03999996    2.78999996
   17.31805611   91.60379791    1.09000003    2.76999998
   17.32222366   97.80780029    1.09000003    2.78999996
   17.32527924   98.30300140    1.07000005    2.76999998
   17.32861137   99.98660278    1.09000003    2.76999998
   17.33194542  100.35500336    1.09000003    2.78999996
   17.33500099   97.63289642    1.09000003    2.78999996
   17.33833313   92.94309998    1.09000003    2.76999998
   17.34166718   97.27970123    1.09000003    2.76999998
   17.34472275   96.34239960    1.11000001    2.76999998
   17.34583473   95.85479736    1.09000003    2.76999998
   17.34833336   97.86830139    1.13000000    2.76999998
   17.35166740   98.70310211    1.07000005    2.78999996
   17.35472298   97.28420258    1.09000003    2.76999998
   17.36083412   97.28420258    1.07000005    2.76999998
   17.36499977   91.94349670    1.07000005    2.78999996
   17.36833382   92.37740326    1.13000000    2.76999998
   17.37138939   94.96820068    1.07000005    2.78999996
   17.37472153   99.47640228    1.07000005    2.78999996
   17.37777710   88.41690063    1.09000003    2.78999996
   17.37916756   92.27749634    1.09000003    2.78999996
   17.38138962   94.28250122    1.11000001    2.76999998
   17.38472176   87.35019684    1.09000003    2.76999998
   17.38777733   94.05670166    1.09000003    2.76999998
   17.39111137   90.75140381    1.11000001    2.76999998
   17.39444351   97.56189728    1.09000003    2.76999998
   17.39749908   94.07540131    1.13000000    2.78999996
   17.40361023   94.07540131    1.13000000    2.76999998
   17.40777779   90.09480286    1.09000003    2.78999996
   17.41110992   92.12640381    1.13000000    2.76999998
   17.41250038  100.97200012    1.14999998    2.76999998
   17.41472244   91.76460266    1.16999996    2.76999998
   17.41805458   97.18609619    1.13000000    2.76999998
   17.42138863   94.05879974    1.14999998    2.76999998
   17.42444420   90.75650024    1.13000000    2.76999998
   17.42777634   93.93959808    1.21000004    2.78999996
   17.43111038   97.60939789    1.14999998    2.76999998
   17.43444443  101.88500214    1.14999998    2.76999998
   17.43750000  105.03099823    1.21000004    2.76999998
   17.44083214   99.70279694    1.14999998    2.76999998
   17.44638824   99.70279694    1.19000006    2.76999998
   17.45055580  102.77200317    1.14999998    2.76999998
   17.45388985   91.72859955    1.16999996    2.76999998
   17.45722389   98.86990356    1.14999998    2.75000000
   17.46027946   99.32219696    1.23000002    2.76999998
   17.46361160   93.44889832    1.23000002    2.76999998
   17.46694565   97.82669830    1.16999996    2.75000000
   17.47000122   97.56539917    1.16999996    2.76999998
   17.47333336   95.46610260    1.16999996    2.76999998
   17.47638893   93.36869812    1.16999996    2.76999998
   17.47916794  101.41100311    1.16999996    2.76999998
   17.48000145   95.02149963    1.16999996    2.76999998
   17.48333359   95.35330200    1.16999996    2.76999998
   17.48944473   95.35330200    1.21000004    2.76999998
   17.49361229   88.53040314    1.16999996    2.75000000
   17.49666786   89.90409851    1.19000006    2.76999998
   17.50000000   88.09239960    1.16999996    2.76999998
   17.50333405   93.58029938    1.21000004    2.76999998
   17.50638962   95.76000214    1.19000006    2.76999998
   17.50972176   89.06359863    1.19000006    2.75000000
   17.51250076   90.15139771    1.16999996    2.76999998
   17.51333427   94.27940369    1.16999996    2.76999998
   17.51666641   95.00009918    1.16999996    2.75000000
   17.52000046   99.64129639    1.19000006    2.76999998
   17.52305603  101.74099731    1.16999996    2.76999998
   17.52638817   97.88369751    1.21000004    2.76999998
   17.53222275   97.88369751    1.16999996    2.76999998
   17.53638840   99.16889954    1.25000000    2.76999998
   17.53972244  101.85199738    1.16999996    2.76999998
   17.54277802   98.25209808    1.19000006    2.76999998
   17.54583359  100.63600159    1.19000006    2.78999996
   17.54638863   99.08699799    1.19000006    2.76999998
   17.54972076  104.12500000    1.21000004    2.78999996
   17.55305481   95.28330231    1.21000004    2.75000000
   17.55611038   97.16780090    1.21000004    2.75000000
   17.55944443   99.98719788    1.21000004    2.76999998
   17.56250000   91.13739777    1.19000006    2.76999998
   17.56583214   94.84980011    1.16999996    2.76999998
   17.56916809  101.00700378    1.16999996    2.76999998
   17.57500076  101.00700378    1.14999998    2.78999996
   17.57916832   94.17250061    1.14999998    2.76999998
   17.58250046   95.23149872    1.13000000    2.78999996
   17.58555603   91.60880280    1.13000000    2.76999998
   17.58889008  101.40899658    1.14999998    2.78999996
   17.59222221   93.89610291    1.16999996    2.76999998
   17.59527779  100.66699982    1.11000001    2.76999998
   17.59861183   92.79399872    1.11000001    2.78999996
   17.60166740   96.01619720    1.14999998    2.76999998
   17.60499954   99.66850281    1.13000000    2.76999998
   17.60833359  103.99600220    1.13000000    2.76999998
   17.61138916  105.17400360    1.16999996    2.76999998
   17.61250114  102.29799652    1.16999996    2.76999998
   17.61777878  102.29799652    1.16999996    2.76999998
   17.62194443  103.39399719    1.23000002    2.76999998
   17.62527847  105.35800171    1.21000004    2.76999998
   17.62861061   98.95610046    1.16999996    2.76999998
   17.64611053  101.65399933    1.14999998    2.76999998
   17.64833260   92.10500336    1.14999998    2.76999998
   17.65166664   94.25140381    1.13000000    2.76999998
   17.65499878   99.17479706    1.19000006    2.76999998
   17.66083336   99.17479706    1.13000000    2.76999998
   17.66499901  102.14299774    1.13000000    2.76999998
   17.66833305  102.73400116    1.11000001    2.76999998
   17.67138863   95.09919739    1.11000001    2.76999998
   17.67472076  105.05300140    1.11000001    2.76999998
   17.67805481  106.03500366    1.16999996    2.76999998
   17.67916679   96.49829865    1.11000001    2.76999998
   17.68166542   99.51959991    1.11000001    2.76999998
   17.68499947   84.91840363    1.13000000    2.76999998
   17.68833160   94.49870300    1.09000003    2.76999998
   17.69138718   98.59899902    1.11000001    2.76999998
   17.69472122   95.92870331    1.14999998    2.78999996
   17.69777679   90.49919891    1.13000000    2.76999998
   17.70388985   90.49919891    1.16999996    2.75000000
   17.70777893   96.77100372    1.16999996    2.76999998
   17.71111107   88.85179901    1.14999998    2.76999998
   17.71250153   89.76899719    1.13000000    2.76999998
   17.71472359   95.62030029    1.19000006    2.76999998
   17.71805573   93.68509674    1.14999998    2.78999996
   17.72111130   93.50450134    1.13000000    2.76999998
   17.72444534   93.72440338    1.14999998    2.78999996
   17.72777748   97.38289642    1.13000000    2.76999998
   17.73083305   90.91210175    1.13000000    2.76999998
   17.73416710   94.22869873    1.13000000    2.76999998
   17.73722267   94.53759766    1.14999998    2.76999998
   17.74055672   95.38159943    1.14999998    2.76999998
   17.74666786   95.38159943    1.16999996    2.76999998
   17.75083351   93.30619812    1.16999996    2.76999998
   17.75388908  100.25299835    1.23000002    2.76999998
   17.75722313   96.47720337    1.16999996    2.76999998
   17.76055527  101.48899841    1.19000006    2.76999998
   17.76361084   97.81400299    1.23000002    2.76999998
   17.76694489   96.32779694    1.19000006    2.76999998
   17.77000046   94.55940247    1.21000004    2.76999998
   17.77333260   91.87660217    1.23000002    2.76999998
   17.77666664   91.03569794    1.26999998    2.75000000
   17.77916718   89.76249695    1.25000000    2.76999998
   17.78027725   97.44580078    1.25000000    2.75000000
   17.78361130   93.87899780    1.25000000    2.75000000
   17.78944397   93.87899780    1.28999996    2.75000000
   17.79361153   95.10350037    1.26999998    2.75000000
   17.79694366   91.61450195    1.28999996    2.75000000
   17.79999924   92.95929718    1.33000004    2.76999998
   17.80333328   87.69210052    1.28999996    2.75000000
   17.80638885   93.00900269    1.28999996    2.75000000
   17.80972099   93.62319946    1.26999998    2.76999998
   17.81277657   90.66280365    1.26999998    2.75000000
   17.81333351  100.93399811    1.25000000    2.75000000
   17.81666756   98.92710114    1.25000000    2.76999998
   17.81972313   96.90110016    1.26999998    2.75000000
   17.82305717   90.52870178    1.28999996    2.75000000
   17.82638931   98.57460022    1.23000002    2.76999998
   17.83222389   98.57460022    1.21000004    2.75000000
   17.83638954   98.11029816    1.21000004    2.76999998
   17.83972359   99.66089630    1.21000004    2.76999998
   17.84277916   93.87059784    1.21000004    2.76999998
   17.84611130   86.80740356    1.23000002    2.76999998
   17.84638977   95.07189941    1.21000004    2.76999998
   17.84972191   97.87629700    1.25000000    2.75000000
   17.85305595   92.75489807    1.23000002    2.75000000
   17.85611153   99.56340027    1.25000000    2.75000000
   17.85944557   88.33799744    1.25000000    2.76999998
   17.86250114   99.94110107    1.25000000    2.75000000
   17.86583328   94.49810028    1.25000000    2.75000000
   17.86916733   90.56629944    1.23000002    2.75000000
   17.87527847   90.56629944    1.23000002    2.75000000
   17.87944412   92.40619659    1.23000002    2.75000000
   17.87972260   96.31069946    1.23000002    2.75000000
   17.88305473   88.89630127    1.23000002    2.75000000
   17.88611031   90.98729706    1.23000002    2.75000000
   17.88944435   86.99579620    1.25000000    2.76999998
   17.89277840   92.09750366    1.25000000    2.76999998
   17.89583397   95.74770355    1.25000000    2.75000000
   17.89916611   88.33020020    1.25000000    2.75000000
   17.90250015   91.74690247    1.26999998    2.76999998
   17.90555573   97.87660217    1.25000000    2.75000000
   17.90888786   87.00710297    1.26999998    2.75000000
   17.91194344   94.40750122    1.28999996    2.75000000
   17.91277695   93.36660004    1.28999996    2.75000000
   17.91805458   93.36660004    1.21000004    2.76999998
   17.92222214   91.09580231    1.21000004    2.75000000
   17.92527771   92.57250214    1.26999998    2.76999998
   17.92860985   98.73229980    1.21000004    2.75000000
   17.93194389   93.60040283    1.21000004    2.75000000
   17.93499947   99.90670013    1.21000004    2.75000000
   17.93833160   93.55370331    1.23000002    2.75000000
   17.94138718   93.16799927    1.21000004    2.76999998
   17.94472122   92.47519684    1.19000006    2.75000000
   17.94610977   97.35610199    1.19000006    2.75000000
   17.94833183   96.31179810    1.21000004    2.76999998
   17.95166779   98.46569824    1.19000006    2.76999998
   17.95499992  103.27600098    1.21000004    2.75000000
   17.96083450  103.27600098    1.21000004    2.76999998
   17.96500015   92.26280212    1.26999998    2.75000000
   17.96833420   88.14869690    1.23000002    2.75000000
   17.97138977   89.83280182    1.25000000    2.76999998
   17.97472191   90.81320190    1.23000002    2.75000000
   17.97777748   89.64409637    1.23000002    2.75000000
   17.97944450   93.16100311    1.23000002    2.75000000
   17.98139000   93.12819672    1.25000000    2.76999998
   17.98472214   89.54340363    1.23000002    2.75000000
   17.98805618   94.22370148    1.23000002    2.75000000
   17.99111176   85.91359711    1.23000002    2.75000000
   17.99444389   96.57330322    1.23000002    2.75000000
   17.99749947   87.16750336    1.25000000    2.75000000
   18.00361061   87.16750336    1.25000000    2.75000000
   18.00777817   88.57900238    1.25000000    2.76999998
   18.01111031   94.08380127    1.25000000    2.75000000
   18.01277733   90.50029755    1.28999996    2.75000000
   18.01472282   90.99430084    1.30999994    2.75000000
   18.01805496   96.06250000    1.25000000    2.75000000
   18.02138901   98.35549927    1.25000000    2.75000000
   18.02444458   92.05960083    1.25000000    2.75000000
   18.02777672  102.06199646    1.26999998    2.75000000
   18.03111076   92.36620331    1.25000000    2.76999998
   18.03416634   92.49810028    1.25000000    2.75000000
   18.03750038   90.11840057    1.25000000    2.75000000
   18.04055595   88.92030334    1.26999998    2.75000000
   18.04666710   88.92030334    1.26999998    2.76999998
   18.05055428   97.25479889    1.25000000    2.75000000
   18.05388832   90.05319977    1.23000002    2.76999998
   18.05722237   90.22139740    1.23000002    2.75000000
   18.06027794   89.01640320    1.33000004    2.76999998
   18.06361008   92.05989838    1.28999996    2.75000000
   18.06694603   97.50250244    1.25000000    2.75000000
   18.07000160   91.87580109    1.28999996    2.75000000
   18.07333374   89.94380188    1.26999998    2.75000000
   18.07638931   89.34190369    1.25000000    2.75000000
   18.07944489   91.01940155    1.25000000    2.75000000
   18.08000183   91.39579773    1.25000000    2.75000000
   18.08333397   87.12220001    1.25000000    2.75000000
   18.08944511   87.12220001    1.23000002    2.75000000
   18.09361267   92.44930267    1.23000002    2.75000000
   18.09666824   82.09799957    1.21000004    2.75000000
   18.10000038   93.78170013    1.21000004    2.75000000
   18.10333443   85.61090088    1.21000004    2.76999998
   18.10639000   95.63999939    1.21000004    2.75000000
   18.10972214   92.92549896    1.25000000    2.75000000
   18.11277771   86.26509857    1.21000004    2.75000000
   18.11333466   94.05339813    1.21000004    2.75000000
   18.11666679   91.34279633    1.21000004    2.75000000
   18.11972237   97.13639832    1.26999998    2.75000000
   18.12305641   91.09770203    1.25000000    2.75000000
   18.12638855   90.23590088    1.21000004    2.75000000
   18.13222313   90.23590088    1.23000002    2.75000000
   18.13638878   97.17800140    1.23000002    2.75000000
   18.13944435   97.18869781    1.21000004    2.75000000
   18.14277840   93.57340240    1.21000004    2.75000000
   18.14611053   89.41819763    1.23000002    2.75000000
   18.14638901   91.72750092    1.23000002    2.75000000
   18.14972115   96.31649780    1.23000002    2.75000000
   18.15277672  100.27300262    1.23000002    2.75000000
   18.15611076   97.10780334    1.25000000    2.75000000
   18.15944481   91.13950348    1.25000000    2.75000000
   18.16250038   92.78990173    1.25000000    2.75000000
   18.16583252   88.69190216    1.30999994    2.75000000
   18.16916656   84.60240173    1.39999998    2.75000000
   18.17499924   84.60240173    1.33000004    2.75000000
   18.17916679   84.52290344    1.34000003    2.75000000
   18.17972183   86.67030334    1.34000003    2.75000000
   18.18305397   89.53379822    1.28999996    2.75000000
   18.18610954   95.61679840    1.28999996    2.75000000
   18.18944359   91.54199982    1.25000000    2.75000000
   18.19277763   96.40160370    1.25000000    2.75000000
   18.19583321   88.58550262    1.26999998    2.75000000
   18.19916534   86.45169830    1.28999996    2.75000000
   18.20250130   93.10019684    1.26999998    2.75000000
   18.20555687   90.63050079    1.26999998    2.75000000
   18.20888901   94.32820129    1.25000000    2.75000000
   18.21222305   93.54779816    1.26999998    2.75000000
   18.21305656   85.10729980    1.28999996    2.75000000
   18.21777916   85.10729980    1.28999996    2.75000000
   18.22194481   89.41040039    1.33000004    2.75000000
   18.22527885   93.76409912    1.28999996    2.75000000
   18.22861099   88.62310028    1.30999994    2.75000000
   18.23166656   89.20580292    1.33000004    2.75000000
   18.23500061   89.95490265    1.30999994    2.75000000
   18.23833275   89.05740356    1.30999994    2.75000000
   18.24138832   84.47630310    1.30999994    2.75000000
   18.24472237   86.19180298    1.28999996    2.75000000
   18.24638939   88.29090118    1.28999996    2.75000000
   18.24833298   95.79499817    1.28999996    2.75000000
   18.25138855   89.83419800    1.28999996    2.75000000
   18.25472260   88.72409821    1.28999996    2.75000000
   18.26083374   88.72409821    1.28999996    2.75000000
   18.26499939   89.38800049    1.28999996    2.75000000
   18.26805496   93.09929657    1.25000000    2.75000000
   18.27138901   87.87770081    1.25000000    2.75000000
   18.27472115   91.36990356    1.28999996    2.75000000
   18.27777672   92.75720215    1.25000000    2.75000000
   18.27972221   93.28540039    1.28999996    2.75000000
   18.28166580   95.14309692    1.25000000    2.75000000
   18.28472137   93.37010193    1.25000000    2.75000000
   18.28805542   96.43569946    1.25000000    2.75000000
   18.29138756   91.52940369    1.25000000    2.75000000
   18.29444313   90.75070190    1.25000000    2.75000000
   18.29777718   87.43309784    1.25000000    2.75000000
   18.30360985   87.43309784    1.25000000    2.75000000
   18.30777740   90.76100159    1.30999994    2.75000000
   18.31110954   90.14230347    1.26999998    2.75000000
   18.31305504   95.03260040    1.25000000    2.75000000
   18.31472206   90.50990295    1.26999998    2.75000000
   18.31777954   97.40740204    1.25000000    2.75000000
   18.32111168   93.78040314    1.26999998    2.75000000
   18.32444572   94.56040192    1.25000000    2.75000000
   18.32750130   90.56529999    1.25000000    2.75000000
   18.33083344   91.77279663    1.23000002    2.75000000
   18.33416748   85.89910126    1.23000002    2.75000000
   18.33722305   91.64469910    1.23000002    2.75000000
   18.34055710   88.88110352    1.21000004    2.75000000
   18.34638977   88.88110352    1.21000004    2.75000000
   18.35055542   93.26419830    1.23000002    2.75000000
   18.35388947   86.36620331    1.26999998    2.75000000
   18.35694504   95.98370361    1.25000000    2.75000000
   18.36027908   98.65260315    1.23000002    2.75000000
   18.36361122   97.07299805    1.23000002    2.75000000
   18.36666679   96.30570221    1.23000002    2.75000000
   18.37000084   95.26399994    1.25000000    2.75000000
   18.37305641  100.22100067    1.23000002    2.75000000
   18.37638855   94.05919647    1.25000000    2.75000000
   18.37972260   96.03690338    1.25000000    2.75000000
   18.38027763   95.07009888    1.25000000    2.75000000
   18.38333321   95.83280182    1.26999998    2.75000000
   18.38916588   95.83280182    1.25000000    2.75000000
   18.39333344   96.95169830    1.23000002    2.75000000
   18.39666748   94.72160339    1.23000002    2.75000000
   18.39972115  105.55599976    1.25000000    2.75000000
   18.40305519  106.87300110    1.23000002    2.75000000
   18.40638924   99.16300201    1.23000002    2.73000002
   18.40944481  102.66300201    1.23000002    2.75000000
   18.41277695   89.13790131    1.23000002    2.73000002
   18.41361046   91.24179840    1.23000002    2.73000002
   18.41638756   85.90930176    1.21000004    2.75000000
   18.41972160  104.16600037    1.21000004    2.73000002
   18.42277718  101.90100098    1.21000004    2.75000000
   18.42611122   90.06449890    1.21000004    2.75000000
   18.43222237   90.06449890    1.21000004    2.75000000
   18.43638802   94.00640106    1.19000006    2.75000000
   18.43944359   98.90170288    1.25000000    2.75000000
   18.44277763   91.36540222    1.21000004    2.75000000
   18.44583321   89.89769745    1.21000004    2.75000000
   18.44694328   97.97799683    1.21000004    2.75000000
   18.44944382   96.72019958    1.19000006    2.75000000
   18.45277786   96.13970184    1.23000002    2.75000000
   18.45583344   91.62860107    1.23000002    2.75000000
   18.45916748   94.01339722    1.26999998    2.75000000
   18.46250153   89.81089783    1.25000000    2.75000000
   18.46555710   88.05290222    1.28999996    2.73000002
   18.46888924   89.78109741    1.28999996    2.75000000
   18.47500038   89.78109741    1.30999994    2.73000002
   18.47916794   91.42459869    1.30999994    2.73000002
   18.48027802   90.46549988    1.30999994    2.75000000
   18.48277855   91.08300018    1.30999994    2.75000000
   18.48611069   88.22370148    1.28999996    2.75000000
   18.48916626   96.53459930    1.28999996    2.75000000
   18.49250031   93.02480316    1.30999994    2.73000002
   18.49583435   95.57230377    1.33000004    2.73000002
   18.49888992   96.31900024    1.33000004    2.73000002
   18.50222206   88.79039764    1.33000004    2.73000002
   18.50555611   90.52739716    1.33000004    2.73000002
   18.50861168   97.87879944    1.36000001    2.75000000
   18.51194382   94.65850067    1.34000003    2.73000002
   18.51361084   94.09030151    1.33000004    2.73000002
   18.51777840   94.09030151    1.33000004    2.73000002
   18.52194405   88.23560333    1.38000000    2.75000000
   18.52527809  100.66799927    1.38000000    2.75000000
   18.52833366   98.18440247    1.36000001    2.75000000
   18.53166580   95.38929749    1.38000000    2.75000000
   18.53472137   86.50890350    1.34000003    2.73000002
   18.53805542   95.45520020    1.36000001    2.73000002
   18.54138756  101.81700134    1.34000003    2.73000002
   18.54444313   97.02320099    1.34000003    2.73000002
   18.54694366   98.16380310    1.36000001    2.73000002
   18.54805565   99.09819794    1.33000004    2.73000002
   18.55138779  101.02600098    1.33000004    2.73000002
   18.55444336   98.72049713    1.33000004    2.73000002
   18.56055450   98.72049713    1.36000001    2.75000000
   18.56472206   95.51809692    1.30999994    2.73000002
   18.56805611   91.16639709    1.28999996    2.73000002
   18.57111168   93.36340332    1.28999996    2.73000002
   18.57444572   94.50219727    1.28999996    2.75000000
   18.57777786   92.35959625    1.30999994    2.73000002
   18.58027840  100.32299805    1.28999996    2.73000002
   18.58139038   93.58920288    1.28999996    2.73000002
   18.58472252   96.39399719    1.28999996    2.73000002
   18.58777809  100.64700317    1.28999996    2.75000000
   18.59111214   98.11049652    1.30999994    2.75000000
   18.59444427   96.94229889    1.28999996    2.75000000
   18.59749985   90.37740326    1.34000003    2.75000000
   18.60361099   90.37740326    1.33000004    2.73000002
   18.60750008   96.10880280    1.33000004    2.73000002
   18.61083412   85.14669800    1.34000003    2.73000002
   18.61361122   96.33820343    1.34000003    2.73000002
   18.61444473   90.06369781    1.34000003    2.73000002
   18.61777878   92.42240143    1.34000003    2.73000002
   18.62083435   96.53559875    1.36000001    2.73000002
   18.62416649   93.76390076    1.36000001    2.73000002
   18.62750053   92.42220306    1.36000001    2.73000002
   18.63055611  100.75000000    1.38000000    2.73000002
   18.63388824   90.21299744    1.41999996    2.73000002
   18.63722229   91.10669708    1.38000000    2.73000002
   18.64027786   92.94139862    1.39999998    2.73000002
   18.64638901   92.94139862    1.39999998    2.73000002
   18.66472244   87.84310150    1.41999996    2.73000002
   18.66805458   93.73519897    1.41999996    2.73000002
   18.67111015   90.48059845    1.41999996    2.73000002
   18.67444420   94.37539673    1.41999996    2.73000002
   18.67777634   91.87280273    1.44000006    2.73000002
   18.68083191   93.70279694    1.46000004    2.73000002
   18.68416595   85.62719727    1.39999998    2.73000002
   18.68944359   85.62719727    1.46000004    2.73000002
   18.69361115   93.11319733    1.39999998    2.71000004
   18.69666672   88.83090210    1.44000006    2.73000002
   18.69777679   94.59580231    1.41999996    2.71000004
   18.70055580   87.84020233    1.39999998    2.73000002
   18.70361137   93.57589722    1.38000000    2.71000004
   18.70694542   96.47360229    1.38000000    2.71000004
   18.71027946   96.19560242    1.39999998    2.73000002
   18.71333504  100.32700348    1.39999998    2.73000002
   18.71666718   90.90899658    1.38000000    2.73000002
   18.72000122   95.29129791    1.38000000    2.71000004
   18.72305679   97.51860046    1.39999998    2.73000002
   18.72638893   93.05580139    1.38000000    2.71000004
   18.73222351   93.05580139    1.38000000    2.73000002
   18.73638916   88.09750366    1.39999998    2.73000002
   18.73972321   94.16349792    1.39999998    2.71000004
   18.74277878   94.16609955    1.38000000    2.73000002
   18.74611092   92.00309753    1.41999996    2.73000002
   18.74944496   93.60320282    1.39999998    2.73000002
   18.75250053   89.13659668    1.39999998    2.71000004
   18.75583267   92.44329834    1.39999998    2.71000004
   18.75888824   93.26409912    1.38000000    2.71000004
   18.76222229   88.91970062    1.38000000    2.73000002
   18.76444435   91.82910156    1.36000001    2.73000002
   18.76583290   92.33570099    1.38000000    2.73000002
   18.76888847   84.93209839    1.38000000    2.71000004
   18.77527809   84.93209839    1.39999998    2.73000002
   18.77916718   95.01760101    1.38000000    2.71000004
   18.78249931   93.94090271    1.38000000    2.73000002
   18.78583336   94.92600250    1.41999996    2.73000002
   18.78888893  101.20600128    1.39999998    2.71000004
   18.79222107  100.31900024    1.39999998    2.73000002
   18.79527664   93.79779816    1.41999996    2.71000004
   18.79777718   99.58570099    1.44000006    2.71000004
   18.79916573   92.29669952    1.44000006    2.71000004
   18.80222130  103.49099731    1.41999996    2.73000002
   18.80555534   92.25990295    1.41999996    2.71000004
   18.80888748   95.64659882    1.41999996    2.73000002
   18.81194305   89.39109802    1.41999996    2.71000004
   18.81805611   89.39109802    1.41999996    2.71000004
   18.82222366   92.76650238    1.44000006    2.71000004
   18.82527924   89.01059723    1.48000002    2.73000002
   18.82861137   88.33730316    1.50000000    2.71000004
   18.83111191   92.37899780    1.51999998    2.71000004
   18.83222389   84.69879913    1.51999998    2.71000004
   18.83527756   93.91660309    1.53999996    2.71000004
   18.83861160   88.29540253    1.51999998    2.71000004
   18.84194565   86.45659637    1.51999998    2.71000004
   18.84500122   85.94670105    1.53999996    2.71000004
   18.84833336   89.88749695    1.58000004    2.71000004
   18.85138893   91.58249664    1.58000004    2.71000004
   18.85472298   85.22869873    1.61000001    2.71000004
   18.86083412   85.22869873    1.61000001    2.71000004
   18.86499977   92.16269684    1.60000002    2.71000004
   18.86805534   90.66560364    1.60000002    2.71000004
   18.87138939   92.79470062    1.58000004    2.71000004
   18.87472153   90.09929657    1.61000001    2.71000004
   18.87777710   94.22219849    1.55999994    2.71000004
   18.88111115   94.86250305    1.58000004    2.71000004
   18.88444519   96.98439789    1.58000004    2.71000004
   18.88750076   96.27349854    1.55999994    2.71000004
   18.89083290   94.33010101    1.55999994    2.71000004
   18.89388847   89.21410370    1.53999996    2.71000004
   18.89722252   94.73680115    1.51999998    2.71000004
   18.89777756   98.70570374    1.51999998    2.71000004
   18.90361023   98.70570374    1.51999998    2.71000004
   18.90777779   92.00050354    1.55999994    2.71000004
   18.91110992   89.18190002    1.50000000    2.71000004
   18.91416550   87.01349640    1.50000000    2.71000004
   18.91749954   89.31990051    1.48000002    2.71000004
   18.92083359   87.14569855    1.48000002    2.71000004
   18.92388916   92.82669830    1.46000004    2.71000004
   18.92722130   92.49739838    1.50000000    2.71000004
   18.93027687   94.04750061    1.48000002    2.71000004
   18.93111038   82.79810333    1.48000002    2.71000004
   18.93416595   89.06040192    1.48000002    2.71000004
   18.93722153   90.05000305    1.46000004    2.71000004
   18.94055557   89.82710266    1.44000006    2.71000004
   18.94638824   89.82710266    1.44000006    2.71000004
   18.95055580   87.61689758    1.48000002    2.71000004
   18.95388985   84.11209869    1.50000000    2.71000004
   18.95722389   87.45739746    1.55999994    2.71000004
   18.96027946   87.73300171    1.55999994    2.71000004
   18.96361160   93.02539825    1.51999998    2.69000006
   18.96444511   89.78309631    1.51999998    2.71000004
   18.96722221   90.63069916    1.60000002    2.71000004
   18.97027779   93.22589874    1.51999998    2.69000006
   18.97361183   93.48780060    1.58000004    2.69000006
   18.97694588   90.62650299    1.53999996    2.71000004
   18.98000145   83.61949921    1.53999996    2.71000004
   18.98333359   84.55470276    1.53999996    2.71000004
   18.98944473   84.55470276    1.58000004    2.69000006
   18.99361229  104.10299683    1.55999994    2.71000004
   18.99666786   93.70349884    1.55999994    2.69000006
   18.99777794   88.44650269    1.55999994    2.69000006
   19.00027847   89.23480225    1.58000004    2.69000006
   19.00333405   95.04640198    1.55999994    2.71000004
   19.00666618   87.76129913    1.55999994    2.71000004
   19.01000023   94.62590027    1.55999994    2.71000004
   19.01305580   96.84909821    1.55999994    2.71000004
   19.01638794   94.84069824    1.53999996    2.71000004
   19.01972198   87.29489899    1.53999996    2.71000004
   19.02277756   89.53790283    1.53999996    2.69000006
   19.02611160   91.34889984    1.55999994    2.69000006
   19.03222275   91.34889984    1.53999996    2.71000004
   19.03638840   91.79340363    1.51999998    2.69000006
   19.03944397   94.74060059    1.51999998    2.69000006
   19.04277802   97.19889832    1.58000004    2.69000006
   19.04611015   88.55719757    1.51999998    2.69000006
   19.04916573   97.20300293    1.51999998    2.69000006
   19.05249977   94.64730072    1.51999998    2.71000004
   19.05583191   93.92070007    1.58000004    2.71000004
   19.05888748   99.23239899    1.55999994    2.69000006
   19.06222153   90.34380341    1.53999996    2.69000006
   19.06444359   92.98149872    1.58000004    2.69000006
   19.06583214   88.77649689    1.55999994    2.69000006
   19.06888962   97.56870270    1.55999994    2.69000006
   19.07500076   97.56870270    1.53999996    2.71000004
   19.07916832   91.41480255    1.55999994    2.69000006
   19.08250046   93.09880066    1.55999994    2.69000006
   19.08555603   93.32769775    1.58000004    2.69000006
   19.08889008   89.81890106    1.58000004    2.69000006
   19.09222221   88.56109619    1.58000004    2.69000006
   19.09527779   90.92970276    1.58000004    2.69000006
   19.09777832   95.25260162    1.60000002    2.69000006
   19.09889030   91.28980255    1.63000000    2.69000006
   19.10194397   89.69249725    1.58000004    2.69000006
   19.10527802   85.95410156    1.60000002    2.69000006
   19.10861206  100.69300079    1.60000002    2.69000006
   19.11166763   99.04290009    1.61000001    2.69000006
   19.11805534   99.04290009    1.61000001    2.69000006
   19.12194443   90.63710022    1.61000001    2.69000006
   19.12527847   91.30560303    1.63000000    2.69000006
   19.12861061   88.80629730    1.66999996    2.67000008
   19.13111115   98.50019836    1.63000000    2.69000006
   19.13222313  100.38500214    1.63000000    2.69000006
   19.13527679   91.06050110    1.61000001    2.69000006
   19.13861084   96.75569916    1.69000006    2.69000006
   19.14194489   89.68779755    1.63000000    2.69000006
   19.14500046   94.59989929    1.63000000    2.69000006
   19.14833260   97.31839752    1.64999998    2.69000006
   19.15166664   97.57389832    1.64999998    2.67000008
   19.15472221   95.84919739    1.66999996    2.69000006
   19.16083336   95.84919739    1.63000000    2.69000006
   19.16499901   97.89129639    1.64999998    2.69000006
   19.16805458   92.78939819    1.64999998    2.67000008
   19.17138863   94.43229675    1.66999996    2.67000008
   19.17444420   97.33529663    1.63000000    2.69000006
   19.17777634   93.43129730    1.63000000    2.69000006
   19.18111038   97.57689667    1.63000000    2.69000006
   19.18416595   92.66380310    1.61000001    2.69000006
   19.18750000   95.02290344    1.63000000    2.67000008
   19.19083214  100.50599670    1.66999996    2.69000006
   19.19388771   98.02110291    1.69000006    2.69000006
   19.19722176   89.55370331    1.66999996    2.69000006
   19.19777679   89.56939697    1.66999996    2.69000006
   19.20361137   89.56939697    1.64999998    2.69000006
   19.20777893   88.85910034    1.64999998    2.69000006
   19.21083450   99.55120087    1.64999998    2.69000006
   19.21416664   94.99710083    1.64999998    2.69000006
   19.21750069   89.01519775    1.64999998    2.69000006
   19.22083473   94.90599823    1.63000000    2.69000006
   19.22389030   91.31510162    1.63000000    2.69000006
   19.22722244   92.47650146    1.63000000    2.69000006
   19.23027802   96.05829620    1.63000000    2.67000008
   19.23111153   92.98560333    1.63000000    2.69000006
   19.23416710   91.14430237    1.66999996    2.69000006
   19.23750114   95.34059906    1.63000000    2.69000006
   19.24055672   90.66909790    1.71000004    2.67000008
   19.24638939   90.66909790    1.73000002    2.69000006
   19.25055504  102.39499664    1.73000002    2.69000006
   19.25388908   90.65470123    1.71000004    2.69000006
   19.25694466   93.49729919    1.69000006    2.69000006
   19.26027870   93.56800079    1.71000004    2.69000006
   19.26361084   91.01899719    1.71000004    2.67000008
   19.26444435   95.76339722    1.69000006    2.67000008
   19.26722145   89.96980286    1.71000004    2.69000006
   19.27055550   93.24729919    1.71000004    2.69000006
   19.27361107   94.60379791    1.71000004    2.69000006
   19.27694511   98.35209656    1.71000004    2.69000006
   19.28000069   87.75170135    1.75000000    2.69000006
   19.28333282   95.49349976    1.73000002    2.69000006
   19.28916550   95.49349976    1.71000004    2.67000008
   19.29333305   86.10479736    1.71000004    2.67000008
   19.29666710   82.05390167    1.73000002    2.66000009
   19.29777718   89.49780273    1.73000002    2.66000009
   19.30027771   82.96640015    1.71000004    2.69000006
   19.30360985   91.07029724    1.73000002    2.67000008
   19.30666542   81.65709686    1.71000004    2.69000006
   19.30999947   88.41649628    1.69000006    2.69000006
   19.31305504   89.21900177    1.69000006    2.67000008
   19.31638718   94.51899719    1.66999996    2.67000008
   19.31972313   90.73650360    1.66999996    2.67000008
   19.32277870   91.24710083    1.64999998    2.67000008
   19.32611275   87.07969666    1.66999996    2.69000006
   19.33222389   87.07969666    1.64999998    2.67000008
   19.33638954   87.70760345    1.64999998    2.67000008
   19.33944511   94.97789764    1.66999996    2.67000008
   19.34277916   89.94329834    1.66999996    2.67000008
   19.34583473   92.66680145    1.71000004    2.67000008
   19.34916687   95.97869873    1.69000006    2.67000008
   19.35250092  100.69400024    1.71000004    2.67000008
   19.35555649   92.67019653    1.69000006    2.67000008
   19.35888863   95.50599670    1.69000006    2.66000009
   19.36222267   97.52639771    1.69000006    2.67000008
   19.36444473   92.72380066    1.71000004    2.67000008
   19.36583328   93.60350037    1.71000004    2.67000008
   19.36916733   88.63590240    1.69000006    2.67000008
   19.37500000   88.63590240    1.69000006    2.67000008
   19.37916756   88.46640015    1.71000004    2.67000008
   19.38222313   96.10510254    1.71000004    2.67000008
   19.38555527   96.53829956    1.71000004    2.67000008
   19.38888931   93.55079651    1.71000004    2.67000008
   19.39194489   91.30460358    1.71000004    2.67000008
   19.39527702   89.28170013    1.73000002    2.67000008
   19.39777756   95.82029724    1.75000000    2.67000008
   19.39888954   92.55239868    1.75000000    2.67000008
   19.40222168   96.93759918    1.76999998    2.67000008
   19.40527725   96.31050110    1.76999998    2.66000009
   19.40861130   92.35109711    1.75000000    2.67000008
   19.41166687   87.01509857    1.76999998    2.67000008
   19.41777802   87.01509857    1.75000000    2.67000008
   19.42194366   96.11679840    1.75000000    2.66000009
   19.42527771   95.56580353    1.75000000    2.66000009
   19.42833328   90.19339752    1.76999998    2.67000008
   19.43111038   91.54029846    1.76999998    2.67000008
   19.43194389   93.31990051    1.76999998    2.66000009
   19.43527603   89.89320374    1.75000000    2.67000008
   19.43833160   91.70359802    1.75000000    2.67000008
   19.44166565   93.12169647    1.78999996    2.67000008
   19.44472122   97.20110321    1.76999998    2.67000008
   19.44805527   95.02660370    1.78999996    2.66000009
   19.45138931   97.34729767    1.76999998    2.66000009
   19.45444489   97.58609772    1.75000000    2.66000009
   19.46083450   97.58609772    1.75000000    2.67000008
   19.46472359   92.27960205    1.76999998    2.66000009
   19.46805573   96.26969910    1.75000000    2.66000009
   19.47138977   92.82150269    1.76999998    2.66000009
   19.47444534   89.99680328    1.75000000    2.66000009
   19.47777748   98.52909851    1.75000000    2.66000009
   19.48083305   94.33999634    1.76999998    2.67000008
   19.48416710   97.97000122    1.75000000    2.67000008
   19.48750114   94.33239746    1.73000002    2.66000009
   19.49055672   97.86039734    1.73000002    2.67000008
   19.49388885   94.74449921    1.73000002    2.66000009
   19.49722290   91.63520050    1.73000002    2.66000009
   19.49777794   93.29389954    1.73000002    2.66000009
   19.50361061   93.29389954    1.75000000    2.67000008
   19.50777817   90.58619690    1.76999998    2.66000009
   19.51083374  102.23699951    1.76999998    2.66000009
   19.51416588   99.01229858    1.75000000    2.66000009
   19.51722145   94.01789856    1.76999998    2.66000009
   19.52055550   91.73040009    1.75000000    2.66000009
   19.52388954   89.47209930    1.76999998    2.66000009
   19.52694511   91.48619843    1.80999994    2.66000009
   19.53027725   98.58190155    1.76999998    2.66000009
   19.53111076   89.70639801    1.76999998    2.66000009
   19.53388786   90.10479736    1.78999996    2.66000009
   19.53722191   90.64179993    1.78999996    2.66000009
   19.54027748   86.23509979    1.80999994    2.66000009
   19.54638863   86.23509979    1.80999994    2.67000008
   19.55055428   94.63549805    1.80999994    2.66000009
   19.55388832   95.62779999    1.83000004    2.66000009
   19.55694389   93.83730316    1.86000001    2.66000009
   19.56027794   97.09140015    1.86000001    2.66000009
   19.56333351   98.30639648    1.85000002    2.66000009
   19.56444359   95.47599792    1.85000002    2.66000009
   19.56694603   99.85900116    1.88000000    2.66000009
   19.57027817   95.08360291    1.86000001    2.64000010
   19.57333374   95.91970062    1.89999998    2.66000009
   19.57666779   93.97879791    1.91999996    2.66000009
   19.58000183   94.14679718    1.91999996    2.64000010
   19.58305550   96.15100098    1.91999996    2.66000009
   19.58916664   96.15100098    1.94000006    2.64000010
   19.59333420   94.71820068    1.94000006    2.64000010
   19.59666824   97.96829987    1.98000002    2.64000010
   19.59777832   93.10959625    1.94000006    2.66000009
   19.60027885   99.43910217    1.96000004    2.64000010
   19.60361099   98.60710144    1.96000004    2.64000010
   19.60666656  103.02799988    1.91999996    2.64000010
   19.61000061   99.57129669    1.94000006    2.64000010
   19.61333466   91.81009674    1.96000004    2.64000010
   19.61638832   97.24770355    1.96000004    2.64000010
   19.61972237   96.97669983    1.96000004    2.64000010
   19.62277794   94.82769775    1.96000004    2.64000010
   19.62611198  100.98100281    1.96000004    2.64000010
   19.63194466  100.98100281    2.00000000    2.64000010
   19.63611031   90.86109924    2.00000000    2.64000010
   19.63944435  101.72799683    2.00000000    2.64000010
   19.64277840   99.92749786    2.03999996    2.64000010
   19.64583397   97.07879639    2.05999994    2.64000010
   19.64916611  101.28299713    2.01999998    2.64000010
   19.65222168   93.20600128    2.05999994    2.64000010
   19.65555573   93.53569794    2.05999994    2.64000010
   19.65888786  105.16100311    2.07999992    2.64000010
   19.66194344   91.22190094    2.05999994    2.64000010
   19.66444397   93.08580017    2.05999994    2.61999989
   19.68527603   93.08580017    2.03999996    2.64000010
   19.68944359  101.77200317    2.03999996    2.64000010
   19.69249916   98.44100189    2.07999992    2.61999989
   19.69583321   97.58249664    2.07999992    2.61999989
   19.69805527   97.47380066    2.07999992    2.64000010
   19.69944382   96.15740204    2.07999992    2.64000010
   19.70277786   93.29779816    2.07999992    2.64000010
   19.70583344   89.02519989    2.05999994    2.61999989
   19.70916748   96.24990082    2.07999992    2.61999989
   19.71250153   99.37960052    2.05999994    2.61999989
   19.71555710   98.83840179    2.05999994    2.64000010
   19.71888924   94.73919678    2.07999992    2.64000010
   19.72222328   99.58450317    2.05999994    2.64000010
   19.72805595   99.58450317    2.07999992    2.61999989
   19.73222351   99.80619812    2.07999992    2.61999989
   19.73527718   92.60639954    2.05999994    2.64000010
   19.73861122   96.78780365    2.07999992    2.61999989
   19.74166679   90.61979675    2.07999992    2.64000010
   19.74500084   99.73719788    2.05999994    2.61999989
   19.74833298  100.69400024    2.05999994    2.64000010
   19.75138855   98.87550354    2.07999992    2.64000010
   19.75472260   97.72049713    2.05999994    2.61999989
   19.75805473   92.86319733    2.05999994    2.64000010
   19.76111031  100.09500122    2.05999994    2.61999989
   19.76444435   99.38860321    2.09999990    2.61999989
   19.76499939   97.72740173    2.09999990    2.61999989
   19.77083397   97.72740173    2.05999994    2.61999989
   19.77499962   93.10890198    2.05999994    2.61999989
   19.77805519   84.03309631    2.05999994    2.61999989
   19.78138924   94.57700348    2.05999994    2.61999989
   19.78472137   90.34130096    2.07999992    2.61999989
   19.78777695   96.03029633    2.05999994    2.61999989
   19.79111099   93.10859680    2.07999992    2.61999989
   19.79444313   91.74250031    2.07999992    2.61999989
   19.79749870   95.34600067    2.07999992    2.61999989
   19.79833221   97.16480255    2.07999992    2.61999989
   19.80111122   91.98470306    2.07999992    2.61999989
   19.80444336   95.77459717    2.07999992    2.59999990
   19.80777740   89.97910309    2.09999990    2.61999989
   19.81361008   89.97910309    2.09999990    2.61999989
   19.81777954  100.04399872    2.11999989    2.61999989
   19.82111168   88.73529816    2.11999989    2.59999990
   19.82416725   95.06900024    2.09999990    2.61999989
   19.82750130   97.81269836    2.09999990    2.61999989
   19.83055687   95.57199860    2.09999990    2.61999989
   19.83166695  101.34600067    2.09999990    2.61999989
   19.83416748   97.07790375    2.09999990    2.59999990
   19.83750153   94.33779907    2.11999989    2.64000010
   19.84083366   91.64710236    2.11999989    2.61999989
   19.84388924   97.50140381    2.11999989    2.61999989
   19.84722328  102.03800201    2.11999989    2.59999990
   19.85055542  104.58300018    2.11999989    2.59999990
   19.85639000  104.58300018    2.11999989    2.59999990
   19.86055565   95.05979919    2.11999989    2.59999990
   19.86388969  101.16999817    2.09999990    2.59999990
   19.86499977   97.75740051    2.11999989    2.59999990
   19.86722183  102.10800171    2.09999990    2.61999989
   19.87055588   96.98190308    2.11999989    2.61999989
   19.87388992   94.28639984    2.11999989    2.61999989
   19.87694550   98.67469788    2.11999989    2.61999989
   19.88027763   96.58049774    2.09999990    2.61999989
   19.88361168  101.84400177    2.09999990    2.59999990
   19.88666725   99.69309998    2.15000010    2.59999990
   19.88999939   96.75360107    2.09999990    2.61999989
   19.89305496  101.90899658    2.13000011    2.59999990
   19.89944458  101.90899658    2.09999990    2.61999989
   19.90333366   95.06179810    2.13000011    2.59999990
   19.90666580   90.36000061    2.13000011    2.59999990
   19.90999985  100.88600159    2.11999989    2.59999990
   19.91305542   95.88269806    2.09999990    2.59999990
   19.91638756   99.43849945    2.11999989    2.59999990
   19.91972160   92.97920227    2.11999989    2.59999990
   19.92277718   93.21720123    2.11999989    2.59999990
   19.92611122  102.31300354    2.11999989    2.59999990
   19.92916679  104.82499695    2.11999989    2.59999990
   19.93166542  102.25599670    2.11999989    2.61999989
   19.93277740  101.56099701    2.13000011    2.59999990
   19.93610954   93.70749664    2.11999989    2.59999990
   19.94222069   93.70749664    2.13000011    2.59999990
   19.94638824   98.93859863    2.13000011    2.59999990
   19.94944382   97.19539642    2.13000011    2.59999990
   19.95277786   97.69509888    2.13000011    2.59999990
   19.95611191  102.12500000    2.13000011    2.59999990
   19.95916748  102.30100250    2.15000010    2.59999990
   19.96250153  101.59999847    2.13000011    2.59999990
   19.96500015  101.60800171    2.17000008    2.59999990
   19.96583366   99.88189697    2.19000006    2.59999990
   19.96916771  104.65699768    2.15000010    2.59999990
   19.97249985  101.65100098    2.17000008    2.59999990
   19.97555542  104.03800201    2.13000011    2.59999990
   19.97888947  106.96700287    2.17000008    2.59999990
   19.98500061  106.96700287    2.13000011    2.59999990
   19.98916626   99.27189636    2.17000008    2.59999990
   19.99250031   92.75309753    2.17000008    2.59999990
   19.99555588   97.49490356    2.15000010    2.59999990
   19.99833298  101.09700012    2.15000010    2.57999992
   19.99916649   96.69129944    2.17000008    2.59999990
   20.00250053  102.46700287    2.15000010    2.59999990
   20.00583267   88.87860107    2.15000010    2.59999990
   20.00888824   99.63999939    2.15000010    2.57999992
   20.01222229  105.99400330    2.15000010    2.59999990
   20.01555634   86.08609772    2.15000010    2.57999992
   20.01861000  103.70899963    2.15000010    2.57999992
   20.02194405   95.76490021    2.19000006    2.59999990
   20.02777672   95.76490021    2.17000008    2.57999992
   20.03194427  105.93800354    2.17000008    2.57999992
   20.03527641  108.33999634    2.17000008    2.57999992
   20.03833199   98.70610046    2.17000008    2.57999992
   20.04166603  102.43199921    2.17000008    2.59999990
   20.04500008   85.45230103    2.17000008    2.59999990
   20.04805565  100.83000183    2.17000008    2.57999992
   20.05138779   95.17269897    2.17000008    2.55999994
   20.05472183   95.69660187    2.19000006    2.55999994
   20.05777740  103.38300323    2.21000004    2.57999992
   20.06110954  103.80400085    2.19000006    2.57999992
   20.06416512   88.95929718    2.21000004    2.57999992
   20.06499863   96.58550262    2.21000004    2.55999994
   20.07083511   96.58550262    2.21000004    2.59999990
   20.07472229   90.89730072    2.23000002    2.57999992
   20.07805634  100.90599823    2.25000000    2.57999992
   20.08139038   99.44640350    2.25000000    2.57999992
   20.08472252   93.66349792    2.26999998    2.57999992
   20.08777809   94.40869904    2.26999998    2.57999992
   20.09111214   98.51540375    2.26999998    2.57999992
   20.09416771   99.99199677    2.30999994    2.57999992
   20.09749985   92.29080200    2.28999996    2.55999994
   20.09833336   94.41079712    2.28999996    2.57999992
   20.10138893   94.52860260    2.28999996    2.55999994
   20.10444450   98.99060059    2.28999996    2.55999994
   20.10777855   96.67839813    2.30999994    2.57999992
   20.11361122   96.67839813    2.32999992    2.55999994
   20.11777878   95.83020020    2.34999990    2.55999994
   20.12083435  100.07900238    2.34999990    2.57999992
   20.12416649   96.40789795    2.34999990    2.55999994
   20.12750053   95.01210022    2.39000010    2.55999994
   20.13055611  103.38500214    2.40000010    2.55999994
   20.13166618  102.19100189    2.36999989    2.55999994
   20.13444519   98.14379883    2.39000010    2.55999994
   20.13750076   99.93049622    2.39000010    2.55999994
   20.14083290   97.41819763    2.40000010    2.55999994
   20.14388847   98.24089813    2.42000008    2.55999994
   20.14722252   94.67669678    2.42000008    2.55999994
   20.15055466  100.88300323    2.46000004    2.55999994
   20.15638924  100.88300323    2.46000004    2.53999996
   20.16055489   97.11540222    2.46000004    2.55999994
   20.16388893   95.53469849    2.48000002    2.55999994
   20.16499901   99.95500183    2.48000002    2.55999994
   20.16749954   90.30850220    2.50000000    2.55999994
   20.17055511   90.03919983    2.50000000    2.55999994
   20.17388916  100.20099640    2.48000002    2.55999994
   20.17694473   98.44519806    2.48000002    2.55999994
   20.18027687   98.36119843    2.51999998    2.55999994
   20.18361092   97.20349884    2.50000000    2.53999996
   20.18666649   96.78520203    2.50000000    2.55999994
   20.18999863   98.70069885    2.51999998    2.53999996
   20.19333267  100.42299652    2.50000000    2.55999994
   20.19916534  100.42299652    2.53999996    2.55999994
   20.20333481   92.10099792    2.53999996    2.53999996
   20.20666695   99.19660187    2.55999994    2.53999996
   20.20972252   93.35890198    2.57999992    2.53999996
   20.21305656   94.62629700    2.59999990    2.55999994
   20.21638870  103.07700348    2.61999989    2.55999994
   20.21944427   93.09790039    2.64000010    2.53999996
   20.22277832  100.30500031    2.67000008    2.53999996
   20.22611237   98.63860321    2.73000002    2.53999996
   20.22916794   97.58840179    2.75000000    2.53999996
   20.23166656  108.17600250    2.75000000    2.53999996
   20.23305511   97.50109863    2.78999996    2.53999996
   20.23611069   96.52169800    2.78999996    2.53999996
   20.24222183   96.52169800    2.78999996    2.51999998
   20.24611092  102.80200195    2.82999992    2.53999996
   20.24944496   97.58049774    2.80999994    2.53999996
   20.25277710   94.49520111    2.80999994    2.53999996
   20.25583267  100.04799652    2.78999996    2.51999998
   20.25916672   99.31420135    2.80999994    2.53999996
   20.26250076  104.66500092    2.76999998    2.51999998
   20.26499939   94.83049774    2.76999998    2.53999996
   20.26611137  101.29399872    2.78999996    2.51999998
   20.26916695  101.42700195    2.75000000    2.53999996
   20.27249908   92.53639984    2.76999998    2.51999998
   20.27555466   99.60359955    2.75000000    2.51999998
   20.27888870   97.28790283    2.73000002    2.53999996
   20.28499985   97.28790283    2.75000000    2.53999996
   20.28916550  100.33399963    2.75000000    2.51999998
   20.29222107   93.68199921    2.75000000    2.53999996
   20.29555511   90.35150146    2.76999998    2.51999998
   20.29833221   95.39399719    2.76999998    2.51999998
   20.29916573   95.35109711    2.76999998    2.51999998
   20.30222130   92.33820343    2.78999996    2.51999998
   20.30555534   93.04080200    2.78999996    2.51999998
   20.30861092  108.44200134    2.78999996    2.51999998
   20.31194305  101.25199890    2.78999996    2.51999998
   20.31527710   95.05580139    2.78999996    2.51999998
   20.31833458   97.28620148    2.80999994    2.51999998
   20.32166672  110.15399933    2.78999996    2.51999998
   20.32777786  110.15399933    2.78999996    2.51999998
   20.33194542   99.26589966    2.78999996    2.51999998
   20.33527756   97.44570160    2.76999998    2.51999998
   20.33833313   95.30670166    2.76999998    2.51999998
   20.34166718   97.23229980    2.75000000    2.51999998
   20.34500122  100.62699890    2.75000000    2.51999998
   20.34805679   78.08760071    2.75000000    2.51999998
   20.35138893   83.02989960    2.75000000    2.51999998
   20.35444450   89.42050171    2.75000000    2.51999998
   20.35777855   89.08110046    2.76999998    2.51999998
   20.36111069  108.84100342    2.76999998    2.50000000
   20.36416626  104.51799774    2.78999996    2.50000000
   20.36499977  110.05300140    2.78999996    2.50000000
   20.37055588  110.05300140    2.84999990    2.50000000
   20.37472153  110.61299896    2.82999992    2.50000000
   20.37805557   -1.00000000    2.82999992    2.50000000
   20.38111115   -1.00000000    2.80999994    2.51999998
   20.38444519   -1.00000000    2.82999992    2.50000000
   20.38777733   -1.00000000    2.82999992    2.50000000
   20.39083290   -1.00000000    2.84999990    2.50000000
   20.39416695   -1.00000000    2.86999989    2.51999998
   20.39749908   -1.00000000    2.86999989    2.50000000
   20.40083313   -1.00000000    2.89000010    2.51999998
   20.40416718   -1.00000000    2.91000009    2.50000000
   20.40749931   -1.00000000    2.91000009    2.50000000
   20.41749954   -1.00000000    2.98000002    2.50000000
   20.42083359   -1.00000000    2.94000006    2.50000000
   20.42388916   -1.00000000    2.96000004    2.50000000
   20.42722130   -1.00000000    3.00000000    2.50000000
   20.43055534   -1.00000000    2.96000004    2.50000000
   20.43388748   -1.00000000    2.94000006    2.48000002
   20.43722153   -1.00000000    2.94000006    2.50000000
   20.44055557   -1.00000000    2.93000007    2.50000000
   20.44361115   -1.00000000    2.94000006    2.48000002
   20.44694328   -1.00000000    2.94000006    2.50000000
   20.45027924   -1.00000000    2.93000007    2.50000000
   20.46027946   -1.00000000    2.89000010    2.50000000
   20.46361160   -1.00000000    2.89000010    2.48000002
   20.46694565   -1.00000000    2.86999989    2.50000000
   20.47027779   -1.00000000    2.89000010    2.48000002
   20.47361183   -1.00000000    2.89000010    2.48000002
   20.47666740   -1.00000000    2.86999989    2.48000002
   20.48000145   -1.00000000    2.86999989    2.48000002
   20.48333359   -1.00000000    2.84999990    2.48000002
   20.48638916   -1.00000000    2.86999989    2.48000002
   20.48972321   -1.00000000    2.86999989    2.48000002
   20.49277878   -1.00000000    2.86999989    2.48000002
   20.50333405   -1.00000000    2.91000009    2.48000002
   20.50638962   -1.00000000    2.91000009    2.48000002
   20.50972176   -1.00000000    2.91000009    2.48000002
   20.51305580   -1.00000000    2.91000009    2.48000002
   20.51611137   -1.00000000    2.93000007    2.48000002
   20.51944351   -1.00000000    2.93000007    2.48000002
   20.52249908   -1.00000000    2.93000007    2.46000004
   20.52583313   -1.00000000    2.94000006    2.48000002
   20.52916718   -1.00000000    2.94000006    2.46000004
   20.53249931   -1.00000000    2.94000006    2.46000004
   20.53583336   -1.00000000    2.94000006    2.48000002
   20.54611015   -1.00000000    2.94000006    2.46000004
   20.54944420   -1.00000000    2.96000004    2.46000004
   20.55249977   -1.00000000    2.96000004    2.46000004
   20.55583191   -1.00000000    2.98000002    2.46000004
   20.55888748   -1.00000000    2.98000002    2.46000004
   20.56222153   -1.00000000    2.98000002    2.46000004
   20.56555557   -1.00000000    2.98000002    2.46000004
   20.56888962   -1.00000000    3.00000000    2.46000004
   20.57222366   -1.00000000    3.01999998    2.46000004
   20.57527924   -1.00000000    3.01999998    2.46000004
   20.57861137   -1.00000000    3.01999998    2.46000004
   20.58889008   -1.00000000    3.03999996    2.46000004
   20.59222221   -1.00000000    3.03999996    2.46000004
   20.59527779   -1.00000000    3.03999996    2.46000004
   20.59889030   -1.00000000    3.05999994    2.44000006
   20.60222244   -1.00000000    3.07999992    2.46000004
   20.60555649   -1.00000000    3.07999992    2.44000006
   20.60861206   -1.00000000    3.09999990    2.44000006
   20.61194420   -1.00000000    3.09999990    2.44000006
   20.61527824   -1.00000000    3.09999990    2.46000004
   20.61833382   -1.00000000    3.09999990    2.44000006
   20.62166595   -1.00000000    3.09999990    2.46000004
   20.63166618   -1.00000000    3.09999990    2.44000006
   20.63500023   -1.00000000    3.09999990    2.44000006
   20.63833237   -1.00000000    3.11999989    2.44000006
   20.64138794   -1.00000000    3.11999989    2.44000006
   20.64472198   -1.00000000    3.14000010    2.44000006
   20.64777756   -1.00000000    3.16000009    2.44000006
   20.65111160   -1.00000000    3.23000002    2.44000006
   20.65444374   -1.00000000    3.16000009    2.44000006
   20.65749931   -1.00000000    3.26999998    2.44000006
   20.66083336   -1.00000000    3.23000002    2.42000008
   20.66416550   -1.00000000    3.21000004    2.42000008
   20.67472076   -1.00000000    3.25000000    2.42000008
   20.67777634   -1.00000000    3.21000004    2.44000006
   20.68111038   -1.00000000    3.21000004    2.42000008
   20.70083427   -1.00000000    3.26999998    2.42000008
   20.70416832   -1.00000000    3.26999998    2.42000008
