    HOUR (UT)   FLARE FACTOR    SKY TESTER    SUN TESTER
   11.23416710   -1.00000000   -1.00000000   -1.00000000
   11.25805569  192.44099426    1.07000005    1.66999996
   11.26138878  190.76699829    1.07000005    1.66999996
   11.26444435  199.33799744    1.05999994    1.69000006
   11.26777744   -1.00000000    1.05999994    1.69000006
   11.27083302   -1.00000000    1.05999994    1.69000006
   11.27416611   -1.00000000    1.05999994    1.69000006
   11.27833271   -1.00000000    1.05999994    1.71000004
   11.28249931   -1.00000000    1.05999994    1.71000004
   11.28555584   -1.00000000    1.03999996    1.71000004
   11.28888893   -1.00000000    1.03999996    1.71000004
   11.29222298   -1.00000000    1.03999996    1.71000004
   11.29555607   -1.00000000    1.03999996    1.73000002
   11.29888916  178.31100464    1.03999996    1.71000004
   11.30194473  154.24400330    1.03999996    1.73000002
   11.30527782  161.71899414    1.03999996    1.73000002
   11.30833340  166.99000549    1.01999998    1.73000002
   11.31166649  163.28700256    1.01999998    1.73000002
   11.31500053  140.13200378    1.01999998    1.75000000
   11.32111073  140.13200378    1.00000000    1.75000000
   11.32527733  144.74000549    1.01999998    1.76999998
   11.32861137  144.41400146    1.00000000    1.76999998
   11.33166695  147.26699829    1.01999998    1.76999998
   11.33500004  145.36000061    1.01999998    1.76999998
   11.33833313  164.89999390    1.01999998    1.78999996
   11.34166622  144.21699524    1.00000000    1.78999996
   11.34472179  139.43899536    1.00000000    1.78999996
   11.34805489  134.26300049    1.00000000    1.78999996
   11.35111141  129.26400757    1.00000000    1.78999996
   11.35444450  136.41000366    0.98000002    1.80999994
   11.35777855  133.66900635    0.98000002    1.80999994
   11.35833359  126.25700378    0.98000002    1.80999994
   11.36388969  126.25700378    0.98000002    1.80999994
   11.36805534  129.91099548    0.98000002    1.80999994
   11.37138939  131.50000000    0.95999998    1.80999994
   11.37472248  133.36099243    0.95999998    1.80999994
   11.37777805  134.91600037    0.95999998    1.83000004
   11.38111115  131.94299316    0.95999998    1.85000002
   11.38416672  118.52999878    0.95999998    1.83000004
   11.38749981  121.26999664    0.95999998    1.85000002
   11.39083290  124.52999878    0.95999998    1.85000002
   11.39166641  116.66799927    0.95999998    1.85000002
   11.39416695  122.56900024    0.95999998    1.85000002
   11.39750004  115.46900177    0.95999998    1.85000002
   11.40083313  112.47000122    0.94000000    1.85000002
   11.40694427  112.47000122    0.94000000    1.85000002
   11.41111088  108.07099915    0.94000000    1.86000001
   11.41416645  108.14399719    0.94000000    1.86000001
   11.41750050  112.53700256    0.95999998    1.86000001
   11.42055607  113.46499634    0.94000000    1.86000001
   11.42388916  123.09999847    0.94000000    1.86000001
   11.42500019  112.58499908    0.94000000    1.86000001
   11.42750072  124.57299805    0.94000000    1.88000000
   11.43083382  109.12999725    0.94000000    1.88000000
   11.43416691  104.79799652    0.94000000    1.88000000
   11.43722248  109.64399719    0.94000000    1.88000000
   11.44055557  113.68499756    0.92000002    1.88000000
   11.44361115  114.52600098    0.92000002    1.88000000
   11.44972229  114.52600098    0.92000002    1.88000000
   11.45388889  116.25499725    0.89999998    1.89999998
   11.45694447  113.67299652    0.89999998    1.89999998
   11.45833302  110.52700043    0.89999998    1.89999998
   11.46055508  117.85299683    0.88000000    1.89999998
   11.46388912  110.80100250    0.88000000    1.89999998
   11.46722221  109.44300079    0.89999998    1.91999996
   11.47027779  102.77799988    0.89999998    1.91999996
   11.47361088  104.91699982    0.88000000    1.91999996
   11.47666645  101.32399750    0.88000000    1.91999996
   11.47999954  113.45600128    0.89999998    1.91999996
   11.48333359  108.93900299    0.88000000    1.94000006
   11.48638916  105.99299622    0.88000000    1.94000006
   11.49250031  105.99299622    0.89999998    1.91999996
   11.49666691  115.58999634    0.88000000    1.96000004
   11.50000000  107.38500214    0.88000000    1.94000006
   11.50305557  103.89499664    0.88000000    1.94000006
   11.50638866  101.68800354    0.88000000    1.94000006
   11.50972176  100.25800323    0.86000001    1.96000004
   11.51277733  101.73600006    0.88000000    1.96000004
   11.51611137  101.43199921    0.88000000    1.96000004
   11.51944447  104.38099670    0.88000000    1.96000004
   11.52250004  108.89399719    0.88000000    1.96000004
   11.52499962  106.68199921    0.86000001    1.96000004
   11.52611065  110.78600311    0.86000001    1.98000002
   11.52944374  119.39499664    0.86000001    1.98000002
   11.53527832  119.39499664    0.86000001    1.98000002
   11.53944492   99.38279724    0.83999997    1.98000002
   11.54277802  100.01599884    0.83999997    1.98000002
   11.54611111   94.81230164    0.81999999    2.00000000
   11.54916668  100.95700073    0.81999999    2.00000000
   11.55249977  104.26999664    0.81999999    2.00000000
   11.55583382   98.97329712    0.81999999    2.00000000
   11.55833340   93.25650024    0.81999999    2.00000000
   11.55916691  100.14199829    0.81999999    2.00000000
   11.56250000   91.96559906    0.81999999    2.01999998
   11.56583309   93.63839722    0.81999999    2.00000000
   11.56888866  106.97200012    0.80000001    2.01999998
   11.57222176   95.66870117    0.80000001    2.01999998
   11.57833290   95.66870117    0.80000001    2.01999998
   11.58249950  103.70600128    0.79000002    2.01999998
   11.58555508   94.47689819    0.79000002    2.01999998
   11.58888817  100.01499939    0.79000002    2.01999998
   11.59166622   95.76429749    0.80000001    2.01999998
   11.59249973   99.81259918    0.79000002    2.01999998
   11.59583282  101.69100189    0.80000001    2.03999996
   11.59888840   95.18090057    0.79000002    2.03999996
   11.60222244   97.88749695    0.79000002    2.03999996
   11.60555553   91.04180145    0.79000002    2.03999996
   11.60861111   97.24019623    0.79000002    2.03999996
   11.61194515  109.87100220    0.79000002    2.03999996
   11.61527824  104.49099731    0.76999998    2.05999994
   11.62111092  104.49099731    0.79000002    2.05999994
   11.62527752   99.72589874    0.76999998    2.05999994
   11.62833309   98.70670319    0.76999998    2.05999994
   11.63166714   96.74919891    0.76999998    2.05999994
   11.63500023   99.77429962    0.76999998    2.05999994
   11.63805580   91.30509949    0.76999998    2.07999992
   11.64138889   96.75820160    0.76999998    2.07999992
   11.64444447  104.28700256    0.76999998    2.07999992
   11.64777756   98.23349762    0.76999998    2.07999992
   11.65111065   99.24369812    0.76999998    2.07999992
   11.65416622  106.41799927    0.76999998    2.07999992
   11.65749931   92.92030334    0.75000000    2.09999990
   11.65833282   99.48919678    0.75000000    2.09999990
   11.66388893   99.48919678    0.75000000    2.09999990
   11.66805553   95.91609955    0.76999998    2.07999992
   11.67138958   95.66429901    0.75000000    2.09999990
   11.67444515  107.94899750    0.75000000    2.09999990
   11.67777824   99.15550232    0.75000000    2.09999990
   11.68111134   94.57849884    0.76999998    2.09999990
   11.68416691   94.86319733    0.79000002    2.09999990
   11.68750000   94.44570160    0.80000001    2.09999990
   11.69083309   95.91539764    0.88000000    2.09999990
   11.69166660  100.55000305    0.94000000    2.11999989
   11.69416714  105.49500275    0.98000002    2.09999990
   11.69750023   96.02819824    1.11000001    2.11999989
   11.70083332   95.29540253    1.16999996    2.11999989
   11.70666695   95.29540253    1.28999996    2.11999989
   11.71083355   93.12889862    1.39999998    2.11999989
   11.71416664   94.26879883    1.48000002    2.11999989
   11.71722221   89.33419800    1.58000004    2.13000011
   11.72055531   89.26360321    1.60000002    2.13000011
   11.72388840   94.62460327    1.63000000    2.11999989
   11.72499943  102.24600220    1.63000000    2.11999989
   11.72722149  108.70700073    1.69000006    2.13000011
   11.73055553   92.55269623    1.66999996    2.13000011
   11.73388958   95.08319855    1.66999996    2.13000011
   11.73694515   90.63809967    1.66999996    2.13000011
   11.74027824   88.15519714    1.64999998    2.11999989
   11.74333382   97.62889862    1.61000001    2.13000011
   11.74972248   97.62889862    1.55999994    2.15000010
   11.75361156   95.26049805    1.53999996    2.13000011
   11.75694466   93.74949646    1.50000000    2.13000011
   11.75833321   93.24310303    1.61000001    2.13000011
   11.76055527   86.85959625    1.78999996    2.15000010
   11.76388931   97.89540100    1.89999998    2.13000011
   11.76722240   93.38040161    2.34999990    2.15000010
   11.77027798   93.58350372    2.76999998    2.15000010
   11.77361107   91.48549652    3.20000005    2.17000008
   11.77666664   91.84799957    3.61999989    2.17000008
   11.77999973   91.83699799    4.07999992    2.17000008
   11.78333378   96.25150299    4.53000021    2.17000008
   11.78638935   93.75029755    4.90999985    2.17000008
   11.79250050   93.75029755    4.90999985    2.19000006
   11.79666710   85.79889679    4.90999985    2.19000006
   11.79972267  100.39600372    4.90999985    2.19000006
   11.80305576   93.94860077    4.90999985    2.19000006
   11.80638885  103.00399780    4.90999985    2.15000010
   11.80944443  139.50100708    4.90999985    2.05999994
   11.81277752  153.70399475    4.90999985    2.00000000
   11.81583309  136.44400024    4.90999985    1.94000006
   11.81916618  124.91799927    4.90999985    1.91999996
   11.82250023  157.69200134    4.90999985    1.88000000
   11.82499981  186.79800415    4.90999985    1.85000002
   11.82583332  170.90199280    4.90999985    1.85000002
   11.82916641  202.67900085    4.90999985    1.83000004
   11.83527756  202.67900085    4.90999985    1.91999996
   11.83944416  133.64399719    4.90999985    1.96000004
   11.84277725  136.13099670    4.90999985    2.00000000
   11.84583282  155.67799377    4.90999985    2.01999998
   11.84916592  165.39300537    4.90999985    1.96000004
   11.85249996  210.24899292    4.90999985    1.88000000
   11.85555553  163.85800171    4.90999985    1.88000000
   11.85833359  254.22000122    4.90999985    1.88000000
   11.85916710  231.68200684    4.90999985    1.89999998
   11.86250019  177.41400146    4.90999985    1.88000000
   11.86583328  183.58999634    4.90999985    1.86000001
   11.86888885  164.05299377    4.90999985    1.85000002
   11.87222195  169.67700195    4.90999985    1.85000002
   11.87805557  169.67700195    4.90999985    1.91999996
   11.88222218   91.39839935    4.90999985    2.11999989
   11.88555527   86.07759857    4.90999985    2.23000002
   11.88861084   88.36049652    4.90999985    2.26999998
   11.89166641   83.97450256    4.90999985    2.26999998
   11.89222240   86.47440338    4.90999985    2.26999998
   11.89555550   90.82659912    4.90999985    2.26999998
   11.89888859   90.69049835    4.90999985    2.25000000
   11.90194416   88.51860046    4.90999985    2.25000000
   11.90527725   82.29219818    4.90999985    2.25000000
   11.90833282   85.14230347    4.84999990    2.25000000
   11.91166592   86.67739868    4.26999998    2.25000000
   11.91499996   88.35749817    3.57999992    2.25000000
   11.92111111   88.35749817    2.32999992    2.25000000
   11.92500019   86.47889709    1.71000004    2.25000000
   11.92833328   87.05460358    1.33000004    2.25000000
   11.93166733   89.12979889    0.94000000    2.25000000
   11.93472195   88.49189758    0.80000001    2.25000000
   11.93805599   88.95839691    0.75000000    2.25000000
   11.94138908   91.97319794    0.70999998    2.25000000
   11.94444466   89.58860016    0.70999998    2.25000000
   11.94777775   93.39119720    0.69000000    2.25000000
   11.95111084   85.90920258    0.70999998    2.25000000
   11.95416641   88.91940308    0.69000000    2.25000000
   11.95749950   89.85849762    0.69000000    2.25000000
   11.95833302   89.25959778    0.69000000    2.25000000
   11.96388912   89.25959778    0.69000000    2.26999998
   11.96805477   90.61990356    0.69000000    2.26999998
   11.97111034   88.87129974    0.69000000    2.26999998
   11.97444439   88.32080078    0.69000000    2.26999998
   11.97777748   87.95310211    0.69000000    2.26999998
   11.98083305   85.01090240    0.69000000    2.26999998
   11.98416710   87.12599945    0.67000002    2.28999996
   11.98722267   86.08059692    0.67000002    2.28999996
   11.99055576   83.81340027    0.67000002    2.28999996
   11.99166679   81.81469727    0.67000002    2.26999998
   11.99444485   81.70790100    0.67000002    2.28999996
   11.99750042   85.11519623    0.67000002    2.28999996
   12.00083351   87.12409973    0.67000002    2.28999996
   12.00666714   87.12409973    0.67000002    2.28999996
   12.01083374   88.88259888    0.67000002    2.28999996
   12.01416683   82.80780029    0.67000002    2.28999996
   12.01722240   91.89140320    0.67000002    2.28999996
   12.02055550   91.10820007    0.64999998    2.28999996
   12.02388859   88.91889954    0.67000002    2.28999996
   12.02499962   90.61530304    0.67000002    2.28999996
   12.02722168   90.15799713    0.67000002    2.28999996
   12.03055573   84.92279816    0.67000002    2.28999996
   12.03388977   91.90859985    0.64999998    2.30999994
   12.03694534   93.02330017    0.67000002    2.28999996
   12.04027843   92.74649811    0.67000002    2.28999996
   12.04361153   85.89769745    0.67000002    2.30999994
   12.04944515   85.89769745    0.64999998    2.28999996
   12.05361176   88.10009766    0.67000002    2.30999994
   12.05694485   82.81189728    0.64999998    2.30999994
   12.05833340   82.36830139    0.64999998    2.30999994
   12.06027794   86.94570160    0.64999998    2.30999994
   12.06361103   86.03739929    0.64999998    2.32999992
   12.06694412   88.98670197    0.64999998    2.30999994
   12.06999969   83.43679810    0.64999998    2.30999994
   12.07333374   88.07089996    0.64999998    2.30999994
   12.07666683   86.57830048    0.64999998    2.30999994
   12.07972240   95.11660004    0.64999998    2.30999994
   12.08305550   92.03420258    0.67000002    2.30999994
   12.08611107   82.00109863    0.67000002    2.30999994
   12.09249973   82.00109863    0.64999998    2.30999994
   12.09638882   82.96779633    0.67000002    2.32999992
   12.09972191   83.50469971    0.64999998    2.32999992
   12.10305595   87.55770111    0.64999998    2.32999992
   12.10611153   82.09549713    0.64999998    2.32999992
   12.10944462   84.34320068    0.64999998    2.32999992
   12.11277771   86.34020233    0.64999998    2.32999992
   12.11583328   82.61699677    0.64999998    2.32999992
   12.11916637   82.29109955    0.63000000    2.32999992
   12.12250042   86.15689850    0.63000000    2.32999992
   12.12500000   91.68720245    0.63000000    2.32999992
   12.12583351   88.98139954    0.63000000    2.32999992
   12.12916660   86.14700317    0.64999998    2.32999992
   12.13527775   86.14700317    0.63000000    2.32999992
   12.13944435   86.75530243    0.63000000    2.34999990
   12.14249992   84.52100372    0.63000000    2.34999990
   12.14583302   84.98030090    0.63000000    2.34999990
   12.14916611   83.33550262    0.63000000    2.34999990
   12.15222168   91.91979980    0.63000000    2.34999990
   12.15555477   89.59110260    0.63000000    2.34999990
   12.15833282   83.13140106    0.63000000    2.34999990
   12.15916634   86.41400146    0.63000000    2.34999990
   12.16222191   82.73380280    0.63000000    2.34999990
   12.16555500   90.25689697    0.63000000    2.34999990
   12.16861153   86.32610321    0.63000000    2.34999990
   12.17194462   88.28610229    0.63000000    2.36999989
   12.17805576   88.28610229    0.61000001    2.34999990
   12.18222237   85.28859711    0.63000000    2.34999990
   12.18555546   87.20480347    0.61000001    2.36999989
   12.18861103   86.31809998    0.61000001    2.36999989
   12.19166660   87.45339966    0.61000001    2.36999989
   12.19222260   92.74600220    0.61000001    2.34999990
   12.19555569   89.79630280    0.61000001    2.36999989
   12.19888878   93.87229919    0.61000001    2.36999989
   12.20194435   86.38490295    0.61000001    2.36999989
   12.20527744   84.71700287    0.61000001    2.36999989
   12.20861053   82.02670288    0.61000001    2.36999989
   12.21166611   88.50019836    0.61000001    2.36999989
   12.21500015   83.32489777    0.61000001    2.36999989
   12.22083282   83.32489777    0.61000001    2.39000010
   12.22499943   86.44429779    0.61000001    2.36999989
   12.22833252   85.88059998    0.58999997    2.36999989
   12.23138809   78.89540100    0.58999997    2.39000010
   12.23472214   81.66419983    0.58999997    2.36999989
   12.23805618   90.73719788    0.58999997    2.36999989
   12.24111176   84.07050323    0.61000001    2.39000010
   12.24444485   82.59269714    0.58999997    2.39000010
   12.24777794   85.01020050    0.58999997    2.39000010
   12.25083351   83.60800171    0.58999997    2.39000010
   12.25416660   81.58670044    0.58999997    2.39000010
   12.25749969   82.67299652    0.56999999    2.39000010
   12.25833321   83.60449982    0.56999999    2.39000010
   12.27888870   83.60449982    0.58999997    2.39000010
   12.28305531   84.86499786    0.56999999    2.40000010
   12.28638935   87.16059875    0.56999999    2.40000010
   12.28972244   97.27610016    0.58999997    2.39000010
   12.29166698   91.20909882    0.56999999    2.40000010
   12.29333401   94.19480133    0.56999999    2.40000010
   12.29638958   86.79070282    0.56999999    2.40000010
   12.29972267   81.74019623    0.58999997    2.40000010
   12.30305576   87.45600128    0.56999999    2.40000010
   12.30611134   81.56569672    0.56999999    2.40000010
   12.30944443   87.26869965    0.56999999    2.40000010
   12.31250000   87.67919922    0.56999999    2.40000010
   12.31583309   88.69809723    0.56999999    2.40000010
   12.32166672   88.69809723    0.55000001    2.40000010
   12.32583332   82.50610352    0.55000001    2.40000010
   12.32916641   81.91750336    0.55000001    2.40000010
   12.33222198   86.21410370    0.55000001    2.40000010
   12.33555508   84.59490204    0.56999999    2.40000010
   12.33888817   79.11869812    0.56999999    2.42000008
   12.34194374   82.05449677    0.56999999    2.40000010
   12.34527779   81.72720337    0.56999999    2.40000010
   12.34861088   82.57579803    0.56999999    2.42000008
   12.35166740   83.22789764    0.55000001    2.42000008
   12.35500050   81.66329956    0.55000001    2.42000008
   12.35805607   86.26589966    0.56999999    2.42000008
   12.35861111   80.66609955    0.56999999    2.42000008
   12.36472225   80.66609955    0.56999999    2.42000008
   12.36861134   82.07920074    0.55000001    2.42000008
   12.37194443   82.63729858    0.56999999    2.42000008
   12.37527752   84.67279816    0.56999999    2.42000008
   12.37833309   83.21029663    0.55000001    2.42000008
   12.38166714   84.92109680    0.55000001    2.42000008
   12.38500023   90.75000000    0.55000001    2.44000006
   12.38805580   81.80919647    0.56999999    2.42000008
   12.39138889   85.12539673    0.55000001    2.44000006
   12.39194393   82.89700317    0.55000001    2.44000006
   12.39527798   92.59799957    0.55000001    2.42000008
   12.39861107   82.66570282    0.55000001    2.44000006
   12.40194416   85.08899689    0.55000001    2.42000008
   12.40749931   85.08899689    0.55000001    2.44000006
   12.41166592   81.65170288    0.55000001    2.44000006
   12.41472149   82.65709686    0.55000001    2.44000006
   12.41805553   78.82309723    0.55000001    2.44000006
   12.42138958   81.54609680    0.55000001    2.44000006
   12.42444515   78.63359833    0.52999997    2.44000006
   12.42527771   84.65380096    0.52999997    2.44000006
   12.42805576   83.29900360    0.52999997    2.44000006
   12.43138885   82.43099976    0.52999997    2.44000006
   12.43444443   82.07409668    0.52999997    2.44000006
   12.43777752   83.75469971    0.55000001    2.46000004
   12.44111156   88.32649994    0.52999997    2.46000004
   12.44416714   85.30439758    0.52999997    2.46000004
   12.45027733   85.30439758    0.55000001    2.46000004
   12.45444393   79.49839783    0.52999997    2.46000004
   12.45777798   84.28089905    0.52999997    2.46000004
   12.45861053   81.47869873    0.52999997    2.46000004
   12.46138859   83.60119629    0.52999997    2.44000006
   12.46472168   85.83280182    0.52999997    2.46000004
   12.46777725   88.70269775    0.52999997    2.46000004
   12.47111034   81.61260223    0.52999997    2.46000004
   12.47444439   82.09919739    0.52999997    2.46000004
   12.47749996   83.28350067    0.52999997    2.46000004
   12.48083305   86.53170013    0.52999997    2.46000004
   12.48388958   81.34339905    0.52999997    2.46000004
   12.48722267   82.24440002    0.52999997    2.46000004
   12.49305534   82.24440002    0.51999998    2.48000002
   12.49722290   82.78569794    0.51999998    2.46000004
   12.50055599   85.62439728    0.52999997    2.48000002
   12.50361156   79.46920013    0.51999998    2.46000004
   12.50694466   81.74819946    0.51999998    2.48000002
   12.51027775   77.42819977    0.51999998    2.46000004
   12.51333332   79.87020111    0.52999997    2.46000004
   12.51666641   77.39839935    0.51999998    2.46000004
   12.51999950   80.73459625    0.52999997    2.48000002
   12.52305508   86.29100037    0.51999998    2.46000004
   12.52527714   82.17199707    0.51999998    2.46000004
   12.52666664   82.95379639    0.51999998    2.48000002
   12.52999973   83.01999664    0.51999998    2.48000002
   12.53611183   83.01999664    0.52999997    2.48000002
   12.54000092   85.74349976    0.52999997    2.48000002
   12.54333401   84.01049805    0.52999997    2.48000002
   12.54666710   84.98509979    0.51999998    2.48000002
   12.54972267   88.55519867    0.52999997    2.48000002
   12.55305576   83.39959717    0.51999998    2.48000002
   12.55638885   85.29409790    0.51999998    2.48000002
   12.55861092   84.39880371    0.52999997    2.48000002
   12.56000042   81.75949860    0.52999997    2.48000002
   12.56333351   81.54499817    0.52999997    2.48000002
   12.56638908   86.23609924    0.51999998    2.48000002
   12.56972218   85.36340332    0.52999997    2.48000002
   12.57305527   84.41929626    0.51999998    2.48000002
   12.57888889   84.41929626    0.51999998    2.48000002
   12.58305550   82.94699860    0.51999998    2.48000002
   12.58611107   83.11139679    0.51999998    2.50000000
   12.58944416   80.93409729    0.50000000    2.48000002
   12.59222221   81.22989655    0.50000000    2.48000002
   12.59305477   87.45670319    0.50000000    2.48000002
   12.59638882   79.11599731    0.50000000    2.50000000
   12.59944439   83.89540100    0.50000000    2.48000002
   12.60277843   83.80220032    0.50000000    2.50000000
   12.60611153   84.23290253    0.50000000    2.50000000
   12.60916710   81.69360352    0.50000000    2.50000000
   12.61250019   93.00740051    0.50000000    2.50000000
   12.61583328   82.02439880    0.51999998    2.50000000
   12.62166691   82.02439880    0.50000000    2.50000000
   12.62583351   84.42489624    0.50000000    2.50000000
   12.62888908   79.70010376    0.50000000    2.50000000
   12.63222218   80.97080231    0.47999999    2.50000000
   12.63555527   85.67440033    0.47999999    2.50000000
   12.63861084   81.14910126    0.47999999    2.50000000
   12.64194393   87.23999786    0.47999999    2.50000000
   12.64527798   83.13839722    0.47999999    2.50000000
   12.64833355   83.43379974    0.47999999    2.50000000
   12.65166664   83.40969849    0.47999999    2.51999998
   12.65472221   84.28839874    0.47999999    2.50000000
   12.65805531   87.17099762    0.47999999    2.50000000
   12.65888882   82.51779938    0.47999999    2.50000000
   12.66444397   82.51779938    0.47999999    2.51999998
   12.66861153   91.62640381    0.47999999    2.51999998
   12.67194462   86.60209656    0.47999999    2.51999998
   12.67500019   82.40280151    0.47999999    2.51999998
   12.67833328   89.80580139    0.47999999    2.51999998
   12.68166733   91.17379761    0.47999999    2.50000000
   12.68472195   93.44909668    0.47999999    2.50000000
   12.68805599   98.14610291    0.47999999    2.51999998
   12.69111156   92.40260315    0.46000001    2.51999998
   12.69222260   91.07140350    0.46000001    2.51999998
   12.69472218  103.79299927    0.46000001    2.51999998
   12.69805527  100.18199921    0.46000001    2.51999998
   12.70111084   83.29460144    0.46000001    2.51999998
   12.70749950   83.29460144    0.46000001    2.51999998
   12.71138859   86.64749908    0.47999999    2.51999998
   12.71472168   90.39360046    0.46000001    2.51999998
   12.71805477   86.25910187    0.46000001    2.51999998
   12.72111034   94.22989655    0.46000001    2.51999998
   12.72444439   81.21720123    0.46000001    2.51999998
   12.72555542   83.34539795    0.47999999    2.51999998
   12.72805500   79.00540161    0.46000001    2.51999998
   12.73138809   82.85659790    0.46000001    2.51999998
   12.73444462   82.89150238    0.46000001    2.53999996
   12.73777771   84.37290192    0.44000000    2.51999998
   12.74111176   77.75070190    0.44000000    2.51999998
   12.74416733   84.43379974    0.44000000    2.51999998
   12.75027752   84.43379974    0.44000000    2.53999996
   12.75444412   79.03669739    0.46000001    2.51999998
   12.75749969   80.71320343    0.46000001    2.53999996
   12.75888920   82.95420074    0.46000001    2.53999996
   12.76111126   86.59059906    0.44000000    2.53999996
   12.76444435   83.82399750    0.46000001    2.53999996
   12.76749992   81.49800110    0.44000000    2.53999996
   12.77083302   85.40750122    0.44000000    2.53999996
   12.77416611   81.39189911    0.44000000    2.53999996
   12.77722168   79.76190186    0.44000000    2.53999996
   12.78055573   80.99099731    0.44000000    2.53999996
   12.78388977   79.69819641    0.44000000    2.53999996
   12.78694534   78.70169830    0.44000000    2.55999994
   12.79305553   78.70169830    0.44000000    2.53999996
   12.79722309   77.89959717    0.44000000    2.53999996
   12.80027771   80.31009674    0.44000000    2.55999994
   12.80361176   80.53040314    0.44000000    2.53999996
   12.80694485   76.83419800    0.44000000    2.55999994
   12.81000042   82.31050110    0.41999999    2.55999994
   12.81333351   84.18399811    0.44000000    2.55999994
   12.81666660   80.97669983    0.44000000    2.53999996
   12.81972218   79.54920197    0.44000000    2.53999996
   12.82305527   78.53240204    0.44000000    2.53999996
   12.82555580   79.57129669    0.44000000    2.53999996
   12.82666683   80.71649933    0.44000000    2.53999996
   12.82999992   83.22119904    0.44000000    2.55999994
   12.83583260   83.22119904    0.41999999    2.55999994
   12.84000015   88.38020325    0.44000000    2.55999994
   12.84333324   82.35970306    0.44000000    2.53999996
   12.84638882   79.87560272    0.44000000    2.55999994
   12.84972191   81.62979889    0.44000000    2.55999994
   12.85305595   78.48629761    0.44000000    2.55999994
   12.85611153   91.18939972    0.44000000    2.55999994
   12.85888958   81.87999725    0.44000000    2.55999994
   12.85972214   83.76920319    0.44000000    2.55999994
   12.86305618   81.41290283    0.44000000    2.55999994
   12.86638927   78.57150269    0.44000000    2.55999994
   12.86944485   80.14499664    0.44000000    2.55999994
   12.87277794   87.52600098    0.44000000    2.55999994
   12.87861156   87.52600098    0.44000000    2.55999994
   12.88277817   85.60089874    0.44000000    2.55999994
   12.88611126   81.11399841    0.44000000    2.55999994
   12.88944435   82.52490234    0.44000000    2.55999994
   12.89222240   83.24359894    0.44000000    2.55999994
   12.89277744   77.90429688    0.44000000    2.55999994
   12.89611053   81.51809692    0.44000000    2.55999994
   12.89916611   78.15899658    0.44000000    2.55999994
   12.90249920   83.52580261    0.44000000    2.55999994
   12.90583324   80.97419739    0.44000000    2.55999994
   12.90888882   79.23909760    0.44000000    2.55999994
   12.91222191   76.59809875    0.44000000    2.55999994
   12.91555500   79.75379944    0.44000000    2.57999992
   12.92166710   79.75379944    0.44000000    2.55999994
   12.92583370   77.53479767    0.44000000    2.57999992
   12.92888927   84.42559814    0.44000000    2.57999992
   12.93222237   81.45240021    0.44000000    2.57999992
   12.93527794   80.45310211    0.44000000    2.57999992
   12.93861103   80.48899841    0.44000000    2.57999992
   12.94194412   78.44370270    0.44000000    2.57999992
   12.94499969   79.58280182    0.44000000    2.57999992
   12.94833374   87.84069824    0.44000000    2.57999992
   12.95166683   78.62609863    0.44000000    2.57999992
   12.95472240   76.57379913    0.44000000    2.59999990
   12.95805550   78.87490082    0.44000000    2.57999992
   12.95888901   83.21399689    0.44000000    2.59999990
   12.96444416   83.21399689    0.41999999    2.57999992
   12.96861076   77.75969696    0.44000000    2.59999990
   12.97166634   76.90509796    0.44000000    2.59999990
   12.97499943   78.71459961    0.44000000    2.57999992
   12.97833252   81.50489807    0.41999999    2.57999992
   12.98138809   78.36849976    0.44000000    2.57999992
   12.98472214   80.62930298    0.41999999    2.57999992
   12.98805618   82.07230377    0.41999999    2.57999992
   12.99111176   79.19110107    0.41999999    2.57999992
   12.99222279   80.81240082    0.41999999    2.57999992
   12.99472237   81.43730164    0.41999999    2.57999992
   12.99805546   80.00579834    0.44000000    2.57999992
   13.00138855   82.35489655    0.41999999    2.59999990
   13.00722218   82.35489655    0.41999999    2.59999990
   13.01138878   81.24759674    0.41999999    2.59999990
   13.01472187   82.26540375    0.41999999    2.57999992
   13.01777744   81.67389679    0.41999999    2.57999992
   13.02111053   75.97190094    0.41999999    2.57999992
   13.02444458   78.48329926    0.41999999    2.59999990
   13.02555561   76.23609924    0.41999999    2.59999990
   13.02777767   77.56970215    0.41999999    2.57999992
   13.03111076   77.23629761    0.41999999    2.59999990
   13.03444481   79.64430237    0.41999999    2.59999990
   13.03750038   80.86979675    0.40000001    2.59999990
   13.04083347   76.67910004    0.40000001    2.59999990
   13.04388905   79.73699951    0.41999999    2.59999990
   13.05027771   79.73699951    0.40000001    2.59999990
   13.05416679   79.14019775    0.40000001    2.59999990
   13.05749989   78.16259766    0.41999999    2.59999990
   13.05888939   77.14209747    0.41999999    2.61999989
   13.06111145   77.30960083    0.41999999    2.59999990
   13.06444454   77.67780304    0.40000001    2.59999990
   13.06777763   77.59410095    0.41999999    2.59999990
   13.07083321   77.42079926    0.41999999    2.59999990
   13.07416630   78.68479919    0.41999999    2.57999992
   13.07722187   77.82740021    0.40000001    2.59999990
   13.08055592   80.18450165    0.40000001    2.59999990
   13.08388901   80.46800232    0.40000001    2.59999990
   13.08694458   75.79060364    0.41999999    2.59999990
   13.09305477   75.79060364    0.40000001    2.61999989
   13.09722233   75.97609711    0.40000001    2.61999989
   13.10027790   83.46820068    0.40000001    2.61999989
   13.10361195   76.73979950    0.40000001    2.59999990
   13.10694504   76.61239624    0.40000001    2.59999990
   13.11000061   83.75440216    0.40000001    2.59999990
   13.11333370   77.93550110    0.40000001    2.59999990
   13.11638927   76.76450348    0.41999999    2.61999989
   13.11972237   80.52899933    0.41999999    2.59999990
   13.12305546   78.49909973    0.41999999    2.61999989
   13.12555599   76.14939880    0.41999999    2.59999990
   13.12638855   76.73079681    0.41999999    2.59999990
   13.12972260   77.38259888    0.41999999    2.64000010
   13.13583279   77.38259888    0.41999999    2.61999989
   13.14000034   78.76719666    0.40000001    2.59999990
   13.14305496   75.86329651    0.40000001    2.64000010
   13.14638901   78.35320282    0.41999999    2.61999989
   13.14972210   79.21540070    0.41999999    2.61999989
   13.15277767   75.10240173    0.41999999    2.61999989
   13.15611076   74.49109650    0.41999999    2.64000010
   13.15888882   77.00740051    0.41999999    2.61999989
   13.15972137   78.83409882    0.41999999    2.61999989
   13.16305542   77.92440033    0.41999999    2.61999989
   13.16638851   82.00219727    0.44000000    2.61999989
   13.16944504   77.82520294    0.46000001    2.59999990
   13.17277813   78.68180084    0.46000001    2.61999989
   13.17861176   78.68180084    0.47999999    2.64000010
   13.18277836   77.23899841    0.50000000    2.61999989
   13.18611145   77.97280121    0.47999999    2.61999989
   13.18916702   78.91739655    0.47999999    2.61999989
   13.19222260   85.09590149    0.47999999    2.61999989
   13.19277763   81.43329620    0.47999999    2.61999989
   13.19611073   78.51069641    0.47999999    2.61999989
   13.19944477   77.02829742    0.47999999    2.59999990
   13.20249939   78.75029755    0.47999999    2.61999989
   13.20583344   78.52680206    0.47999999    2.61999989
   13.20916653   79.91249847    0.47999999    2.61999989
   13.21222210   76.84880066    0.47999999    2.61999989
   13.21555519   75.73480225    0.47999999    2.61999989
   13.22138882   75.73480225    0.46000001    2.61999989
   13.22555542   79.92700195    0.46000001    2.61999989
   13.22888851   77.67610168    0.46000001    2.61999989
   13.23222160   80.30599976    0.44000000    2.61999989
   13.23527813   79.23750305    0.44000000    2.64000010
   13.23861122   78.46260071    0.44000000    2.64000010
   13.24166679   78.86060333    0.44000000    2.61999989
   13.24499989   78.69719696    0.44000000    2.64000010
   13.24833393   82.61399841    0.44000000    2.61999989
   13.25138855   76.39379883    0.44000000    2.61999989
   13.25472260   76.71640015    0.44000000    2.61999989
   13.25805569   76.15599823    0.46000001    2.61999989
   13.25888920   80.26439667    0.46000001    2.61999989
   13.26444435   80.26439667    0.46000001    2.61999989
   13.26861095   80.37629700    0.46000001    2.61999989
   13.27166653   78.96459961    0.47999999    2.64000010
   13.27499962   78.50720215    0.47999999    2.66000009
   13.29250050   76.13749695    0.46000001    2.64000010
   13.29500008   79.18800354    0.46000001    2.61999989
   13.29805565   75.98870087    0.46000001    2.64000010
   13.30138874   84.45760345    0.47999999    2.64000010
   13.30749989   84.45760345    0.47999999    2.64000010
   13.31138897   80.41670227    0.46000001    2.64000010
   13.31472206   75.48439789    0.46000001    2.61999989
   13.31805515   81.06829834    0.46000001    2.64000010
   13.32111073   79.58180237    0.46000001    2.64000010
   13.32444477   84.57389832    0.46000001    2.64000010
   13.32583332   79.78209686    0.46000001    2.61999989
   13.32833290   80.46910095    0.46000001    2.64000010
   13.33138847   79.24810028    0.47999999    2.64000010
   13.33472157   79.75839996    0.47999999    2.61999989
   13.33777714   77.73149872    0.47999999    2.64000010
   13.34111118   78.92410278    0.47999999    2.64000010
   13.34444427   77.98809814    0.46000001    2.64000010
   13.35027790   77.98809814    0.46000001    2.64000010
   13.35444450   78.17079926    0.46000001    2.66000009
   13.35750008   81.67720032    0.46000001    2.66000009
   13.35916710   76.50730133    0.46000001    2.66000009
   13.36138916   75.59149933    0.46000001    2.66000009
   13.36444473   73.45290375    0.46000001    2.61999989
   13.36777782   77.48999786    0.44000000    2.64000010
   13.37083340   76.16909790    0.44000000    2.64000010
   13.37416649   74.89150238    0.44000000    2.64000010
   13.37750053   73.58959961    0.44000000    2.64000010
   13.38055611   75.47270203    0.44000000    2.64000010
   13.38388920   76.27970123    0.44000000    2.64000010
   13.38722229   77.21829987    0.44000000    2.64000010
   13.39305496   77.21829987    0.41999999    2.66000009
   13.39722252   74.06330109    0.44000000    2.64000010
   13.40055561   77.24870300    0.41999999    2.66000009
   13.40361118   77.65609741    0.44000000    2.64000010
   13.40694427   79.37999725    0.44000000    2.64000010
   13.40999985   79.81500244    0.44000000    2.66000009
   13.41333294   75.96450043    0.44000000    2.66000009
   13.41666698   76.31659698    0.44000000    2.66000009
   13.41972256   79.88539886    0.44000000    2.66000009
   13.42305565   81.94000244    0.46000001    2.64000010
   13.42583370   81.77200317    0.46000001    2.64000010
   13.42694473   79.51940155    0.44000000    2.66000009
   13.43000031   79.79550171    0.46000001    2.66000009
   13.43583298   79.79550171    0.47999999    2.66000009
   13.44000053   77.51239777    0.47999999    2.66000009
   13.44333363   76.12020111    0.46000001    2.66000009
   13.44638920   79.90260315    0.47999999    2.66000009
   13.44972229   84.45809937    0.47999999    2.66000009
   13.45361137   77.17739868    0.50000000    2.66000009
   13.45694447   79.83509827    0.50000000    2.67000008
   13.45916653   83.35510254    0.50000000    2.64000010
   13.46055508   82.39369965    0.50000000    2.67000008
   13.46361065   80.30130005    0.50000000    2.66000009
   13.46694374   83.66390228    0.50000000    2.66000009
   13.47027779   83.73079681    0.50000000    2.66000009
   13.47333336   84.99819946    0.51999998    2.66000009
   13.47888851   84.99819946    0.47999999    2.66000009
   13.48277760   77.36519623    0.46000001    2.67000008
   13.48611164   80.34600067    0.44000000    2.67000008
   13.48944473   78.21070099    0.44000000    2.66000009
   13.49250031   84.97920227    0.46000001    2.66000009
   13.49305534   81.19960022    0.46000001    2.66000009
   13.49611092   76.98069763    0.41999999    2.67000008
   13.49944496   79.19080353    0.44000000    2.66000009
   13.50249958   75.82360077    0.44000000    2.66000009
   13.50583363   76.69580078    0.44000000    2.66000009
   13.50916672   74.35240173    0.41999999    2.66000009
   13.51222229   80.30100250    0.44000000    2.66000009
   13.51555538   77.65390015    0.44000000    2.66000009
   13.52166653   77.65390015    0.44000000    2.67000008
   13.52583313   82.85859680    0.41999999    2.67000008
   13.52638817   79.04109955    0.41999999    2.67000008
   13.52944374   76.62660217    0.41999999    2.66000009
   13.53277779   75.65380096    0.41999999    2.66000009
   13.53583336   76.80439758    0.41999999    2.66000009
   13.53916740   79.08630371    0.40000001    2.67000008
   13.54250050   78.00019836    0.40000001    2.66000009
   13.54555607   77.23249817    0.38000000    2.66000009
   13.54888916   74.42549896    0.40000001    2.67000008
   13.55222225   78.67500305    0.38000000    2.67000008
   13.55527782   74.86340332    0.38000000    2.66000009
   13.55861092   78.63069916    0.38000000    2.67000008
   13.55916691   76.02290344    0.38000000    2.67000008
   13.56444454   76.02290344    0.38000000    2.67000008
   13.56861115   77.46299744    0.38000000    2.67000008
   13.57194424   73.69680023    0.40000001    2.67000008
   13.57499981   79.02369690    0.40000001    2.66000009
   13.57833290   80.39320374    0.40000001    2.67000008
   13.58138847   79.93650055    0.40000001    2.66000009
   13.58472157   76.44989777    0.40000001    2.66000009
   13.58805561   79.84940338    0.41999999    2.67000008
   13.59111118   73.02069855    0.41999999    2.66000009
   13.59249973   75.65570068    0.41999999    2.67000008
   13.59499931   79.16490173    0.44000000    2.67000008
   13.59805489   80.55599976    0.41999999    2.67000008
   13.60138893   81.70369720    0.41999999    2.67000008
   13.60722256   81.70369720    0.41999999    2.67000008
   13.61138916   77.94450378    0.41999999    2.66000009
   13.61472225   77.32489777    0.40000001    2.67000008
   13.61777782   77.29309845    0.41999999    2.66000009
   13.62111092   77.25589752    0.40000001    2.66000009
   13.62444496   77.23590088    0.41999999    2.67000008
   13.62583351   76.30619812    0.40000001    2.67000008
   13.62805557   77.40630341    0.40000001    2.67000008
   13.63111115   75.91680145    0.40000001    2.67000008
   13.63444424   76.64230347    0.40000001    2.67000008
   13.63777733   76.94120026    0.40000001    2.67000008
   13.64083290   77.55419922    0.40000001    2.67000008
   13.64416695   75.61920166    0.40000001    2.66000009
   13.65027714   75.61920166    0.38000000    2.67000008
   13.65416622   79.15930176    0.40000001    2.67000008
   13.65749931   75.94909668    0.40000001    2.67000008
   13.65916634   78.85469818    0.40000001    2.67000008
   13.66138840   78.90589905    0.38000000    2.67000008
   13.66444397   78.16259766    0.38000000    2.69000006
   13.66777802   77.90699768    0.38000000    2.69000006
   13.67111111   79.12190247    0.40000001    2.67000008
   13.67416668   75.10330200    0.38000000    2.67000008
   13.67750072   79.03510284    0.38000000    2.67000008
   13.68055630   80.14450073    0.40000001    2.67000008
   13.68388939   76.54810333    0.40000001    2.67000008
   13.68722248   78.83229828    0.41999999    2.67000008
   13.69305515   78.83229828    0.75000000    2.67000008
   13.69722271   78.51599884    1.44000006    2.66000009
   13.70027733   77.50540161    1.60000002    2.67000008
   13.70361137   75.20320129    2.25000000    2.67000008
   13.70694447   76.71209717    2.66000009    2.67000008
   13.71000004   80.20549774    3.80999994    2.64000010
   13.71333313   75.45529938    4.90999985    2.53999996
   13.71666622   78.65619659    4.90999985    2.67000008
   13.71972179   80.05989838    4.90999985    2.67000008
   13.72305489   80.83129883    4.90999985    2.61999989
   13.72583294   81.90750122    4.90999985    2.64000010
   13.72666645   85.86319733    4.90999985    2.59999990
   13.72972202   80.99990082    4.90999985    2.53999996
   13.73583317   80.99990082    3.72000003    2.67000008
   13.74000072   79.05570221    2.57999992    2.64000010
   13.74333382   79.64620209    2.59999990    2.57999992
   13.74638939   78.17459869    2.78999996    2.67000008
   13.74972248   76.93099976    1.76999998    2.67000008
   13.75277805   80.60759735    1.36000001    2.64000010
   13.75611115   73.55419922    1.34000003    2.66000009
   13.75916672   76.46109772    1.25000000    2.69000006
   13.75972176   76.68759918    1.25000000    2.69000006
   13.76277733   80.37300110    1.11000001    2.67000008
   13.76611137   76.04519653    0.86000001    2.69000006
   13.76944447   82.93340302    0.81999999    2.69000006
   13.77250004   75.23329926    0.83999997    2.69000006
   13.77861118   75.23329926    1.09000003    2.67000008
   13.78277779   73.84249878    2.53999996    2.67000008
   13.78611183   79.12400055    3.99000001    2.64000010
   13.78916740   77.63150024    4.71999979    2.53999996
   13.79250050   80.46880341    4.90999985    2.66000009
   13.79305553   77.32669830    4.88999987    2.66000009
   13.79611111   82.85590363    3.51999998    2.64000010
   13.79944515   77.25900269    2.48000002    2.64000010
   13.80277824   78.55740356    1.75000000    2.69000006
   13.80583382   79.18579865    0.73000002    2.69000006
   13.80916691   76.92070007    0.56999999    2.67000008
   13.81222248   80.68939972    0.41999999    2.69000006
   13.81555557   76.95469666    0.44000000    2.69000006
   13.82166672   76.95469666    0.61000001    2.69000006
   13.82555580   77.40940094    0.88000000    2.69000006
   13.82611084   79.73069763    0.88000000    2.69000006
   13.82944393   75.16780090    0.86000001    2.69000006
   13.83277798   76.27829742    2.01999998    2.69000006
   13.83583260   76.65930176    2.42000008    2.69000006
   13.83916664   76.28430176    2.86999989    2.71000004
   13.84222221   81.63159943    2.42000008    2.71000004
   13.84555531   79.78520203    1.73000002    2.69000006
   13.84888840   76.49530029    1.41999996    2.69000006
   13.85194492   80.33719635    0.80000001    2.69000006
   13.85527802   77.13719940    0.76999998    2.69000006
   13.85861111   78.39550018    1.55999994    2.69000006
   13.85944462   74.06279755    1.83000004    2.69000006
   13.86444473   74.06279755    3.25000000    2.67000008
   13.86861134   75.79859924    4.90999985    2.59999990
   13.87166691   88.59649658    4.90999985    2.42000008
   13.87500000   76.43699646    4.90999985    2.50000000
   13.87833309   79.81030273    4.90999985    2.53999996
   13.88138866  102.85900116    4.90999985    2.51999998
   13.88472176   87.54920197    4.90999985    2.25000000
   13.88805580   84.81189728    4.90999985    2.50000000
   13.89111137   80.36889648    4.90999985    2.51999998
   13.89277744   84.93129730    4.90999985    2.50000000
   13.89472198   79.06600189    4.90999985    2.55999994
   13.89805508   74.52200317    4.69999981    2.66000009
   13.90111065   79.38030243    2.80999994    2.67000008
   13.90722179   79.38030243    0.94000000    2.69000006
   13.91138840   79.26879883    0.86000001    2.69000006
   13.91472149   77.60820007    0.79000002    2.69000006
   13.91777802   77.85620117    0.79000002    2.69000006
   13.92111111   75.46640015    0.70999998    2.69000006
   13.92416668   75.34239960    0.70999998    2.69000006
   13.92611122   75.05580139    0.70999998    2.69000006
   13.92805576   76.63130188    0.70999998    2.69000006
   13.93138885   81.67649841    0.56999999    2.69000006
   13.93444443   80.38580322    0.58999997    2.69000006
   13.93777752   80.67690277    0.56999999    2.69000006
   13.94111156   76.80570221    0.58999997    2.69000006
   13.94416714   80.02010345    0.70999998    2.69000006
   13.94999981   80.02010345    0.88000000    2.69000006
   13.95416641   76.49559784    0.73000002    2.71000004
   13.95749950   74.09490204    0.67000002    2.69000006
   13.95944405   76.96610260    0.50000000    2.71000004
   13.96111107   78.35310364    0.41999999    2.71000004
   13.96444416   77.76290131    0.41999999    2.69000006
   13.96749973   73.80789948    0.41999999    2.71000004
   13.97083282   76.60089874    0.44000000    2.69000006
   13.97416592   80.19539642    0.44000000    2.69000006
   13.97722149   76.58419800    0.46000001    2.71000004
   13.98055553   81.43609619    0.46000001    2.71000004
   13.98361111   79.00640106    0.47999999    2.71000004
   13.98694515   75.43270111    0.47999999    2.71000004
   13.99305534   75.43270111    0.50000000    2.69000006
   13.99722290   81.77490234    0.50000000    2.71000004
   14.00027752   81.02860260    0.51999998    2.69000006
   14.00361156   75.83360291    0.52999997    2.69000006
   14.00694466   80.10070038    0.52999997    2.69000006
   14.01000023   77.92230225    0.52999997    2.71000004
   14.01333332   77.84220123    0.55000001    2.69000006
   14.01638889   75.00620270    0.55000001    2.69000006
   14.01972198   79.02490234    0.55000001    2.71000004
   14.02305508   77.31529999    0.56999999    2.69000006
   14.02638817   83.13770294    0.56999999    2.69000006
   14.02666664   76.56069946    0.56999999    2.69000006
   14.02999973   77.81089783    0.56999999    2.71000004
   14.03583336   77.81089783    0.61000001    2.69000006
   14.04000092   74.80529785    0.63000000    2.69000006
   14.04305553   75.58470154    0.61000001    2.69000006
   14.04638958   77.98480225    0.58999997    2.71000004
   14.04972267   76.58769989    0.56999999    2.69000006
   14.05277824   78.15219879    0.51999998    2.69000006
   14.05611134   75.52919769    0.51999998    2.71000004
   14.05916691   77.35089874    0.50000000    2.71000004
   14.05972195   76.50700378    0.50000000    2.71000004
   14.06305599   79.11209869    0.47999999    2.69000006
   14.06638908   75.94029999    0.47999999    2.69000006
   14.06944466   78.25509644    0.44000000    2.71000004
   14.07277775   78.97579956    0.41999999    2.71000004
   14.07861137   78.97579956    0.40000001    2.71000004
   14.08277798   79.19840240    0.40000001    2.71000004
   14.08611107   78.60649872    0.41999999    2.71000004
   14.08916664   83.01419830    0.41999999    2.71000004
   14.09249973   77.72640228    0.40000001    2.71000004
   14.09305477   76.00099945    0.41999999    2.71000004
   14.09611034   76.97789764    0.44000000    2.71000004
   14.09944439   75.00959778    0.47999999    2.71000004
   14.10249996   77.36910248    0.52999997    2.71000004
   14.10583401   81.30650330    0.64999998    2.71000004
   14.10916710   73.36900330    0.70999998    2.73000002
   14.11222267   74.77050018    0.89999998    2.71000004
   14.11555576   82.14890289    0.95999998    2.71000004
   14.12138939   82.14890289    1.11000001    2.71000004
   14.12555599   77.29789734    1.09000003    2.71000004
   14.12638855   76.50189972    1.07000005    2.69000006
   14.12916660   72.90679932    1.07000005    2.71000004
   14.13249969   73.34020233    1.03999996    2.71000004
   14.13555527   76.07939911    1.01999998    2.71000004
   14.13888836   74.28929901    1.00000000    2.71000004
   14.14222240   73.48750305    0.98000002    2.69000006
   14.14527798   76.37539673    0.55000001    2.71000004
   14.14861107   74.61399841    0.51999998    2.71000004
   14.15194416   77.13159943    0.51999998    2.69000006
   14.15499973   75.01899719    0.51999998    2.71000004
   14.15833282   77.92389679    0.51999998    2.71000004
   14.15972137   77.31860352    0.51999998    2.71000004
   14.16444397   77.31860352    0.51999998    2.71000004
   14.16833401   75.54419708    0.51999998    2.71000004
   14.17166710   75.39630127    0.51999998    2.69000006
   14.17500019   78.89119720    0.51999998    2.69000006
   14.17805576   75.21250153    0.52999997    2.71000004
   14.18138885   76.83319855    0.52999997    2.73000002
   14.18472195   71.85620117    0.52999997    2.71000004
   14.18777752   74.73789978    0.51999998    2.71000004
   14.19111156   76.33380127    0.50000000    2.71000004
   14.19305515   74.90799713    0.50000000    2.71000004
   14.19472218   76.65080261    0.50000000    2.71000004
   14.19805527   77.37969971    0.46000001    2.71000004
   14.20111084   77.42109680    0.46000001    2.71000004
   14.20722198   77.42109680    0.46000001    2.71000004
   14.21138859   73.79910278    0.47999999    2.71000004
   14.21444416   77.06369781    0.47999999    2.71000004
   14.21777725   74.89569855    0.46000001    2.71000004
   14.22111034   77.37699890    0.46000001    2.71000004
   14.22416592   74.61450195    0.46000001    2.71000004
   14.22638798   77.46920013    0.46000001    2.73000002
   14.22777748   77.50569916    0.44000000    2.73000002
   14.23111057   76.25550079    0.46000001    2.71000004
   14.23416710   77.59819794    0.46000001    2.73000002
   14.23750019   76.81320190    0.47999999    2.71000004
   14.24083328   80.69619751    0.50000000    2.73000002
   14.24388885   75.81130219    0.47999999    2.71000004
   14.25000000   75.81130219    0.50000000    2.73000002
   14.25416660   74.55879974    0.51999998    2.71000004
   14.25749969   75.00060272    0.51999998    2.71000004
   14.25972176   75.41429901    0.51999998    2.69000006
   14.26111126   74.97989655    0.51999998    2.69000006
   14.26444435   78.79380035    0.51999998    2.71000004
   14.26749992   74.35340118    0.51999998    2.71000004
   14.27083302   75.30359650    0.51999998    2.73000002
   14.27416611   78.55889893    0.51999998    2.71000004
   14.27722168   78.68810272    0.51999998    2.75000000
   14.28055573   78.17569733    0.52999997    2.71000004
   14.28361130   72.07710266    0.51999998    2.71000004
   14.28694534   79.96450043    0.50000000    2.71000004
   14.29277802   79.96450043    0.46000001    2.71000004
   14.31111145   79.11219788    0.41999999    2.73000002
   14.31444454   78.94660187    0.41999999    2.75000000
   14.31777763   77.79769897    0.41999999    2.73000002
   14.32083321   75.80020142    0.38000000    2.73000002
   14.32416630   78.79429626    0.38000000    2.71000004
   14.32750034   75.80570221    0.40000001    2.75000000
   14.33055592   83.60230255    0.38000000    2.73000002
   14.33583260   83.60230255    0.38000000    2.73000002
   14.34000015   76.52290344    0.40000001    2.73000002
   14.34333324   77.38819885    0.38000000    2.71000004
   14.34416676   74.50820160    0.40000001    2.73000002
   14.34694386   77.90200043    0.40000001    2.73000002
   14.35027790   77.40380096    0.40000001    2.73000002
   14.35333347   76.47910309    0.41999999    2.73000002
   14.35666752   79.64759827    0.40000001    2.73000002
   14.36000061   84.90930176    0.38000000    2.73000002
   14.36305618   79.00669861    0.36000001    2.75000000
   14.36638927   76.23439789    0.36000001    2.73000002
   14.36972237   78.38899994    0.36000001    2.75000000
   14.37277794   80.04380035    0.36000001    2.73000002
   14.37888908   80.04380035    0.34000000    2.73000002
   14.38305569   77.07740021    0.31999999    2.73000002
   14.38611126   78.62129974    0.34000000    2.73000002
   14.38944435   77.71540070    0.31999999    2.75000000
   14.39249992   77.55549622    0.31999999    2.73000002
   14.39583302   77.78489685    0.31999999    2.73000002
   14.39916611   80.77120209    0.31999999    2.75000000
   14.40222168   76.32109833    0.31999999    2.73000002
   14.40555477   76.42230225    0.31999999    2.73000002
   14.40888882   78.35810089    0.30000001    2.73000002
   14.41083336   77.03690338    0.31999999    2.75000000
   14.41249943   76.91709900    0.31999999    2.75000000
   14.41583252   73.30380249    0.31999999    2.75000000
   14.42166710   73.30380249    0.31999999    2.73000002
   14.42583370   74.99849701    0.31999999    2.73000002
   14.42888927   74.22440338    0.31999999    2.73000002
   14.43222237   75.74880219    0.31999999    2.73000002
   14.43555546   75.87709808    0.31999999    2.73000002
   14.43861103   76.46469879    0.34000000    2.73000002
   14.44194412   75.25340271    0.34000000    2.75000000
   14.44416714   74.14409637    0.36000001    2.71000004
   14.44555569   75.59950256    0.36000001    2.71000004
   14.44888878   78.02799988    0.36000001    2.75000000
   14.45194435   79.61289978    0.36000001    2.75000000
   14.45527744   79.27480316    0.36000001    2.73000002
   14.45861053   73.03820038    0.36000001    2.73000002
   14.46444416   73.03820038    0.38000000    2.73000002
   14.46861076   74.68119812    0.38000000    2.73000002
   14.47194386   77.78500366    0.38000000    2.75000000
   14.47499943   75.57389832    0.40000001    2.73000002
   14.47749996   77.36389923    0.40000001    2.75000000
   14.47861099   79.49629974    0.40000001    2.75000000
   14.48194408   74.79979706    0.40000001    2.75000000
   14.48527813   73.49669647    0.40000001    2.75000000
   14.48833370   76.06610107    0.40000001    2.73000002
   14.49166679   77.34190369    0.40000001    2.73000002
   14.49472237   70.21029663    0.40000001    2.73000002
   14.49805546   75.09349823    0.38000000    2.75000000
   14.50138855   73.81559753    0.40000001    2.73000002
   14.50722218   73.81559753    0.38000000    2.75000000
   14.51138878   75.81109619    0.38000000    2.75000000
   14.51472187   78.61450195    0.38000000    2.75000000
   14.51805496   74.58260345    0.38000000    2.76999998
   14.52111053   79.82669830    0.38000000    2.75000000
   14.52444458   77.01679993    0.40000001    2.75000000
   14.52750015   75.28839874    0.40000001    2.73000002
   14.53083324   80.87969971    0.40000001    2.75000000
   14.53416729   75.26429749    0.40000001    2.73000002
   14.53722286   76.58820343    0.38000000    2.73000002
   14.54055595   72.90920258    0.36000001    2.75000000
   14.54388905   77.33460236    0.36000001    2.75000000
   14.54444504   72.82790375    0.36000001    2.75000000
   14.55027771   72.82790375    0.34000000    2.75000000
   14.55444431   79.96410370    0.34000000    2.75000000
   14.55749989   75.59020233    0.34000000    2.75000000
   14.56083393   78.30770111    0.34000000    2.73000002
   14.56416702   78.04350281    0.31999999    2.75000000
   14.56722260   78.33409882    0.31999999    2.75000000
   14.57055569   77.19680023    0.34000000    2.73000002
   14.57361126   75.49009705    0.31999999    2.73000002
   14.57694435   74.52940369    0.31999999    2.73000002
   14.57777786   79.20130157    0.31999999    2.75000000
   14.58055592   80.88739777    0.31999999    2.73000002
   14.58388901   79.10870361    0.31999999    2.75000000
   14.58694458   77.24629974    0.31999999    2.75000000
   14.59305477   77.24629974    0.34000000    2.75000000
   14.59722233   77.37770081    0.40000001    2.75000000
   14.60027790   75.26909637    0.44000000    2.75000000
   14.60361195   74.55259705    0.46000001    2.73000002
   14.60694504   79.64830017    0.41999999    2.75000000
   14.61000061   80.54290009    0.38000000    2.75000000
   14.61111164   80.95459747    0.38000000    2.75000000
   14.61361122   77.33070374    0.38000000    2.73000002
   14.61694431   74.96260071    0.38000000    2.75000000
   14.62027836   78.81130219    0.36000001    2.73000002
   14.62333393   78.17759705    0.36000001    2.73000002
   14.62666702   75.47360229    0.36000001    2.75000000
   14.62972260   84.86990356    0.38000000    2.75000000
   14.63583279   84.86990356    0.38000000    2.75000000
   14.64000034   77.57839966    0.36000001    2.75000000
   14.64333344   75.62719727    0.36000001    2.75000000
   14.64444447   77.48130035    0.36000001    2.75000000
   14.64666653   83.13349915    0.36000001    2.75000000
   14.64999962   77.54750061    0.34000000    2.75000000
   14.65333271   79.61560059    0.36000001    2.75000000
   14.65638828   78.67700195    0.34000000    2.75000000
   14.65972137   77.12100220    0.34000000    2.76999998
   14.66277695   80.05100250    0.36000001    2.75000000
   14.66611099   85.17379761    0.46000001    2.76999998
   14.66944504   78.60169983    0.61000001    2.75000000
   14.67250061   81.05359650    0.58999997    2.75000000
   14.67861176   81.05359650    0.80000001    2.75000000
   14.68277836   81.52860260    1.28999996    2.75000000
   14.68611145   79.90419769    3.05999994    2.69000006
   14.68944454   79.57330322    3.59999990    2.67000008
   14.69250011   78.50530243    2.61999989    2.71000004
   14.69583321   78.34089661    1.36000001    2.75000000
   14.69888878   80.41549683    0.81999999    2.71000004
   14.70222187   88.05539703    0.79000002    2.75000000
   14.70555496   75.28739929    0.47999999    2.75000000
   14.70861053   74.31469727    0.36000001    2.75000000
   14.71111107   79.51380157    0.34000000    2.75000000
   14.71222210   76.14289856    0.31999999    2.75000000
   14.71555519   78.78620148    0.31999999    2.73000002
   14.72166634   78.78620148    0.31999999    2.75000000
   14.72583294   78.46579742    0.30000001    2.75000000
   14.72888851   73.43769836    0.31999999    2.75000000
   14.73222160   77.61699677    0.31999999    2.76999998
   14.73555565   75.36419678    0.44000000    2.76999998
   14.73861122   72.60109711    0.46000001    2.75000000
   14.74194431   75.66670227    0.44000000    2.75000000
   14.74444485   73.17179871    0.41999999    2.75000000
   14.74555588   76.07420349    0.41999999    2.75000000
   14.74888897   79.21360016    0.41999999    2.76999998
   14.75222206   74.01719666    0.40000001    2.76999998
   14.75527763   73.09819794    0.52999997    2.75000000
   14.75861073   77.58930206    0.55000001    2.75000000
   14.76444435   77.58930206    0.58999997    2.75000000
   14.76861095   75.06210327    0.55000001    2.76999998
   14.77166653   79.77600098    0.31999999    2.75000000
   14.77499962   72.31359863    0.31999999    2.76999998
   14.77777767   74.60479736    0.31999999    2.76999998
   14.77861118   74.36779785    0.31999999    2.76999998
   14.78194427   75.05010223    0.31999999    2.76999998
   14.78527832   73.63610077    0.31999999    2.75000000
   14.78833389   74.50479889    0.34000000    2.75000000
   14.79166698   76.77760315    0.34000000    2.76999998
   14.79472256   74.62940216    0.31999999    2.75000000
   14.79805565   75.78549957    0.31999999    2.76999998
   14.80138874   78.44349670    0.34000000    2.76999998
   14.80722237   78.44349670    0.31999999    2.76999998
   14.81138897   75.91010284    0.31999999    2.76999998
   14.81472206   75.62819672    0.34000000    2.75000000
   14.81777763   80.16760254    0.34000000    2.75000000
   14.82111073   74.44239807    0.34000000    2.75000000
   14.82444477   73.35579681    0.34000000    2.75000000
   14.82750034   73.86399841    0.34000000    2.76999998
   14.83083344   74.17960358    0.34000000    2.78999996
   14.83416653   79.80690002    0.34000000    2.76999998
   14.83722210   79.08480072    0.34000000    2.75000000
   14.84055519   78.30180359    0.34000000    2.76999998
   14.84361076   77.33689880    0.34000000    2.76999998
   14.84444427   72.39330292    0.34000000    2.76999998
   14.85027790   72.39330292    0.34000000    2.76999998
   14.85416698   75.24849701    0.34000000    2.76999998
   14.85750008   76.54440308    0.34000000    2.75000000
   14.86083412   80.26650238    0.34000000    2.76999998
   14.86388969   77.91480255    0.34000000    2.75000000
   14.86722279   75.16699982    0.31999999    2.76999998
   14.87055588   74.21649933    0.34000000    2.76999998
   14.87361145   73.08540344    0.34000000    2.76999998
   14.87694454   73.17939758    0.40000001    2.76999998
   14.87777805   75.20659637    0.41999999    2.75000000
   14.88027763   76.05439758    0.41999999    2.76999998
   14.88361073   73.71920013    0.41999999    2.78999996
   14.88694477   75.77330017    0.69000000    2.75000000
   14.89305496   75.77330017    0.94000000    2.76999998
   14.89722252   74.80709839    2.53999996    2.73000002
   14.90027714   81.36370087    4.90999985    2.67000008
   14.90361118   73.90339661    4.90999985    2.55999994
   14.90666676   75.80400085    4.90999985    2.61999989
   14.90999985   78.16850281    2.78999996    2.71000004
   14.91111088   71.72560120    2.78999996    2.71000004
   14.91361046   75.10600281    1.33000004    2.76999998
   14.91694450   73.43009949    0.98000002    2.75000000
   14.92027855   78.75420380    0.83999997    2.75000000
   14.92333412   73.47530365    0.63000000    2.76999998
   14.92666721   73.63999939    0.38000000    2.76999998
   14.93000031   75.51380157    0.34000000    2.76999998
   14.93583298   75.51380157    0.30000001    2.76999998
   14.94000053   73.05100250    0.30000001    2.75000000
   14.94305515   75.69750214    0.30000001    2.76999998
   14.94444466   74.44629669    0.30000001    2.76999998
   14.94666672   74.84480286    0.30000001    2.75000000
   14.94999981   76.88539886    0.30000001    2.76999998
   14.95333290   76.20890045    0.30000001    2.76999998
   14.95638847   76.87750244    0.30000001    2.76999998
   14.95972157   74.64820099    0.88000000    2.76999998
   14.96305561   79.45449829    3.95000005    2.75000000
   14.96611118   78.30780029    4.90999985    2.75000000
   14.96944427   77.25830078    4.90999985    2.69000006
   14.97249985   78.58789825    4.90999985    2.66000009
   14.97861099   78.58789825    4.90999985    2.64000010
   14.98277760   76.73329926    4.90999985    2.61999989
   14.98611164   81.58799744    4.90999985    2.64000010
   14.98916721   76.40550232    4.90999985    2.75000000
   14.99250031   77.75029755    4.76000023    2.73000002
   14.99583340   75.93830109    2.80999994    2.75000000
   14.99888897   78.05829620    2.03999996    2.76999998
   15.00222206   78.73639679    2.40000010    2.76999998
   15.00527763   80.43289948    4.40999985    2.67000008
   15.00861073   79.95770264    4.90999985    2.66000009
   15.01111126   83.61389923    4.90999985    2.59999990
   15.01222229   78.91870117    4.90999985    2.53999996
   15.01555538   85.92340088    4.90999985    2.64000010
   15.02138901   85.92340088    4.90999985    2.67000008
   15.02555561   83.57559967    3.57999992    2.73000002
   15.13638878   -1.00000000   -1.00000000   -1.00000000
   15.23611164   -1.00000000   -1.00000000   -1.00000000
   15.33083344   -1.00000000   -1.00000000   -1.00000000
   15.44111156   -1.00000000   -1.00000000   -1.00000000
   15.50361156   84.24669647    4.90999985    2.61999989
   15.50694466   98.88439941    4.90999985    2.57999992
   15.51000023   80.87760162    4.90999985    2.59999990
   15.51333332   91.48059845    4.90999985    2.55999994
   15.51666641   91.87860107    4.90999985    2.64000010
   15.51972198   95.11470032    4.90999985    2.46000004
   15.52388859   95.11470032    4.90999985    2.42000008
   15.52805519   93.93219757    4.90999985    2.44000006
   15.53138828   78.73339844    4.90999985    2.53999996
   15.53444481   78.09220123    4.90999985    2.61999989
   15.53694534   82.29229736    4.90999985    2.71000004
   15.53805637   79.79319763    4.90999985    2.69000006
   15.54138947   82.21060181    3.11999989    2.76999998
   15.54472256   73.67099762    1.88000000    2.78999996
   15.54777813   83.53530121    1.14999998    2.76999998
   15.55111122   76.18730164    1.19000006    2.76999998
   15.55444431   76.68209839    1.19000006    2.76999998
   15.55749989   74.24479675    1.76999998    2.75000000
   15.56083393   75.97160339    1.86000001    2.75000000
   15.56666660   75.97160339    1.66999996    2.75000000
   15.57083321   83.28839874    2.30999994    2.78999996
   15.57416630   77.15260315    2.07999992    2.75000000
   15.57750034   83.26119995    1.86000001    2.76999998
   15.58055592   74.56800079    1.26999998    2.76999998
   15.58388901   79.09059906    0.52999997    2.78999996
   15.58722210   75.71800232    0.51999998    2.78999996
   15.59027767   75.49659729    0.51999998    2.75000000
   15.59361076   78.48690033    0.46000001    2.80999994
   15.59666634   78.07170105    0.51999998    2.78999996
   15.60000038   85.68599701    0.75000000    2.80999994
   15.60333347   76.85240173    1.19000006    2.78999996
   15.60388947   75.54489899    1.26999998    2.78999996
   15.60972214   75.54489899    2.89000010    2.76999998
   15.61388969   78.04940033    3.05999994    2.76999998
   15.61694431   74.59390259    1.23000002    2.78999996
   15.62027836   73.55149841    0.80000001    2.78999996
   15.62333393   79.58660126    0.36000001    2.78999996
   15.62666702   76.22730255    0.38000000    2.78999996
   15.63000011   79.27549744    0.36000001    2.78999996
   15.63305569   83.56459808    0.34000000    2.78999996
   15.63638878   83.18430328    0.34000000    2.78999996
   15.63722229   82.61049652    0.34000000    2.78999996
   15.64000034   78.82540131    0.34000000    2.76999998
   15.64333344   78.77449799    0.30000001    2.76999998
   15.64638901   75.39009857    0.31999999    2.78999996
   15.65249920   75.39009857    0.28000000    2.78999996
   15.65666676   75.45469666    0.28000000    2.80999994
   15.65999985   82.15360260    0.30000001    2.78999996
   15.66305542   91.51200104    0.28000000    2.78999996
   15.66638851   78.68289948    0.28000000    2.78999996
   15.66944504   81.33439636    0.28000000    2.78999996
   15.67055607   75.92949677    0.28000000    2.78999996
   15.67305565   82.85009766    0.28000000    2.78999996
   15.67638874   77.83059692    0.28000000    2.78999996
   15.67944431   81.98819733    0.28000000    2.78999996
   15.68277836   78.36630249    0.28000000    2.78999996
   15.68611145   80.00240326    0.30000001    2.78999996
   15.68916702   82.27850342    0.30000001    2.78999996
   15.69527817   82.27850342    0.30000001    2.78999996
   15.69944477   75.20680237    0.30000001    2.76999998
   15.70277786   83.65080261    0.30000001    2.78999996
   15.70388889   77.81230164    0.30000001    2.78999996
   15.70638847   79.42579651    0.30000001    2.78999996
   15.70972157   79.94090271    0.30000001    2.78999996
   15.71277714   79.38480377    0.30000001    2.76999998
   15.71611118   78.50939941    0.30000001    2.78999996
   15.71944427   77.32099915    0.30000001    2.78999996
   15.72249985   80.41159821    0.31999999    2.78999996
   15.72583294   81.06639862    0.31999999    2.78999996
   15.72916603   79.01319885    0.34000000    2.78999996
   15.73222160   81.76309967    0.31999999    2.78999996
   15.73805618   81.76309967    0.34000000    2.78999996
   15.74222279   81.30650330    0.34000000    2.78999996
   15.74555588   78.90380096    0.36000001    2.78999996
   15.74888897   74.88459778    0.36000001    2.78999996
   15.75194454   75.44860077    0.36000001    2.76999998
   15.75527763   76.20760345    0.36000001    2.78999996
   15.75861073   73.93930054    0.38000000    2.78999996
   15.76166630   77.85019684    0.41999999    2.78999996
   15.76500034   78.79560089    0.41999999    2.78999996
   15.76805496   75.59140015    0.40000001    2.78999996
   15.77055550   76.54340363    0.40000001    2.78999996
   15.77166653   80.50599670    0.40000001    2.78999996
   15.77499962   75.19660187    0.41999999    2.78999996
   15.78111076   75.19660187    0.41999999    2.76999998
   15.78527832   72.69889832    0.44000000    2.78999996
   15.78833389   78.21659851    0.44000000    2.78999996
   15.79166698   78.90840149    0.44000000    2.76999998
   15.79472256   74.14659882    0.46000001    2.76999998
   15.79805565   74.15280151    0.46000001    2.78999996
   15.80138874   74.40509796    0.47999999    2.78999996
   15.80388927   75.95539856    0.46000001    2.76999998
   15.80500031   75.53980255    0.46000001    2.78999996
   15.80833340   78.61350250    0.46000001    2.76999998
   15.81166649   75.47730255    0.46000001    2.78999996
   15.81472206   77.86479950    0.46000001    2.78999996
   15.81805515   77.80639648    0.46000001    2.78999996
   15.82388878   77.80639648    0.46000001    2.76999998
   15.82805538   76.80619812    0.46000001    2.78999996
   15.83138847   75.53109741    0.47999999    2.78999996
   15.83444405   82.00450134    0.44000000    2.78999996
   15.83722210   74.71849823    0.44000000    2.78999996
   15.83805561   78.08989716    0.46000001    2.76999998
   15.84138870   76.97480011    0.44000000    2.78999996
   15.84444427   78.76879883    0.41999999    2.78999996
   15.84777737   74.12750244    0.44000000    2.78999996
   15.85111141   73.65380096    0.44000000    2.78999996
   15.85416698   77.58270264    0.44000000    2.78999996
   15.85750008   79.32440186    0.44000000    2.76999998
   15.86083412   82.33280182    0.41999999    2.76999998
   15.86666679   82.33280182    0.41999999    2.78999996
   15.87083340   73.58499908    0.41999999    2.78999996
   15.87416649   76.60639954    0.41999999    2.78999996
   15.87722206   76.24120331    0.41999999    2.78999996
   15.88055611   73.76210022    0.41999999    2.80999994
   15.88388920   75.06690216    0.41999999    2.78999996
   15.88694477   79.52420044    0.41999999    2.78999996
   15.89027786   75.25839996    0.41999999    2.76999998
   15.89333344   73.37500000    0.41999999    2.78999996
   15.89666653   77.07430267    0.41999999    2.80999994
   15.89999962   71.14739990    0.40000001    2.76999998
   15.90305519   74.90789795    0.40000001    2.78999996
   15.90388870   75.81279755    0.40000001    2.78999996
   15.90944386   75.81279755    0.40000001    2.78999996
   15.91361046   73.35929871    0.38000000    2.76999998
   15.91694450   75.71050262    0.47999999    2.78999996
   15.92027855   73.49669647    0.47999999    2.78999996
   15.92333412   79.36959839    0.46000001    2.78999996
   15.92666721   77.44180298    0.38000000    2.76999998
   15.92972279   75.11260223    0.36000001    2.80999994
   15.93305588   73.88770294    0.38000000    2.73000002
   15.93638897   74.71130371    0.38000000    2.78999996
   15.93722248   81.21820068    0.40000001    2.78999996
   15.93972206   80.56320190    0.40000001    2.80999994
   15.94305515   74.28949738    0.41999999    2.80999994
   15.94638920   75.54139709    0.41999999    2.80999994
   15.95249939   75.54139709    0.41999999    2.78999996
   15.95666695   73.86969757    0.38000000    2.80999994
   15.95972157   72.52909851    0.38000000    2.78999996
   15.96305561   76.43280029    0.38000000    2.78999996
   15.96638870   80.82469940    0.38000000    2.80999994
   15.96944427   77.22350311    0.38000000    2.78999996
   15.97055531   77.38469696    0.38000000    2.78999996
   15.97305489   73.54679871    0.38000000    2.80999994
   15.97638798   75.58360291    0.38000000    2.78999996
   15.97972202   74.58660126    0.38000000    2.78999996
   15.98277760   73.99430084    0.38000000    2.78999996
   15.98611164   76.25199890    0.38000000    2.78999996
   15.98944473   76.99060059    0.40000001    2.76999998
   15.99527836   76.99060059    0.44000000    2.80999994
   15.99944496   76.36199951    0.47999999    2.78999996
   16.00250053   79.40480042    0.51999998    2.76999998
   16.00388908   75.32520294    0.52999997    2.78999996
   16.00611115   77.74559784    0.51999998    2.78999996
   16.00944519   74.58599854    0.56999999    2.78999996
   16.01277733   77.16660309    0.58999997    2.78999996
   16.01583290   74.42369843    0.69000000    2.78999996
   16.01916695   75.29209900    0.67000002    2.76999998
   16.02222252   74.93440247    0.67000002    2.76999998
   16.02555466   75.44429779    0.67000002    2.76999998
   16.02888870   72.66690063    0.73000002    2.78999996
   16.03194427   76.95490265    0.61000001    2.80999994
   16.03805542   76.95490265    0.58999997    2.78999996
   16.04222107   77.81559753    0.58999997    2.78999996
   16.04555511   77.04540253    0.58999997    2.78999996
   16.04861069   75.61389923    0.61000001    2.78999996
   16.05194283   73.06620026    0.64999998    2.78999996
   16.05527687   77.74299622    0.67000002    2.78999996
   16.05833244   73.67800140    0.70999998    2.76999998
   16.06166649   76.68579865    0.70999998    2.78999996
   16.06472206   72.14640045    0.73000002    2.78999996
   16.06805611   75.96219635    0.75000000    2.78999996
   16.07055664   77.68270111    0.75000000    2.76999998
   16.07166672   76.51940155    0.75000000    2.78999996
   16.07500076   75.20429993    0.75000000    2.76999998
   16.08083344   75.20429993    0.76999998    2.76999998
   16.08500099   74.54889679    0.76999998    2.76999998
   16.08833313   78.69760132    0.76999998    2.78999996
   16.09166718   75.86750031    0.75000000    2.78999996
   16.09472275   79.61370087    0.75000000    2.78999996
   16.09805679   72.30400085    0.73000002    2.78999996
   16.10111237   83.08910370    0.70999998    2.78999996
   16.10388947   78.86910248    0.70999998    2.78999996
   16.10472298   74.91429901    0.70999998    2.76999998
   16.10805511   73.28430176    0.70999998    2.78999996
   16.11138916   77.69480133    0.70999998    2.76999998
   16.11444473   79.08110046    0.69000000    2.76999998
   16.11777878   74.61640167    0.67000002    2.76999998
   16.12388992   74.61640167    0.67000002    2.76999998
   16.12805557   79.31860352    0.67000002    2.76999998
   16.13111115   76.55010223    0.67000002    2.78999996
   16.13444519   78.24590302    0.67000002    2.78999996
   16.13722229   74.96160126    0.69000000    2.78999996
   16.13805580   77.16120148    0.69000000    2.76999998
   16.14138794   78.44400024    0.70999998    2.78999996
   16.14472198   76.99109650    0.70999998    2.76999998
   16.14777756   77.67579651    0.70999998    2.76999998
   16.15111160   83.33809662    0.70999998    2.78999996
   16.15416718   77.22530365    0.69000000    2.76999998
   16.15749931   78.66850281    0.69000000    2.78999996
   16.16083336   77.64579773    0.67000002    2.78999996
   16.16666603   77.64579773    0.64999998    2.78999996
   16.17083359   75.65529633    0.63000000    2.78999996
   16.17388916   77.56030273    0.63000000    2.78999996
   16.17722130   75.17169952    0.61000001    2.78999996
   16.18055534   77.72560120    0.58999997    2.78999996
   16.18388748   79.02929688    0.56999999    2.78999996
   16.18694305   79.29930115    0.55000001    2.78999996
   16.19027710   75.55000305    0.55000001    2.78999996
   16.19333267   78.81649780    0.52999997    2.76999998
   16.19666672   81.00469971    0.52999997    2.78999996
   16.20000076   75.69770050    0.51999998    2.78999996
   16.20305634   77.92209625    0.51999998    2.78999996
   16.20388985   76.28620148    0.51999998    2.78999996
   16.20944595   76.28620148    0.51999998    2.78999996
   16.21361160   95.33049774    0.51999998    2.78999996
   16.21694565   74.81999969    0.51999998    2.76999998
   16.22000122   88.57669830    0.51999998    2.78999996
   16.22333336   77.28939819    0.50000000    2.76999998
   16.22666740   76.66979980    0.50000000    2.78999996
   16.22972298   86.74120331    0.51999998    2.78999996
   16.23305511   88.54239655    0.50000000    2.78999996
   16.23611069   80.24839783    0.51999998    2.78999996
   16.23722267   74.64389801    0.51999998    2.78999996
   16.23972321   85.13600159    0.51999998    2.78999996
   16.24305534   75.83779907    0.51999998    2.78999996
   16.24638939   80.91529846    0.50000000    2.78999996
   16.25222206   80.91529846    0.50000000    2.78999996
   16.25638962   78.58950043    0.50000000    2.78999996
   16.25972176   76.70220184    0.50000000    2.78999996
   16.26305580   81.34739685    0.50000000    2.78999996
   16.26611137   76.36160278    0.50000000    2.78999996
   16.26944351   78.08360291    0.50000000    2.78999996
   16.27055550   78.74420166    0.50000000    2.78999996
   16.27305603   83.39389801    0.51999998    2.78999996
   16.27638817   79.68840027    0.50000000    2.78999996
   16.27972221   78.52249908    0.51999998    2.76999998
   16.28277779   81.83930206    0.51999998    2.78999996
   16.28610992   91.18060303    0.67000002    2.78999996
   16.28944397   82.03430176    1.60000002    2.76999998
   16.29527664   82.03430176    2.80999994    2.75000000
   16.29944420   83.01760101    1.34000003    2.78999996
   16.30249977   85.50559998    1.03999996    2.76999998
   16.30388832   85.87920380    1.36000001    2.76999998
   16.30611038   83.96849823    1.51999998    2.75000000
   16.30944443   78.89569855    1.13000000    2.78999996
   16.31277657   82.28440094    1.07000005    2.76999998
   16.31583214   81.67169952    0.56999999    2.78999996
   16.31916809   76.05870056    0.55000001    2.76999998
   16.32250023   85.10019684    0.52999997    2.78999996
   16.32555580   78.52980042    0.51999998    2.78999996
   16.32888985   86.82869720    0.50000000    2.76999998
   16.33194542   77.11509705    0.50000000    2.78999996
   16.33805656   77.11509705    0.47999999    2.78999996
   16.34222221   78.70210266    0.47999999    2.78999996
   16.34527779   88.62789917    0.47999999    2.78999996
   16.34861183   77.06510162    0.50000000    2.76999998
   16.35194397   76.87950134    0.50000000    2.76999998
   16.35499954   81.89399719    0.50000000    2.78999996
   16.35833359   77.93250275    0.51999998    2.78999996
   16.36166763   73.07910156    0.51999998    2.76999998
   16.36472321   74.91320038    0.51999998    2.78999996
   16.36805534   80.48670197    0.51999998    2.78999996
   16.37055588   77.22930145    0.50000000    2.78999996
   16.37138939   82.01300049    0.51999998    2.78999996
   16.37472153   79.99050140    0.51999998    2.78999996
   16.38083267   79.99050140    0.50000000    2.76999998
   16.38500023   76.22589874    0.50000000    2.76999998
   16.38833237   74.78730011    0.50000000    2.80999994
   16.39138794   87.25000000    0.50000000    2.78999996
   16.39472198   81.27110291    0.50000000    2.78999996
   16.39805603   79.80729675    0.47999999    2.78999996
   16.40111160   83.01139832    0.50000000    2.78999996
   16.40388870   77.37999725    0.50000000    2.78999996
   16.40472221   77.27100372    0.51999998    2.78999996
   16.40805435   79.87529755    0.50000000    2.78999996
   16.41138840   80.90540314    0.50000000    2.78999996
   16.41444397   76.02770233    0.50000000    2.78999996
   16.41777802   79.11350250    0.50000000    2.78999996
   16.42361069   79.11350250    0.47999999    2.78999996
   16.42777634   79.19840240    0.50000000    2.78999996
   16.43111038   83.50260162    0.47999999    2.78999996
   16.43444443   81.80750275    0.50000000    2.78999996
   16.43722153   76.91100311    0.47999999    2.78999996
   16.43777657   75.80799866    0.47999999    2.78999996
   16.44111061   77.85820007    0.47999999    2.78999996
   16.44444275   79.08419800    0.46000001    2.78999996
   16.44749832   77.18859863    0.47999999    2.78999996
   16.45083427   79.27500153    0.46000001    2.78999996
   16.45416832   75.74359894    0.46000001    2.78999996
   16.45722389   79.34339905    0.46000001    2.78999996
   16.46055603   85.52200317    0.47999999    2.76999998
   16.46666718   85.52200317    0.47999999    2.78999996
   16.47083473   75.92230225    0.50000000    2.78999996
   16.47389030   72.95780182    0.47999999    2.76999998
   16.47722244   79.57700348    0.47999999    2.78999996
   16.48027802   83.49019623    0.47999999    2.78999996
   16.48361206   83.26509857    0.46000001    2.78999996
   16.48694420   90.13819885    0.47999999    2.78999996
   16.48999977   85.24420166    0.47999999    2.78999996
   16.49333382   76.24839783    0.46000001    2.78999996
   16.49666786   83.40889740    0.46000001    2.78999996
   16.49972153   77.16059875    0.46000001    2.78999996
   16.50305557   79.30410004    0.46000001    2.78999996
   16.50388908   78.31179810    0.46000001    2.76999998
   16.52444458   78.31179810    0.44000000    2.78999996
   16.52861023   80.91380310    0.44000000    2.78999996
   16.53194427   75.77279663    0.46000001    2.78999996
   16.53527641   81.01039886    0.46000001    2.78999996
   16.53722191   77.04360199    0.46000001    2.78999996
   16.53888893   78.09120178    0.47999999    2.78999996
   16.54194450   75.76490021    0.46000001    2.78999996
   16.54527664   81.30529785    0.44000000    2.78999996
   16.54833221   78.83809662    0.41999999    2.78999996
   16.55166626   77.67939758    0.41999999    2.78999996
   16.55499840   74.26229858    0.40000001    2.78999996
   16.55805397   78.49810028    0.41999999    2.78999996
   16.56138802   76.79170227    0.41999999    2.78999996
   16.56722260   76.79170227    0.41999999    2.78999996
   16.57139015   78.92230225    0.40000001    2.78999996
   16.57472229   77.28230286    0.40000001    2.76999998
   16.57777786   80.87760162    0.38000000    2.78999996
   16.58111191   84.22979736    0.38000000    2.78999996
   16.58444595   86.17520142    0.36000001    2.78999996
   16.58750153   83.60620117    0.34000000    2.78999996
   16.59083366   80.75679779    0.34000000    2.78999996
   16.59416771   77.73819733    0.36000001    2.78999996
   16.59722328   78.48829651    0.36000001    2.78999996
   16.60055542   80.23239899    0.34000000    2.78999996
   16.60361099   79.69629669    0.34000000    2.78999996
   16.60416794   74.72920227    0.36000001    2.78999996
   16.61027908   74.72920227    0.36000001    2.78999996
   16.61416626   81.33270264    0.34000000    2.78999996
   16.61750031   79.00330353    0.36000001    2.78999996
   16.62083435   80.14379883    0.38000000    2.78999996
   16.62388992   81.80020142    0.38000000    2.78999996
   16.62722206   77.04859924    0.40000001    2.78999996
   16.63055611   80.51660156    0.41999999    2.78999996
   16.63361168   79.28050232    0.40000001    2.76999998
   16.63694382   77.54470062    0.44000000    2.78999996
   16.63750076   81.48930359    0.46000001    2.78999996
   16.64055634   75.76020050    0.47999999    2.78999996
   16.64388847   83.61080170    0.47999999    2.78999996
   16.64694405   74.67289734    0.47999999    2.78999996
   16.65305519   74.67289734    0.47999999    2.78999996
   16.65722275   79.65019989    0.47999999    2.78999996
   16.66027832   73.34429932    0.47999999    2.78999996
   16.66361046   76.42990112    0.47999999    2.78999996
   16.66694450   75.35389709    0.47999999    2.78999996
   16.67000008   75.96610260    0.47999999    2.78999996
   16.67083359   81.49089813    0.47999999    2.78999996
   16.67361069   77.57279968    0.47999999    2.78999996
   16.67694473   81.62850189    0.47999999    2.78999996
   16.68000031   79.43370056    0.47999999    2.78999996
   16.68333244   79.93379974    0.47999999    2.78999996
   16.68666649   79.95259857    0.47999999    2.76999998
   16.68972206   83.29309845    0.47999999    2.78999996
   16.69583321   83.29309845    0.47999999    2.78999996
   16.70000076   76.50009918    0.47999999    2.78999996
   16.70333481   81.94249725    0.47999999    2.78999996
   16.70416832   73.67800140    0.47999999    2.78999996
   16.70694542   79.15940094    0.46000001    2.78999996
   16.71027946   78.96679688    0.46000001    2.78999996
   16.71333504   74.74189758    0.44000000    2.78999996
   16.71666718   74.96269989    0.44000000    2.76999998
   16.72000122   79.84860229    0.44000000    2.78999996
   16.72305679   81.04299927    0.41999999    2.78999996
   16.72638893   77.71690369    0.41999999    2.78999996
   16.72944450   77.52819824    0.41999999    2.78999996
   16.73277855   79.03050232    0.41999999    2.78999996
   16.73861122   79.03050232    0.40000001    2.78999996
   16.74277878   78.61100006    0.38000000    2.76999998
   16.74611092   77.50460052    0.38000000    2.78999996
   16.74916649   79.45619965    0.36000001    2.76999998
   16.75250053   78.86489868    0.38000000    2.78999996
   16.75583267   81.07420349    0.38000000    2.78999996
   16.75888824   79.73380280    0.36000001    2.78999996
   16.76222229   82.95379639    0.36000001    2.78999996
   16.76555634   80.82469940    0.34000000    2.78999996
   16.76861000   83.12550354    0.36000001    2.78999996
   16.77083397   85.89800262    0.36000001    2.78999996
   16.77222252   82.19129944    0.34000000    2.78999996
   16.77555466   84.29139709    0.34000000    2.78999996
   16.78166580   84.29139709    0.36000001    2.78999996
   16.78555489   81.97530365    0.36000001    2.78999996
   16.78888893   81.23439789    0.38000000    2.78999996
   16.79222107   74.87100220    0.38000000    2.78999996
   16.79527664   85.29750061    0.38000000    2.78999996
   16.79861069   86.19180298    0.38000000    2.78999996
   16.80194283   83.90560150    0.38000000    2.78999996
   16.80416679   83.83029938    0.38000000    2.78999996
   16.80555534   72.20050049    0.38000000    2.80999994
   16.80888748   83.16549683    0.40000001    2.78999996
   16.81194305   78.59670258    0.40000001    2.78999996
   16.81527710   82.71330261    0.40000001    2.78999996
   16.81861115   88.56839752    0.38000000    2.78999996
   16.82444572   88.56839752    0.40000001    2.78999996
   16.82861137   78.96209717    0.38000000    2.78999996
   16.83166695   80.10849762    0.40000001    2.78999996
   16.83500099   79.96360016    0.40000001    2.78999996
   16.83750153   81.52179718    0.40000001    2.78999996
   16.83861160   78.94779968    0.40000001    2.78999996
   16.84194565   78.34230042    0.40000001    2.78999996
   16.84500122   81.74120331    0.40000001    2.78999996
   16.84833336   78.14099884    0.44000000    2.78999996
   16.85166740   87.41089630    0.44000000    2.76999998
   16.85472298   85.34619904    0.46000001    2.76999998
   16.85805511   81.57579803    0.46000001    2.78999996
   16.86138916   84.00749969    0.46000001    2.76999998
   16.86722183   84.00749969    0.47999999    2.78999996
   16.87138939   80.41480255    0.47999999    2.78999996
   16.87472153   78.72879791    0.47999999    2.78999996
   16.87777710   77.52780151    0.47999999    2.78999996
   16.88111115   76.26529694    0.50000000    2.76999998
   16.88416672   76.43049622    0.50000000    2.76999998
   16.88750076   80.65039825    0.51999998    2.76999998
   16.89083290   81.09359741    0.51999998    2.78999996
   16.89388847   80.20700073    0.51999998    2.78999996
   16.89722252   89.54840088    0.51999998    2.76999998
   16.90055466   88.72019958    0.52999997    2.76999998
   16.90361023   77.53070068    0.52999997    2.78999996
   16.90444374   84.24859619    0.52999997    2.78999996
   16.90999985   84.24859619    0.52999997    2.76999998
   16.91416550   75.59249878    0.52999997    2.78999996
   16.91749954   78.82749939    0.51999998    2.76999998
   16.92055511   80.08370209    0.51999998    2.78999996
   16.92388916   75.94889832    0.51999998    2.76999998
   16.92722130   76.30069733    0.52999997    2.78999996
   16.93027687   73.82199860    0.51999998    2.76999998
   16.93361092   76.41220093    0.52999997    2.76999998
   16.93694305   78.33149719    0.52999997    2.76999998
   16.93750000   78.05110168    0.51999998    2.76999998
   16.94027710   81.42549896    0.51999998    2.75000000
   16.94361115   79.84919739    0.51999998    2.76999998
   16.94694328   88.66339874    0.51999998    2.78999996
   16.95305634   88.66339874    0.51999998    2.78999996
   16.95694542   84.46140289    0.51999998    2.76999998
   16.96027946   83.02549744    0.51999998    2.76999998
   16.96361160   80.71510315    0.51999998    2.78999996
   16.96666718   80.55599976    0.51999998    2.78999996
   16.97000122   87.65419769    0.51999998    2.78999996
   16.97111130   81.58100128    0.51999998    2.78999996
   16.97361183   81.33170319    0.50000000    2.78999996
   16.97694588   81.99040222    0.51999998    2.76999998
   16.98000145   91.91609955    0.51999998    2.78999996
   16.98333359   82.87400055    0.51999998    2.78999996
   16.98666763   81.08190155    0.51999998    2.78999996
   16.98972321   85.89520264    0.55000001    2.76999998
   16.99583435   85.89520264    0.52999997    2.78999996
   17.00000000   76.14040375    0.55000001    2.76999998
   17.00305557   84.79340363    0.55000001    2.76999998
   17.00444412   80.04190063    0.55000001    2.76999998
   17.00666618   85.22599792    0.55000001    2.76999998
   17.01000023   84.97599792    0.55000001    2.78999996
   17.01361084   88.16940308    0.55000001    2.78999996
   17.01694489   84.82540131    0.52999997    2.76999998
   17.02027702   78.13749695    0.51999998    2.78999996
   17.02333260   76.22489929    0.51999998    2.76999998
   17.02666664   79.27079773    0.51999998    2.78999996
   17.02972221   76.77130127    0.51999998    2.78999996
   17.03305435   79.54409790    0.51999998    2.76999998
   17.03861046   79.54409790    0.51999998    2.78999996
   17.04277802   78.96620178    0.50000000    2.78999996
   17.04583359   86.37590027    0.47999999    2.78999996
   17.04916573   80.31159973    0.47999999    2.78999996
   17.05249977   80.13320160    0.50000000    2.78999996
   17.05555534   77.05500031    0.47999999    2.78999996
   17.05888748   83.48619843    0.47999999    2.78999996
   17.06222153   81.37429810    0.47999999    2.78999996
   17.06527710   76.73329926    0.47999999    2.78999996
   17.06861115   82.24490356    0.47999999    2.78999996
   17.07111168   79.17369843    0.47999999    2.78999996
   17.07222366   81.55919647    0.46000001    2.78999996
   17.07555580   78.51409912    0.47999999    2.78999996
   17.08139038   78.51409912    0.46000001    2.78999996
   17.08555603   78.40470123    0.41999999    2.78999996
   17.08889008   82.18669891    0.40000001    2.78999996
   17.09194565   83.59860229    0.40000001    2.78999996
   17.09527779   85.94429779    0.40000001    2.78999996
   17.09861183   87.71890259    0.38000000    2.78999996
   17.10166740   89.71559906    0.38000000    2.78999996
   17.10444450   91.07879639    0.38000000    2.78999996
   17.10527802   86.53430176    0.38000000    2.78999996
   17.10861206   89.15769958    0.38000000    2.78999996
   17.11194420   83.88800049    0.36000001    2.80999994
   17.11499977   83.17420197    0.38000000    2.78999996
   17.11833382   87.29850006    0.38000000    2.78999996
   17.12416649   87.29850006    0.40000001    2.78999996
   17.12833405   85.01950073    0.41999999    2.76999998
   17.13166618   88.26280212    0.41999999    2.78999996
   17.13500023   83.89299774    0.41999999    2.78999996
   17.13777733   87.67310333    0.44000000    2.78999996
   17.13833237   84.91539764    0.44000000    2.78999996
   17.14166641   83.83809662    0.41999999    2.78999996
   17.14472198   90.78769684    0.46000001    2.78999996
   17.14805603   83.58429718    0.44000000    2.78999996
   17.15138817   83.01860046    0.44000000    2.78999996
   17.15444374   90.39910126    0.46000001    2.78999996
   17.15777779   86.82099915    0.46000001    2.78999996
   17.16110992   92.74819946    0.47999999    2.78999996
   17.16722107   92.74819946    0.80000001    2.78999996
   17.17138863   82.09600067    1.09000003    2.78999996
   17.17444420   93.40950012    1.05999994    2.76999998
   17.17777634   77.17400360    0.67000002    2.76999998
   17.18083191   83.50299835    0.61000001    2.78999996
   17.18416595   84.88790131    0.47999999    2.78999996
   17.18750000   80.48449707    0.46000001    2.78999996
   17.19055557   79.20390320    0.46000001    2.76999998
   17.19388771   79.39050293    0.46000001    2.80999994
   17.19722176   86.10449982    0.46000001    2.78999996
   17.20027924   82.87339783    0.46000001    2.78999996
   17.20361137   91.67579651    0.41999999    2.78999996
   17.20444489   90.82589722    0.41999999    2.78999996
   17.21000099   90.82589722    0.44000000    2.78999996
   17.21416664   86.84899902    0.55000001    2.76999998
   17.21722221   86.49030304    0.58999997    2.78999996
   17.22055626   86.94850159    0.47999999    2.78999996
   17.22389030   94.41459656    0.46000001    2.78999996
   17.22694588   96.47959900    0.41999999    2.78999996
   17.23027802   91.62699890    0.41999999    2.78999996
   17.23361206   87.67040253    0.41999999    2.78999996
   17.23694420   90.33280182    0.40000001    2.78999996
   17.23777771   94.47070313    0.40000001    2.78999996
   17.24027824   92.45680237    0.40000001    2.78999996
   17.24361229   84.09059906    0.40000001    2.78999996
   17.24694443   92.53019714    0.40000001    2.78999996
   17.25277710   92.53019714    0.40000001    2.76999998
   17.25694466   80.66410065    0.40000001    2.78999996
   17.26027870   79.22740173    0.40000001    2.78999996
   17.26333427   91.24590302    0.40000001    2.78999996
   17.26666641   92.86070251    0.41999999    2.78999996
   17.27000046   87.61509705    0.41999999    2.78999996
   17.27111053   91.22309875    0.41999999    2.78999996
   17.27333260   87.96089935    0.41999999    2.78999996
   17.27666664   79.93219757    0.41999999    2.78999996
   17.28000069   85.28549957    0.41999999    2.78999996
   17.28305435   83.03109741    0.41999999    2.76999998
   17.28638840   87.43810272    0.41999999    2.78999996
   17.28944397   86.29270172    0.41999999    2.78999996
   17.29555511   86.29270172    0.40000001    2.78999996
   17.29972076   82.17299652    0.40000001    2.78999996
   17.30305481   83.12969971    0.40000001    2.78999996
   17.30444336   90.75559998    0.40000001    2.78999996
   17.30666542   84.95310211    0.41999999    2.76999998
   17.30999947   83.96160126    0.41999999    2.78999996
   17.31333351   81.12370300    0.41999999    2.78999996
   17.31638718   92.99810028    0.41999999    2.78999996
   17.31972313   90.88379669    0.44000000    2.78999996
   17.32277870   84.29579926    0.41999999    2.78999996
   17.32611275   79.57559967    0.41999999    2.78999996
   17.32944489   94.15429688    0.40000001    2.78999996
   17.33250046  102.46900177    0.40000001    2.78999996
   17.33861160  102.46900177    0.40000001    2.78999996
   17.34277916   90.76730347    0.40000001    2.78999996
   17.34583473   91.62259674    0.40000001    2.78999996
   17.34916687  103.56500244    0.40000001    2.78999996
   17.35222244  100.34100342    0.40000001    2.78999996
   17.35555649  101.68199921    0.38000000    2.78999996
   17.35888863   80.00150299    0.38000000    2.78999996
   17.36194420   83.54499817    0.38000000    2.78999996
   17.36527824   84.88870239    0.38000000    2.76999998
   17.36861038   93.02580261    0.38000000    2.80999994
   17.37111092  101.76399994    0.44000000    2.80999994
   17.37194443   99.42269897    3.48000002    2.80999994
   17.37527847  122.08399963    4.26999998    2.80999994
   17.38138962  122.08399963    4.90999985    2.80999994
   17.38555527  104.09899902    0.40000001    2.78999996
   17.38861084  107.09700012    0.40000001    2.78999996
   17.39194489   90.89099884    0.40000001    2.78999996
   17.39527702   90.93949890    0.40000001    2.78999996
   17.39833260   85.51370239    0.40000001    2.78999996
   17.40166664   97.00119781    0.40000001    2.76999998
   17.40444374   90.45719910    0.40000001    2.78999996
   17.40527725   92.90470123    0.40000001    2.78999996
   17.40861130   84.98079681    0.40000001    2.78999996
   17.41194344   88.20639801    0.40000001    2.78999996
   17.41499901   93.94490051    0.40000001    2.78999996
   17.41833305   94.00279999    0.40000001    2.78999996
   17.42416573   94.00279999    0.40000001    2.78999996
   17.42833328   97.19450378    0.36000001    2.78999996
   17.43166542  103.85600281    0.36000001    2.78999996
   17.43472099  103.17500305    0.38000000    2.78999996
   17.43777657   93.07550049    0.36000001    2.78999996
   17.43833160   83.23300171    0.38000000    2.78999996
   17.44166565   99.13050079    0.40000001    2.76999998
   17.44499969   87.53410339    0.40000001    2.78999996
   17.44805527   97.25109863    0.40000001    2.78999996
   17.45138931   85.54270172    0.38000000    2.78999996
   17.45472336   93.66200256    0.38000000    2.78999996
   17.45777893   90.73600006    0.38000000    2.78999996
   17.46111107   92.07820129    0.38000000    2.78999996
   17.46694565   92.07820129    0.36000001    2.78999996
   17.47111130   88.66809845    0.36000001    2.78999996
   17.47444534   85.01390076    0.36000001    2.78999996
   17.47777748   96.73760223    0.36000001    2.78999996
   17.48083305   96.02290344    0.38000000    2.78999996
   17.48416710   92.33110046    0.36000001    2.76999998
   17.48722267   94.45989990    0.36000001    2.78999996
   17.49055672  100.60199738    0.38000000    2.78999996
   17.49388885   90.68520355    0.36000001    2.78999996
   17.49694443   99.77290344    0.36000001    2.78999996
   17.50027847   94.77890015    0.36000001    2.78999996
   17.50361061   98.60559845    0.36000001    2.78999996
   17.50444412   82.02610016    0.36000001    2.78999996
   17.51000023   82.02610016    0.38000000    2.78999996
   17.51416588   92.27629852    0.36000001    2.78999996
   17.51722145   82.77799988    0.38000000    2.78999996
   17.52055550   94.13020325    0.38000000    2.76999998
   17.53805542   95.44139862    0.38000000    2.76999998
   17.54055595   89.27439880    0.38000000    2.78999996
   17.54361153   92.51039886    0.36000001    2.78999996
   17.54694366   89.16059875    0.36000001    2.78999996
   17.55305481   89.16059875    0.38000000    2.76999998
   17.55694389   87.71260071    0.38000000    2.78999996
   17.56027794   90.59609985    0.38000000    2.78999996
   17.56361008   98.81420135    0.36000001    2.78999996
   17.56666756   92.67389679    0.38000000    2.78999996
   17.57000160   95.96379852    0.38000000    2.78999996
   17.57139015  100.27200317    0.38000000    2.78999996
   17.57361221   97.31189728    0.36000001    2.78999996
   17.57694626   96.39009857    0.36000001    2.78999996
   17.58027840   98.06680298    0.36000001    2.78999996
   17.58333397   93.90869904    0.38000000    2.78999996
   17.58666801   92.41519928    0.36000001    2.80999994
   17.59000015   93.64669800    0.38000000    2.78999996
   17.59583473   93.64669800    0.40000001    2.78999996
   17.60000038   94.13210297    0.41999999    2.78999996
   17.60305595   99.19779968    0.44000000    2.78999996
   17.60472298   98.18509674    0.44000000    2.78999996
   17.60666656   94.77339935    0.44000000    2.78999996
   17.61000061  104.08899689    0.47999999    2.78999996
   17.61333466  107.53099823    0.51999998    2.78999996
   17.61638832   97.61270142    0.83999997    2.76999998
   17.61972237   94.03220367    1.05999994    2.76999998
   17.62305641   97.42350006    1.19000006    2.76999998
   17.62611198   99.16880035    1.16999996    2.76999998
   17.62944412   94.18350220    1.16999996    2.76999998
   17.63277817   83.98390198    0.94000000    2.75000000
   17.63861084   83.98390198    0.95999998    2.78999996
   17.64277840  102.46299744    1.01999998    2.76999998
   17.64611053  100.29399872    0.98000002    2.75000000
   17.64916611   96.61450195    0.94000000    2.76999998
   17.65250015   97.37550354    0.75000000    2.76999998
   17.65555573  101.71099854    0.75000000    2.76999998
   17.65888786   87.95610046    0.73000002    2.76999998
   17.66222191  106.73699951    0.73000002    2.76999998
   17.66527748   94.96790314    0.63000000    2.78999996
   17.66860962   97.72570038    0.58999997    2.78999996
   17.67138863   94.94450378    0.44000000    2.76999998
   17.67249870  104.16400146    0.44000000    2.78999996
   17.67555428  111.91000366    0.44000000    2.76999998
   17.68138885  111.91000366    0.44000000    2.78999996
   17.68555450  106.78800201    0.40000001    2.78999996
   17.68888855   98.83930206    0.40000001    2.78999996
   17.69194412   90.93689728    0.40000001    2.78999996
   17.69527626   91.80719757    0.44000000    2.78999996
   17.69861031   88.57469940    0.47999999    2.78999996
   17.70166779   84.82420349    0.50000000    2.76999998
   17.70472336   94.63549805    0.51999998    2.78999996
   17.70555687   92.63480377    0.51999998    2.78999996
   17.70861244   88.10299683    0.50000000    2.78999996
   17.71194458   98.24919891    0.46000001    2.76999998
   17.71500015   92.95420074    0.46000001    2.78999996
   17.71833420   88.54229736    0.50000000    2.76999998
   17.72444534   88.54229736    1.01999998    2.75000000
   17.72833443   92.79389954    1.14999998    2.76999998
   17.73166656   88.27549744    1.09000003    2.76999998
   17.73500061   88.46839905    1.09000003    2.76999998
   17.73805618   95.67990112    1.09000003    2.76999998
   17.73861122  101.73899841    1.09000003    2.76999998
   17.74166679   95.86299896    1.09000003    2.76999998
   17.74500084   90.66850281    1.14999998    2.76999998
   17.74805641   91.80699921    1.01999998    2.76999998
   17.75138855   84.47260284    0.89999998    2.75000000
   17.75472260   85.75080109    0.52999997    2.78999996
   17.75777817   87.29190063    0.50000000    2.76999998
   17.76111031   83.60939789    0.46000001    2.78999996
   17.76722145   83.60939789    0.41999999    2.78999996
   17.77138901   81.96890259    0.41999999    2.76999998
   17.77194405   84.63670349    0.41999999    2.78999996
   17.77499962   85.76010132    0.44000000    2.78999996
   17.77833366   84.19840240    0.44000000    2.78999996
   17.78138924   85.02410126    0.46000001    2.78999996
   17.78472137   93.10410309    0.44000000    2.76999998
   17.78805542   83.54460144    0.46000001    2.78999996
   17.79111099   91.54620361    0.55000001    2.76999998
   17.79444313   88.16570282    0.58999997    2.78999996
   17.79777718   84.70629883    0.64999998    2.78999996
   17.80083275   82.48889923    0.64999998    2.76999998
   17.80416679   88.81379700    0.64999998    2.76999998
   17.80472183   86.01229858    0.64999998    2.76999998
   17.80999947   86.01229858    0.67000002    2.76999998
   17.81416512   82.87629700    0.73000002    2.76999998
   17.81750107   82.16130066    0.64999998    2.78999996
   17.82055664   91.99490356    0.64999998    2.78999996
   17.82389069   95.74720001    0.56999999    2.76999998
   17.82694626   89.87930298    0.56999999    2.78999996
   17.83027840   86.73840332    0.52999997    2.76999998
   17.83361244   84.01580048    0.51999998    2.78999996
   17.83666801   89.77239990    0.41999999    2.78999996
   17.83805656   97.28230286    0.41999999    2.76999998
   17.84055710   89.16929626    0.44000000    2.76999998
   17.84361267   92.02690125    0.50000000    2.78999996
   17.84694481   84.06800079    0.51999998    2.76999998
   17.85277748   84.06800079    0.55000001    2.76999998
   17.85694504   86.43049622    0.52999997    2.76999998
   17.86027908   82.62680054    0.52999997    2.76999998
   17.86333466   92.53790283    0.46000001    2.76999998
   17.86666679   80.96199799    0.46000001    2.76999998
   17.87000084   84.78340149    0.47999999    2.76999998
   17.87138939   80.21939850    0.47999999    2.76999998
   17.87361145   84.15640259    0.46000001    2.78999996
   17.87666702   82.64040375    0.46000001    2.78999996
   17.88000107   84.83660126    0.41999999    2.78999996
   17.88333321   86.60849762    0.41999999    2.76999998
   17.88638878   82.27960205    0.41999999    2.76999998
   17.88972282   78.21900177    0.41999999    2.76999998
   17.89555550   78.21900177    0.41999999    2.78999996
   17.89972115   79.17109680    0.41999999    2.78999996
   17.90305519   83.45790100    0.41999999    2.78999996
   17.90472221   77.12380219    0.41999999    2.78999996
   17.90666580   82.80570221    0.41999999    2.78999996
   17.90972137   77.04440308    0.44000000    2.76999998
   17.91305542   81.25740051    0.41999999    2.76999998
   17.91611099   78.52130127    0.44000000    2.78999996
   17.91944313   90.25520325    0.44000000    2.78999996
   17.92277718   82.39659882    0.46000001    2.76999998
   17.92583275   83.57939911    0.46000001    2.76999998
   17.92916679   82.69809723    0.46000001    2.78999996
   17.93249893   79.68090057    0.46000001    2.78999996
   17.93861008   79.68090057    0.46000001    2.78999996
   17.94277763   74.91929626    0.46000001    2.76999998
   17.94583321   78.29779816    0.46000001    2.76999998
   17.94916534   80.63710022    0.46000001    2.78999996
   17.95250130   80.66870117    0.44000000    2.76999998
   17.95555687   80.49109650    0.44000000    2.76999998
   17.95888901   77.13619995    0.44000000    2.76999998
   17.96194458   85.70099640    0.44000000    2.78999996
   17.96527863   78.96479797    0.44000000    2.78999996
   17.96861076   76.39669800    0.44000000    2.76999998
   17.97138977   84.15059662    0.44000000    2.78999996
   17.97222328   77.49199677    0.44000000    2.78999996
   17.97527885   77.87770081    0.44000000    2.76999998
   17.98139000   77.87770081    0.41999999    2.78999996
   17.98555565   85.26770020    0.44000000    2.76999998
   17.98861122   79.35559845    0.44000000    2.76999998
   17.99194527   85.23470306    0.44000000    2.78999996
   17.99527740   80.98229980    0.44000000    2.76999998
   17.99833298   86.17189789    0.44000000    2.76999998
   18.00166702   81.04409790    0.44000000    2.76999998
   18.00472260   80.69599915    0.44000000    2.76999998
   18.00527763   85.99639893    0.44000000    2.76999998
   18.00833321   82.74770355    0.41999999    2.78999996
   18.01166725   80.82019806    0.44000000    2.76999998
   18.01472282   86.24870300    0.46000001    2.76999998
   18.01805496   85.78869629    0.50000000    2.78999996
   18.02416611   85.78869629    4.65999985    2.71000004
   18.02833366   87.72949982    4.90999985    2.76999998
   18.03166580   79.57749939    4.90999985    2.67000008
   18.03472137   89.82679749    4.90999985    2.59999990
   18.03805542   85.99949646    4.90999985    2.73000002
   18.03861046   86.05200195    4.90999985    2.73000002
   18.04166603  101.31300354    4.90999985    2.67000008
   18.04500008   94.16840363    4.90999985    2.64000010
   18.04833221   95.54959869    4.90999985    2.59999990
   18.05138779   93.62750244    4.90999985    2.57999992
   18.05472183   88.26660156    4.90999985    2.67000008
   18.05777740   88.16220093    4.90999985    2.61999989
   18.06110954   98.41929626    4.90999985    2.67000008
   18.06694603   98.41929626    4.90999985    2.71000004
   18.07111168   91.13379669    4.90999985    2.71000004
   18.07166672   91.19409943    4.90999985    2.75000000
   18.07500076   90.39389801    4.90999985    2.73000002
   18.07833481   84.39949799    4.90999985    2.75000000
   18.08139038   87.34159851    4.17999983    2.75000000
   18.08472252   83.71330261    3.01999998    2.73000002
   18.08777809   88.04730225    2.21000004    2.76999998
   18.09111214   82.79049683    1.64999998    2.76999998
   18.09444427   82.57089996    1.21000004    2.75000000
   18.09749985   79.52760315    1.03999996    2.75000000
   18.10333443   89.61289978    0.76999998    2.75000000
   18.10499954   93.21099854    0.63000000    2.76999998
   18.11000061   93.21099854    0.50000000    2.78999996
   18.11416626   85.83719635    0.51999998    2.76999998
   18.11722183   90.39080048    0.52999997    2.76999998
   18.12055588   96.31210327    0.63000000    2.76999998
   18.12388992   89.72750092    0.64999998    2.75000000
   18.12694550   98.17099762    0.61000001    2.76999998
   18.13027763   87.55660248    0.58999997    2.78999996
   18.13361168   89.25620270    0.58999997    2.76999998
   18.13666725   82.72750092    0.58999997    2.76999998
   18.13833237   80.56849670    0.63000000    2.76999998
   18.14027786   80.26329803    0.63000000    2.76999998
   18.14361191   86.45950317    0.63000000    2.76999998
   18.14666748   90.41239929    0.64999998    2.76999998
   18.15277672   90.41239929    0.61000001    2.75000000
   18.15694427   82.28890228    0.56999999    2.76999998
   18.15999985   96.82189941    0.56999999    2.78999996
   18.16333389   79.00849915    0.55000001    2.78999996
   18.16666603   85.77380371    0.56999999    2.76999998
   18.16972160   83.43969727    0.56999999    2.76999998
   18.17166519   92.47280121    0.56999999    2.76999998
   18.17333221   92.74590302    0.56999999    2.76999998
   18.17666626   92.07749939    0.58999997    2.76999998
   18.17972183   88.33390045    0.56999999    2.75000000
   18.18305397   83.33779907    0.58999997    2.76999998
   18.18638802   91.44360352    0.58999997    2.76999998
   18.18944359   84.18560028    0.61000001    2.78999996
   18.19555473   84.18560028    0.67000002    2.75000000
   18.19972038   80.31099701    0.69000000    2.76999998
   18.20305634   81.91580200    0.69000000    2.76999998
   18.20527840   86.75849915    0.69000000    2.76999998
   18.20666695   88.17310333    0.70999998    2.78999996
   18.21000099   88.61669922    0.70999998    2.76999998
   18.21305656   78.90029907    0.70999998    2.76999998
   18.21638870   78.24240112    0.81999999    2.76999998
   18.21972275   84.78389740    0.89999998    2.75000000
   18.22277832   83.42330170    1.16999996    2.75000000
   18.22611237   86.65280151    1.46000004    2.75000000
   18.22944450   92.92680359    1.64999998    2.75000000
   18.23250008   92.03520203    1.71000004    2.75000000
   18.23833275   92.03520203    1.66999996    2.75000000
   18.24250031   87.65049744    1.66999996    2.75000000
   18.24583435   96.06250000    1.50000000    2.75000000
   18.24916649   90.22709656    1.41999996    2.75000000
   18.25222206   84.80860138    1.39999998    2.75000000
   18.25555611   88.42939758    1.38000000    2.75000000
   18.25861168   89.08249664    1.34000003    2.75000000
   18.26194382   84.97810364    1.34000003    2.73000002
   18.26527786   90.14949799    1.30999994    2.73000002
   18.26833344   88.96479797    1.14999998    2.75000000
   18.27166557   88.50409698    1.00000000    2.76999998
   18.27222252   83.35320282    1.00000000    2.76999998
   18.27555466   84.65239716    0.98000002    2.76999998
   18.28138924   84.65239716    0.98000002    2.75000000
   18.28555489   96.19770050    0.75000000    2.75000000
   18.28861046   78.33170319    0.75000000    2.75000000
   18.29194450   76.41690063    0.58999997    2.76999998
   18.29527664   87.72940063    0.58999997    2.75000000
   18.29833221   87.70890045    0.61000001    2.76999998
   18.30166626   78.18370056    0.63000000    2.76999998
   18.30472183   90.00250244    0.86000001    2.76999998
   18.30555534   85.32929993    0.89999998    2.76999998
   18.30861092   85.65989685    1.00000000    2.75000000
   18.31166649   88.03099823    0.98000002    2.75000000
   18.31499863   82.45459747    0.94000000    2.75000000
   18.31805611   81.01260376    0.83999997    2.75000000
   18.32416725   81.01260376    0.81999999    2.73000002
   18.32833481   84.24929810    0.95999998    2.76999998
   18.33166695   84.07180023    1.36000001    2.75000000
   18.33500099   88.96340179    1.58000004    2.73000002
   18.33805656   85.38929749    2.34999990    2.73000002
   18.33889008   79.05010223    2.34999990    2.73000002
   18.34194565   81.75000000    2.78999996    2.75000000
   18.34500122   94.25610352    3.97000003    2.67000008
   18.34833336   82.15689850    4.90999985    2.67000008
   18.35138893   92.44730377    4.90999985    2.64000010
   18.35472298   78.92579651    4.90999985    2.64000010
   18.35805511   87.03160095    4.84999990    2.71000004
   18.36111069   90.89270020    3.16000009    2.73000002
   18.36694527   90.89270020    4.90999985    2.76999998
   18.37111092  100.51499939    4.90999985    2.67000008
   18.37222290   98.75360107    4.90999985    2.59999990
   18.37500000   88.65249634    4.90999985    2.64000010
   18.37805557  106.20899963    4.90999985    2.59999990
   18.38138962  104.37799835    4.90999985    2.55999994
   18.38444519   95.50789642    4.90999985    2.53999996
   18.38777733   93.02829742    4.90999985    2.55999994
   18.39111137   96.85050201    4.90999985    2.64000010
   18.39416695   86.16750336    4.90999985    2.59999990
   18.39749908   99.06359863    4.90999985    2.59999990
   18.40083313   94.63410187    4.90999985    2.59999990
   18.40388870   98.96549988    4.90999985    2.57999992
   18.40555573  107.34999847    4.90999985    2.55999994
   18.40972137  107.34999847    4.90999985    2.55999994
   18.41388893   98.43039703    4.90999985    2.51999998
   18.41722107   94.40209961    4.90999985    2.50000000
   18.42055511  112.93000031    4.90999985    2.50000000
   18.42361069  107.92099762    4.90999985    2.50000000
   18.42694473   93.73549652    4.90999985    2.50000000
   18.43000031  104.80599976    4.90999985    2.48000002
   18.43333244  103.35700226    4.90999985    2.51999998
   18.43666649  117.25800323    4.90999985    2.51999998
   18.43888855  104.44699860    4.90999985    2.53999996
   18.44027710   99.92070007    4.90999985    2.53999996
   18.44333267  101.37300110    4.90999985    2.59999990
   18.44666672   96.36389923    4.90999985    2.57999992
   18.45277786   96.36389923    4.90999985    2.57999992
   18.45694542  107.40299988    4.90999985    2.59999990
   18.46000099  117.11000061    4.90999985    2.59999990
   18.46333504  101.24400330    4.90999985    2.64000010
   18.46638870   99.68979645    4.90999985    2.66000009
   18.46972275  104.67700195    4.90999985    2.64000010
   18.47222328  107.76799774    4.90999985    2.64000010
   18.47361183  100.02799988    4.90999985    2.64000010
   18.47666740  102.46800232    4.90999985    2.61999989
   18.48000145   89.06459808    4.90999985    2.66000009
   18.48305511   89.99490356    4.90999985    2.67000008
   18.48638916   86.45749664    4.90999985    2.64000010
   18.48972321   95.40419769    4.90999985    2.66000009
   18.49555588   95.40419769    4.90999985    2.66000009
   18.49972153  102.74299622    4.90999985    2.66000009
   18.50277710  100.99500275    4.90999985    2.66000009
   18.50555611   95.83750153    4.90999985    2.64000010
   18.50666618  105.31800079    4.90999985    2.64000010
   18.50972176   91.66300201    4.90999985    2.67000008
   18.51305580   91.16110229    4.90999985    2.64000010
   18.51611137   92.26679993    4.90999985    2.66000009
   18.51944351   91.36990356    4.57999992    2.67000008
   18.52277756   95.97059631    3.86999989    2.69000006
   18.52583313   84.78520203    3.28999996    2.71000004
   18.52916718   94.82499695    2.78999996    2.71000004
   18.53249931   88.15419769    2.32999992    2.71000004
   18.53833199   88.15419769    1.69000006    2.73000002
   18.55666542   82.79209900    1.30999994    2.73000002
   18.55999947   99.97599792    1.13000000    2.73000002
   18.56333351   91.57089996    0.98000002    2.75000000
   18.56638718   88.22720337    0.75000000    2.75000000
   18.56972313   91.04570007    0.75000000    2.75000000
   18.57277870   79.65509796    0.75000000    2.73000002
   18.57611275   90.02649689    0.83999997    2.75000000
   18.58139038   90.02649689    0.89999998    2.75000000
   18.58555603   95.98159790    1.09000003    2.73000002
   18.58889008   86.20809937    0.95999998    2.75000000
   18.58972359   85.27400208    0.95999998    2.75000000
   18.59250069   87.31890106    0.81999999    2.75000000
   18.59583473   90.12039948    0.81999999    2.75000000
   18.59889030  101.93199921    0.81999999    2.75000000
   18.60222244   99.71779633    1.01999998    2.73000002
   18.60555649   91.94709778    1.25000000    2.75000000
   18.60861206   85.93129730    1.39999998    2.73000002
   18.61194420   96.49639893    1.50000000    2.73000002
   18.61499977   96.44499969    1.48000002    2.75000000
   18.61833382   89.61720276    1.51999998    2.73000002
   18.62444496   89.61720276    1.64999998    2.73000002
   18.62833405   82.99680328    1.61000001    2.73000002
   18.63166618   85.18560028    1.58000004    2.75000000
   18.63500023   90.87850189    1.80999994    2.73000002
   18.63805580   93.88279724    2.15000010    2.71000004
   18.64138794   87.05909729    2.11999989    2.71000004
   18.64472198   93.03279877    2.09999990    2.73000002
   18.64777756   91.49859619    1.71000004    2.73000002
   18.65111160  100.87799835    2.03999996    2.73000002
   18.65416718   83.56250000    3.32999992    2.64000010
   18.65638924   90.18910217    4.90999985    2.67000008
   18.65805435   93.75520325    4.90999985    2.66000009
   18.66138840   85.51239777    4.90999985    2.66000009
   18.66722107   85.51239777    4.90999985    2.64000010
   18.67138863   91.67430115    4.90999985    2.69000006
   18.67444420   79.88379669    4.82999992    2.71000004
   18.67777634   92.81220245    4.38999987    2.69000006
   18.68111038   85.07450104    4.90999985    2.64000010
   18.68416595   89.20500183    4.90999985    2.59999990
   18.68750000   84.28520203    4.90999985    2.66000009
   18.68972206   97.39409637    4.51000023    2.71000004
   18.69138718   91.36109924    3.80999994    2.71000004
   18.69444275   89.13600159    1.86000001    2.73000002
   18.69777679   -1.00000000    1.09000003    2.75000000
   18.70083427   -1.00000000    0.98000002    2.73000002
   18.70416832   -1.00000000    1.14999998    2.75000000
   18.71416664   96.26390076    0.69000000    2.73000002
   18.71722221   88.85030365    1.23000002    2.75000000
   18.72055626   96.64859772    2.03999996    2.75000000
   18.72305679  106.25700378    4.53000021    2.64000010
   18.72416687  108.29900360    4.90999985    2.53999996
   18.72750092  131.22700500    4.90999985    2.50000000
   18.73055649  131.33500671    4.90999985    2.28999996
   18.73388863  117.09899902    4.90999985    2.32999992
   18.73722267  113.45899963    4.90999985    2.34999990
   18.74027824  105.93099976    4.90999985    2.44000006
   18.74361229  122.21800232    4.90999985    2.48000002
   18.74666786  127.58100128    4.90999985    2.39000010
   18.75277710  127.58100128    4.90999985    2.44000006
   18.75694466   93.08699799    4.90999985    2.67000008
   18.76027870   95.09500122    4.90999985    2.73000002
   18.76333427  180.28799438    4.90999985    2.59999990
   18.76666641   -1.00000000    4.90999985    1.85000002
   18.77000046  265.13800049    4.90999985    1.98000002
   18.77305603  127.27899933    4.90999985    1.85000002
   18.77638817  109.69899750    4.90999985    2.50000000
   18.77972221   96.46589661    4.90999985    2.73000002
   18.78277779  103.85600281    1.48000002    2.73000002
   18.78610992   88.45099640    1.11000001    2.73000002
   18.78916550  100.14399719    1.19000006    2.75000000
   18.78972244   99.76809692    1.19000006    2.75000000
   18.79555511   99.76809692    0.88000000    2.75000000
   18.79972076   88.67019653    0.80000001    2.73000002
   18.80305481   93.71730042    2.80999994    2.75000000
   18.80638885  102.00000000    3.55999994    2.75000000
   18.80944443  100.67299652    4.90999985    2.71000004
   18.81277657   77.23760223    4.90999985    2.75000000
   18.81611061  106.48999786    4.90999985    2.67000008
   18.81916809  152.92199707    4.90999985    2.53999996
   18.82250023  100.96800232    4.90999985    2.34999990
   18.82305717   95.60179901    4.90999985    2.46000004
   18.82611275   98.52819824    4.90999985    2.66000009
   18.82944489  113.16500092    4.90999985    2.71000004
   18.83250046  187.94099426    4.90999985    2.36999989
   18.83861160  187.94099426    4.90999985    2.66000009
   18.84277916  218.33599854    4.90999985    2.34999990
   18.84583473  177.39500427    4.90999985    2.17000008
   18.84916687  122.69999695    4.90999985    2.19000006
   18.85222244  169.47399902    4.90999985    2.36999989
   18.85555649  126.56099701    4.90999985    2.23000002
   18.85639000  145.51300049    4.90999985    2.32999992
   18.85916710   -1.00000000    4.90999985    2.11999989
   18.86250114   93.01589966    4.90999985    1.85000002
   18.86555672   95.63379669    4.90999985    2.64000010
   18.86888885   81.08840179    4.90999985    2.69000006
   18.87194443   97.58999634    4.90999985    2.71000004
   18.87527847  122.26399994    4.90999985    2.61999989
   18.88138962  122.26399994    4.90999985    2.32999992
   18.88555527   92.14409637    4.90999985    2.66000009
   18.88861084   91.30039978    4.90999985    2.75000000
   18.88972282   88.81569672    4.90999985    2.73000002
   18.89222145   93.80780029    4.90999985    2.75000000
   18.89555550   88.90160370    4.90999985    2.67000008
   18.89861107   87.18910217    4.90999985    2.71000004
   18.90194321   85.54270172    4.88999987    2.73000002
   18.90527725  213.13200378    4.46999979    2.69000006
   18.90833282   -1.00000000    4.78000021    2.69000006
   18.91166687   -1.00000000    4.90999985    2.69000006
   18.91472244   -1.00000000    3.75000000    2.75000000
   18.91805458   -1.00000000    2.46000004    2.75000000
   18.92833328   -1.00000000    0.89999998    2.73000002
   18.93138885   -1.00000000    1.38000000    2.73000002
   18.93472099   -1.00000000    1.85000002    2.73000002
   18.93805504   -1.00000000    2.64000010    2.71000004
   18.94111061   -1.00000000    4.90999985    2.66000009
   18.94444275   -1.00000000    4.90999985    2.53999996
   18.94749832  338.48199463    4.90999985    2.53999996
   18.94972038  249.52499390    4.90999985    2.51999998
   18.94972038   -1.00000000    0.89999998    2.73000002
   18.94972038   -1.00000000    1.38000000    2.73000002
   18.95000076   -1.00000000    1.85000002    2.73000002
   18.95000076   -1.00000000    2.64000010    2.71000004
   18.95000076   -1.00000000    4.90999985    2.66000009
   18.95027924   -1.00000000    4.90999985    2.53999996
   18.95027924  338.48199463    4.90999985    2.53999996
   18.95055580   -1.00000000    3.75000000    2.75000000
   18.95055580   -1.00000000    2.46000004    2.75000000
   18.95250130   96.09049988    4.90999985    2.39000010
   18.95583344   89.30359650    4.90999985    2.64000010
   18.95888901   87.76609802    4.90999985    2.73000002
   18.96222305  100.07199860    3.03999996    2.73000002
   18.96527863   91.56549835    3.25000000    2.71000004
   18.97055626   91.56549835    4.90999985    2.66000009
   18.97472191   90.14140320    3.18000007    2.71000004
   18.97777748   93.75070190    1.51999998    2.73000002
   18.98111153   88.32869720    0.95999998    2.73000002
   18.98361206   87.70300293    0.70999998    2.73000002
   18.98472214   95.87449646    0.70999998    2.73000002
   18.98805618   95.21880341    0.63000000    2.73000002
   18.99138832   90.19909668    0.56999999    2.73000002
   18.99444389   81.99539948    0.56999999    2.73000002
   18.99777794   76.60849762    0.56999999    2.73000002
   19.00083351   84.40720367    0.64999998    2.73000002
   19.00416756   96.54640198    0.75000000    2.73000002
   19.00749969   95.38430023    4.90999985    2.75000000
   19.01333427   95.38430023    4.90999985    2.48000002
   19.01749992  110.25099945    4.90999985    2.50000000
   19.02083397  105.27700043    4.90999985    2.50000000
   19.02388954   91.72579956    4.90999985    2.50000000
   19.02722168  133.03999329    4.90999985    2.48000002
   19.03027725  272.30700684    4.90999985    2.42000008
   19.03361130  266.97299194    4.90999985    2.11999989
   19.03694344  143.14799500    4.90999985    2.26999998
   19.03999901  114.04499817    4.90999985    2.30999994
   19.04333305  101.55400085    4.90999985    2.44000006
   19.04666710   88.46050262    4.90999985    2.53999996
   19.04972076   93.82849884    4.90999985    2.67000008
   19.05027771   94.56300354    4.11999989    2.69000006
   19.05611038   94.56300354    1.16999996    2.71000004
   19.06027794   85.91510010    1.36000001    2.73000002
   19.06361008   85.43219757    0.81999999    2.73000002
   19.06666756   84.06449890    1.16999996    2.73000002
   19.07000160   99.75240326    4.01999998    2.66000009
   19.07333374   86.25910187    4.90999985    2.64000010
   19.07638931  117.62899780    4.90999985    2.50000000
   19.07972336  142.73399353    4.90999985    2.30999994
   19.08277893   -1.00000000    4.90999985    1.89999998
   19.08638954   -1.00000000    4.90999985    1.94000006
   19.08972359   -1.00000000    4.90999985    1.94000006
   19.09305573  103.68900299    4.90999985    1.98000002
   19.09889030  103.68900299    4.90999985    2.34999990
   19.10305595   95.18209839    4.90999985    2.59999990
   19.10639000   92.40609741    2.44000006    2.73000002
   19.10972214   84.24539948    1.33000004    2.73000002
   19.11277771   86.84159851    0.56999999    2.73000002
   19.11611176   83.28479767    0.56999999    2.71000004
   19.11694527   91.45200348    0.61000001    2.71000004
   19.11972237   85.03070068    0.89999998    2.71000004
   19.12277794   83.86930084    1.09000003    2.73000002
   19.12611198   86.47000122    1.14999998    2.71000004
   19.12944412   81.89520264    1.21000004    2.71000004
   19.13249969   91.29319763    1.78999996    2.69000006
   19.13583374   84.04530334    1.71000004    2.71000004
   19.14194489   84.04530334    1.39999998    2.71000004
   19.14611053   82.61280060    1.16999996    2.71000004
   19.14916611   82.01730347    0.80000001    2.73000002
   19.15027809   90.25489807    0.81999999    2.71000004
   19.15305519   91.09559631    0.81999999    2.71000004
   19.15611076   84.29190063    0.75000000    2.71000004
   19.15944481   82.52439880    1.71000004    2.73000002
   19.16277695   86.89150238    2.96000004    2.73000002
   19.16583252   91.42759705    4.90999985    2.73000002
   19.16916656   88.16809845    4.90999985    2.73000002
   19.17222214   95.30300140    4.90999985    2.75000000
   19.17555428  119.78299713    4.90999985    2.44000006
   19.17888832   99.00800323    4.90999985    2.51999998
   19.18472099   99.00800323    4.90999985    2.39000010
   19.18888855   93.24189758    4.90999985    2.53999996
   19.19194412   93.60630035    4.90999985    2.55999994
   19.19527626   94.19689941    4.90999985    2.55999994
   19.19861031  194.52900696    4.90999985    2.57999992
   19.20166779   82.74389648    4.90999985    2.30999994
   19.20499992   99.39009857    4.90999985    2.66000009
   19.20833397   83.72160339    4.90999985    2.53999996
   19.21138954   97.96279907    4.90999985    2.64000010
   19.21472359  126.69300079    4.90999985    2.44000006
   19.21694565  105.15399933    4.90999985    2.30999994
   19.21833420  111.40399933    4.90999985    2.44000006
   19.22138977  116.09500122    4.90999985    2.34999990
   19.22750092  116.09500122    4.90999985    2.53999996
   19.23166656   97.20559692    4.90999985    2.73000002
   19.23500061  112.28299713    4.90999985    2.69000006
   19.23805618  126.15699768    4.90999985    2.42000008
   19.24138832  113.27500153    4.90999985    2.34999990
   19.24444389  102.13099670    4.90999985    2.48000002
   19.24777794   95.26699829    4.90999985    2.51999998
   19.25027847  101.18099976    4.90999985    2.64000010
   19.25138855   92.84880066    4.90999985    2.59999990
   19.25444412   85.63510132    4.84999990    2.66000009
   19.25777817   94.09970093    2.13000011    2.71000004
   19.26111031   94.44349670    1.48000002    2.71000004
   19.26416588   83.96959686    2.96000004    2.67000008
   19.27027702   83.96959686    3.39000010    2.69000006
   19.27444458   86.21600342    0.95999998    2.69000006
   19.27777672   89.12850189    0.79000002    2.69000006
   19.28111076   89.34940338    0.76999998    2.69000006
   19.28361130   85.30079651    0.80000001    2.69000006
   19.28472137   87.70999908    0.81999999    2.71000004
   19.28777695   87.19629669    0.61000001    2.69000006
   19.29111099   84.58560181    0.61000001    2.71000004
   19.29444313   83.05310059    0.61000001    2.71000004
   19.29749870   89.14199829    0.61000001    2.69000006
   19.30083275   88.75399780    0.61000001    2.69000006
   19.30416679   87.70809937    0.61000001    2.69000006
   19.30722237   82.97149658    0.61000001    2.69000006
   19.31333351   82.97149658    0.61000001    2.71000004
   19.31750107   95.46130371    0.58999997    2.69000006
   19.32055664   88.31060028    0.58999997    2.69000006
   19.32389069  100.31500244    0.58999997    2.69000006
   19.32694626   99.25440216    0.58999997    2.69000006
   19.33027840   90.99579620    0.61000001    2.71000004
   19.33361244   90.71029663    0.61000001    2.69000006
   19.33666801   95.25849915    0.63000000    2.69000006
   19.34000015   88.14830017    0.67000002    2.69000006
   19.34333420   85.30239868    0.86000001    2.69000006
   19.34638977   82.38349915    0.98000002    2.69000006
   19.34972191   83.73889923    0.79000002    2.69000006
   19.35027885   81.12000275    0.79000002    2.69000006
   19.35611153   81.12000275    0.79000002    2.69000006
   19.36027908   91.30829620    0.81999999    2.69000006
   19.36333466   81.21459961    0.81999999    2.69000006
   19.36666679   97.32060242    0.76999998    2.69000006
   19.37000084   85.12979889    0.95999998    2.67000008
   19.37305641   86.98220062    1.21000004    2.69000006
   19.37638855   90.12570190    1.30999994    2.66000009
   19.37944412   91.27239990    1.66999996    2.69000006
   19.38277817   88.27269745    2.09999990    2.67000008
   19.38361168   92.43009949    2.21000004    2.66000009
   19.38638878   83.96230316    2.69000006    2.64000010
   19.38944435   92.80329895    3.70000005    2.64000010
   19.39277840   84.35279846    4.21999979    2.66000009
   19.39888954   84.35279846    1.71000004    2.69000006
   19.40305519   90.63349915    1.13000000    2.69000006
   19.40638924   90.59130096    0.73000002    2.67000008
   19.40944481   82.82740021    0.70999998    2.69000006
   19.41277695   80.72149658    0.70999998    2.69000006
   19.41583252   81.77749634    0.73000002    2.69000006
   19.41694450   86.13009644    0.73000002    2.69000006
   19.41972160   88.16600037    0.70999998    2.69000006
   19.42277718   86.59619904    0.70999998    2.69000006
   19.42611122   91.05919647    0.70999998    2.67000008
   19.42944336   92.22200012    0.70999998    2.69000006
   19.43249893   82.92279816    0.79000002    2.69000006
   19.43583298   93.11380005    0.80000001    2.67000008
   19.44166565   93.11380005    2.80999994    2.66000009
   19.44583321   88.20149994    3.80999994    2.66000009
   19.44916534  103.05100250    4.86999989    2.64000010
   19.45027924  115.48999786    4.90999985    2.51999998
   19.45277786   93.57990265    4.90999985    2.48000002
   19.45583344   93.63880157    4.90999985    2.64000010
   19.45916748   95.00379944    4.90999985    2.59999990
   19.46250153  100.95200348    4.90999985    2.53999996
   19.46555710   88.37509918    4.90999985    2.53999996
   19.46888924   88.60579681    4.90999985    2.61999989
   19.47222328   92.12719727    4.90999985    2.53999996
   19.47527885   94.63289642    4.90999985    2.50000000
   19.47861099  105.80799866    4.90999985    2.61999989
   19.48472214  105.80799866    4.90999985    2.48000002
   19.48861122   88.61990356    4.90999985    2.64000010
   19.49194527   85.94969940    2.80999994    2.69000006
   19.49527740   87.85209656    1.48000002    2.69000006
   19.49833298   95.27749634    0.98000002    2.67000008
   19.50166702   91.78070068    0.80000001    2.69000006
   19.50499916   81.74949646    0.69000000    2.69000006
   19.50805473   85.57779694    0.67000002    2.69000006
   19.51138878   87.18460083    0.64999998    2.69000006
   19.51444435   90.56620026    0.64999998    2.67000008
   19.51694489   86.58540344    0.63000000    2.69000006
   19.51833344   91.18440247    0.70999998    2.69000006
   19.52166557   86.33180237    0.75000000    2.69000006
   19.52750015   86.33180237    0.75000000    2.67000008
   19.53166580   90.52500153    0.76999998    2.69000006
   19.53472137   92.94120026    0.75000000    2.69000006
   19.53805542   92.77950287    0.79000002    2.69000006
   19.54138756   86.34529877    0.79000002    2.69000006
   19.54444313   86.27980042    0.76999998    2.67000008
   19.54777718   89.17669678    0.76999998    2.67000008
   19.55027771   87.39589691    0.76999998    2.67000008
   19.55138779   91.09940338    0.76999998    2.67000008
   19.55472183   84.53579712    0.83999997    2.69000006
   19.57750130   84.53579712    4.90999985    2.55999994
   19.58166695   93.74780273    4.90999985    2.50000000
   19.58361244  125.80100250    4.90999985    2.55999994
   19.58527756  104.91999817    4.90999985    2.44000006
   19.58861160  101.51599884    4.90999985    2.51999998
   19.59166718  193.47099304    4.90999985    2.40000010
   19.59500122  161.98100281    4.90999985    2.11999989
   19.59805679  186.65199280    4.90999985    2.25000000
   19.60138893  177.78599548    4.90999985    2.15000010
   19.60472298  124.45899963    4.90999985    2.19000006
   19.60777855  114.13500214    4.90999985    2.34999990
   19.61111069  111.25599670    4.90999985    2.34999990
   19.61444473  125.37500000    4.90999985    2.34999990
   19.62027740  125.37500000    4.90999985    2.30999994
   19.62416649  110.86000061    4.90999985    2.21000004
   19.62750053   98.60019684    4.90999985    2.39000010
   19.63083267  108.14800262    4.90999985    2.46000004
   19.63388824   90.97129822    4.90999985    2.50000000
   19.63722229   94.95010376    4.90999985    2.51999998
   19.64055634   94.49819946    4.90999985    2.50000000
   19.64361191   97.98049927    4.90999985    2.55999994
   19.64694405   82.38480377    4.90999985    2.59999990
   19.64999962   90.37190247    4.90999985    2.57999992
   19.65111160   79.68409729    4.90999985    2.57999992
   19.65361023   89.56289673    4.90999985    2.55999994
   19.65694427   96.60199738    4.90999985    2.55999994
   19.66305542   96.60199738    4.90999985    2.53999996
   19.66722107   90.61859894    4.90999985    2.53999996
   19.67027664   86.50759888    4.90999985    2.57999992
   19.67361069   97.71299744    4.90999985    2.55999994
   19.67694473  124.65399933    4.90999985    2.53999996
   19.68000031   94.73290253    4.90999985    2.36999989
   19.68333244  114.01799774    4.90999985    2.40000010
   19.68444443  107.08599854    4.90999985    2.30999994
   19.68666649  112.70200348    4.90999985    2.40000010
   19.68999863  121.36900330    4.90999985    2.30999994
   19.69333267  107.42400360    4.90999985    2.30999994
   19.69638824  122.25700378    4.90999985    2.39000010
   19.69972038  174.29200745    4.90999985    2.26999998
   19.70583344  174.29200745    4.90999985    1.88000000
   19.71000099   -1.00000000    4.90999985    1.30999994
   19.71305656   -1.00000000    4.90999985    1.03999996
   19.71638870   -1.00000000    4.90999985    1.13000000
   19.72000122   -1.00000000    4.90999985    1.16999996
   19.72305679   -1.00000000    4.90999985    1.13000000
   19.72638893   -1.00000000    4.90999985    1.07000005
   19.72972298   -1.00000000    4.90999985    0.92000002
   19.73277855   -1.00000000    4.90999985    0.61000001
   19.73611069   -1.00000000    4.90999985    0.46000001
   19.73944473   -1.00000000    4.90999985    0.55000001
   19.74250031   -1.00000000    4.90999985    0.67000002
   19.75277710   -1.00000000    4.90999985    0.86000001
   19.75583267   57.52050018    4.90999985    1.07000005
   19.75916672  121.94699860    4.90999985    2.07999992
   19.76250076   82.74960327    4.90999985    2.50000000
   19.76555634   99.37270355    4.90999985    2.57999992
   19.76888847  112.44899750    4.90999985    2.59999990
   19.77222252  100.47299957    4.90999985    2.57999992
   19.77527809  110.82299805    4.90999985    2.48000002
   19.77861023   94.71949768    4.90999985    2.50000000
   19.78166580  114.55100250    4.90999985    2.48000002
   19.78472137  100.89800262    4.90999985    2.39000010
   19.78527641  103.70400238    4.90999985    2.39000010
   19.79166603  103.70400238    4.90999985    2.55999994
   19.79555511  118.89099884    4.90999985    2.30999994
   19.79888916  193.84100342    4.90999985    2.25000000
   19.80222130  184.92900085    4.90999985    2.23000002
   19.80527687   -1.00000000    4.90999985    1.71000004
   19.80861092   -1.00000000    4.90999985    1.83000004
   19.81194305   -1.00000000    4.90999985    1.44000006
   19.81499863   -1.00000000    4.90999985    1.55999994
   19.81861115   -1.00000000    4.90999985    1.63000000
   19.82166672   -1.00000000    4.90999985    1.69000006
   19.82500076   -1.00000000    4.90999985    1.80999994
   19.82833481   -1.00000000    4.90999985    1.71000004
   19.83444595   -1.00000000    4.90999985    1.66999996
   19.83861160   -1.00000000    4.90999985    1.73000002
   19.84166718   -1.00000000    4.90999985    1.66999996
   19.84500122   -1.00000000    4.90999985    1.60000002
   19.84805679   -1.00000000    4.90999985    1.44000006
   19.85166740   -1.00000000    4.90999985    1.46000004
   19.85472298   -1.00000000    4.90999985    1.58000004
   19.85805511   -1.00000000    4.90999985    1.78999996
   19.86138916   -1.00000000    4.90999985    1.85000002
   19.86444473   -1.00000000    4.90999985    1.78999996
   19.86777878   -1.00000000    4.90999985    1.89999998
   19.87111092   63.22719955    4.90999985    1.86000001
   19.87722206   63.22719955    4.90999985    2.05999994
   19.88138962  304.57501221    4.90999985    1.94000006
   19.88333321   60.78919983    4.90999985    1.98000002
   19.88361168   -1.00000000    4.90999985    1.44000006
   19.88361168   -1.00000000    4.90999985    1.46000004
   19.88361168   -1.00000000    4.90999985    1.58000004
   19.88388824   -1.00000000    4.90999985    1.78999996
   19.88388824   -1.00000000    4.90999985    1.85000002
   19.88388824   -1.00000000    4.90999985    1.78999996
   19.88416672   -1.00000000    4.90999985    1.89999998
   19.88416672   63.22719955    4.90999985    1.86000001
   19.88416672  304.57501221    4.90999985    1.94000006
   19.88611031   -1.00000000    4.90999985    1.88000000
   19.88944435   -1.00000000    4.90999985    1.80999994
   19.89277840   -1.00000000    4.90999985    1.89999998
   19.89583397   -1.00000000    4.90999985    1.88000000
   19.89916611   -1.00000000    4.90999985    1.88000000
   19.90416718   -1.00000000    4.90999985    1.96000004
   19.90833282  178.86700439    4.90999985    1.88000000
   19.91166687  311.37701416    4.90999985    2.01999998
   19.91361046  184.02200317    4.90999985    2.01999998
   19.91361046   -1.00000000    4.90999985    1.88000000
   19.91388893   -1.00000000    4.90999985    1.80999994
   19.91388893   -1.00000000    4.90999985    1.89999998
   19.91388893   -1.00000000    4.90999985    1.88000000
   19.91416550   -1.00000000    4.90999985    1.88000000
   19.91416550  178.86700439    4.90999985    1.88000000
   19.91416550  311.37701416    4.90999985    2.01999998
   19.91611099  184.91700745    4.90999985    2.11999989
   19.91944313  148.78999329    4.90999985    2.17000008
   19.92277718  122.39399719    4.90999985    2.26999998
   19.92583275  105.46800232    4.90999985    2.28999996
   19.92916679  114.38600159    4.90999985    2.32999992
   19.93444443  114.38600159    4.90999985    2.25000000
   19.93861008  218.60299683    4.90999985    2.25000000
   19.94166565  199.21400452    4.90999985    2.07999992
   19.94499969   -1.00000000    4.90999985    2.05999994
   19.94749832  182.70700073    4.90999985    1.86000001
   19.94861031  155.61399841    4.90999985    2.03999996
   19.95194435  163.76499939    4.90999985    2.17000008
   19.95527840  148.06599426    4.90999985    2.19000006
   19.95833397  136.16200256    4.90999985    2.19000006
   19.96166801  122.63700104    4.90999985    2.30999994
   19.96500015  198.60600281    4.90999985    2.15000010
   19.96805573  270.34100342    4.90999985    2.03999996
   19.97138977  168.76800537    4.90999985    2.09999990
   19.97722244  168.76800537    4.90999985    2.05999994
   19.98139000  168.17199707    4.90999985    2.19000006
   19.98472214  176.15499878    4.90999985    2.17000008
   19.98777771  140.58000183    4.90999985    2.17000008
   19.99111176  138.27099609    4.90999985    2.40000010
   19.99444389  118.18000031    4.90999985    2.39000010
   19.99749947  120.55799866    4.90999985    2.40000010
   20.00083351  122.05400085    4.90999985    2.39000010
   20.00416756  118.76399994    4.90999985    2.34999990
   20.00722313  125.33999634    4.90999985    2.28999996
   20.01055527  133.30900574    4.90999985    2.30999994
   20.01361084  117.29799652    4.90999985    2.36999989
   20.01416588  131.48500061    4.90999985    2.36999989
   20.02000046  131.48500061    4.90999985    2.40000010
   20.02416611  112.71299744    4.90999985    2.40000010
   20.02750015  111.63800049    4.90999985    2.39000010
   20.03055573  118.44499969    4.90999985    2.40000010
   20.03388786  105.84200287    4.90999985    2.39000010
   20.03722191  106.40100098    4.90999985    2.40000010
   20.04027748  112.87100220    4.90999985    2.36999989
   20.04361153  117.57399750    4.90999985    2.26999998
   20.04694366  119.82099915    4.90999985    2.32999992
   20.04749870  126.77899933    4.90999985    2.34999990
   20.05055428  109.08000183    4.90999985    2.32999992
   20.05388832  125.02200317    4.90999985    2.30999994
   20.05694389  116.49900055    4.90999985    2.44000006
   20.06305504  116.49900055    4.90999985    2.42000008
   20.06694603  122.64499664    4.90999985    2.34999990
   20.07027817  220.96400452    4.90999985    2.28999996
   20.07361221  279.48098755    4.90999985    2.13000011
   20.07666779  152.14700317    4.90999985    2.07999992
   20.08000183  279.42999268    4.90999985    2.03999996
   20.08083344   -1.00000000   -1.00000000   -1.00000000
   20.08361244   91.48580170    4.90999985    1.94000006
   20.08694458   -1.00000000    4.90999985    1.80999994
   20.09000015   -1.00000000    4.90999985    1.00000000
   20.09333420   -1.00000000    4.90999985    0.67000002
   20.09666824   -1.00000000    4.90999985    0.67000002
   20.09972191   -1.00000000    4.90999985    0.69000000
   20.10583305   -1.00000000    4.90999985    0.83999997
   20.11000061   -1.00000000    4.90999985    1.63000000
   20.11305618   -1.00000000    4.90999985    1.83000004
   20.11666679   -1.00000000    4.90999985    1.48000002
   20.11972237   -1.00000000    4.90999985    1.55999994
   20.12305641   -1.00000000    4.90999985    1.71000004
   20.12638855   -1.00000000    4.90999985    1.36000001
   20.12944412   -1.00000000    4.90999985    1.19000006
   20.13277817   -1.00000000    4.90999985    1.21000004
   20.13583374   -1.00000000    4.90999985    1.39999998
   20.13916588   -1.00000000    4.90999985    1.44000006
   20.14249992   -1.00000000    4.90999985    1.48000002
   20.14861107   -1.00000000    4.90999985    1.98000002
   20.15277672  242.10899353    4.90999985    2.03999996
   20.15611076  266.18399048    4.90999985    2.03999996
   20.15916634  204.20199585    4.90999985    2.07999992
   20.16250038  207.88999939    4.90999985    2.09999990
   20.16555595  219.30299377    4.90999985    2.05999994
   20.16888809  277.09298706    4.90999985    2.09999990
   20.17222214  305.54699707    4.90999985    2.05999994
   20.17416573  258.89599609    4.90999985    2.03999996
   20.17555428  280.52999878    4.90999985    2.05999994
   20.17694473  267.70300293    4.90999985    2.03999996
   20.17833328  302.77200317    4.90999985    2.03999996
   20.17972183  321.74099731    4.90999985    2.01999998
   20.18111038  318.40399170    4.90999985    2.03999996
   20.18249893  286.64801025    4.90999985    2.03999996
   20.18388748  101.26499939    4.90999985    2.00000000
   20.18388748  207.88999939    4.90999985    2.09999990
   20.18388748  219.30299377    4.90999985    2.05999994
   20.18416595  277.09298706    4.90999985    2.09999990
   20.18416595  305.54699707    4.90999985    2.05999994
   20.18416595   -1.00000000    4.90999985    1.44000006
   20.18444443   -1.00000000    4.90999985    1.48000002
   20.18444443  242.10899353    4.90999985    2.03999996
   20.18444443  266.18399048    4.90999985    2.03999996
   20.18472099  204.20199585    4.90999985    2.07999992
   20.18527603  196.74699402    4.90999985    1.94000006
   20.18833160   -1.00000000    4.90999985    1.89999998
   20.19166565   64.01460266    4.90999985    1.89999998
   20.19499969   66.14920044    4.90999985    1.85000002
   20.19805527   44.51470184    4.90999985    1.88000000
   20.20472336   44.51470184    4.90999985    1.89999998
   20.20861244   -1.00000000    4.90999985    1.83000004
   20.21194458   -1.00000000   -1.00000000   -1.00000000
   20.21527863   -1.00000000   -1.00000000   -1.00000000
   20.21888924   -1.00000000    4.90999985    1.80999994
   20.22222328   -1.00000000    4.90999985    1.80999994
   20.22527885   96.26119995    4.90999985    1.88000000
   20.22861099   67.96959686    4.90999985    1.94000006
