    HOUR (UT)   FLARE FACTOR    SKY TESTER    SUN TESTER
   12.90027714   -1.00000000   -1.00000000   -1.00000000
   12.92333412   97.44560242    0.50000000    2.26999998
   12.92666721   93.16359711    0.50000000    2.26999998
   12.93000031   85.85299683    0.50000000    2.26999998
   12.93305588   81.68840027    0.50000000    2.28999996
   12.93638897   93.53730011    0.50000000    2.28999996
   12.93972206   98.37200165    0.50000000    2.28999996
   12.94388866   98.37200165    0.50000000    2.28999996
   12.94777775   87.10929871    0.50000000    2.28999996
   12.95111084   92.47380066    0.50000000    2.28999996
   12.95444393   98.49690247    0.50000000    2.28999996
   12.95666695   91.85679626    0.47999999    2.28999996
   12.95805550  100.64499664    0.47999999    2.28999996
   12.96111107   99.57589722    0.47999999    2.28999996
   12.96444416  100.04199982    0.47999999    2.28999996
   12.96777725   97.74629974    0.47999999    2.28999996
   12.97083282  103.92900085    0.47999999    2.28999996
   12.97416592   86.12030029    0.47999999    2.28999996
   12.97749996   92.45330048    0.47999999    2.30999994
   12.98055553  100.24900055    0.47999999    2.30999994
   12.98666668  100.24900055    0.47999999    2.28999996
   12.99083328   90.31590271    0.47999999    2.30999994
   12.99388885   88.59200287    0.47999999    2.30999994
   12.99722290   93.22380066    0.47999999    2.30999994
   13.00055599   83.64990234    0.47999999    2.28999996
   13.00388908   82.47460175    0.47999999    2.30999994
   13.00749969   85.44709778    0.47999999    2.30999994
   13.01083374   87.39459991    0.47999999    2.30999994
   13.01416683   87.85729980    0.47999999    2.32999992
   13.01749992   84.92769623    0.47999999    2.30999994
   13.02083302   85.60130310    0.47999999    2.30999994
   13.02333355   84.06860352    0.47999999    2.30999994
   13.02444458   80.87020111    0.47999999    2.30999994
   13.02944374   80.87020111    0.47999999    2.30999994
   13.03361130   80.50910187    0.47999999    2.30999994
   13.03666687   88.28919983    0.47999999    2.30999994
   13.04000092   80.93180084    0.47999999    2.30999994
   13.04333401   85.46099854    0.47999999    2.32999992
   13.04638958   78.75669861    0.47999999    2.32999992
   13.04972267   77.79250336    0.47999999    2.32999992
   13.05305576   84.44719696    0.47999999    2.32999992
   13.05611134   86.79070282    0.47999999    2.32999992
   13.05666733   77.72280121    0.47999999    2.32999992
   13.05972195   83.24829865    0.47999999    2.32999992
   13.06305599   77.72290039    0.47999999    2.34999990
   13.06611156   82.86299896    0.47999999    2.32999992
   13.07222176   82.86299896    0.47999999    2.32999992
   13.07638836   93.09700012    0.46000001    2.34999990
   13.07972240   88.47920227    0.46000001    2.32999992
   13.08277798   91.58860016    0.47999999    2.32999992
   13.08611107   81.13259888    0.46000001    2.34999990
   13.08944416   77.01419830    0.46000001    2.34999990
   13.09000015   79.02050018    0.46000001    2.32999992
   13.09305477   75.52770233    0.46000001    2.32999992
   13.09638882   75.53820038    0.46000001    2.32999992
   13.09944439   83.26470184    0.46000001    2.34999990
   13.10277843   81.18869781    0.46000001    2.36999989
   13.10583401   79.29550171    0.46000001    2.36999989
   13.10916710   81.77580261    0.46000001    2.32999992
   13.11527824   81.77580261    0.46000001    2.34999990
   13.11944485   83.84790039    0.46000001    2.34999990
   13.12277794   80.32330322    0.44000000    2.34999990
   13.12333393   84.60479736    0.44000000    2.34999990
   13.12638855   89.26550293    0.44000000    2.34999990
   13.12972260   79.60880280    0.44000000    2.34999990
   13.13277817   84.29609680    0.44000000    2.34999990
   13.13611126   86.10919952    0.44000000    2.36999989
   13.13916683   83.78869629    0.44000000    2.36999989
   13.14249992   83.52960205    0.44000000    2.36999989
   13.14583302   86.41929626    0.44000000    2.36999989
   13.14888859   85.36029816    0.44000000    2.36999989
   13.15222168   86.82820129    0.44000000    2.36999989
   13.15805531   86.82820129    0.44000000    2.36999989
   13.16222191   90.04660034    0.44000000    2.36999989
   13.16527748   93.06369781    0.44000000    2.36999989
   13.16861153   92.03410339    0.44000000    2.36999989
   13.17194462   83.34210205    0.44000000    2.36999989
   13.17500019   97.46910095    0.44000000    2.36999989
   13.17833328   91.87680054    0.44000000    2.36999989
   13.18138885   80.69110107    0.44000000    2.36999989
   13.18472195   79.40080261    0.41999999    2.36999989
   13.18805599   84.77690125    0.41999999    2.36999989
   13.19000053   91.40239716    0.41999999    2.36999989
   13.19166660   81.20169830    0.41999999    2.36999989
   13.19499969   81.33630371    0.41999999    2.36999989
   13.20083332   81.33630371    0.41999999    2.36999989
   13.20499992   91.32160187    0.41999999    2.39000010
   13.20805550   90.74240112    0.41999999    2.39000010
   13.21138859   87.41419983    0.41999999    2.36999989
   13.21472168   86.69129944    0.41999999    2.39000010
   13.21777725   92.55889893    0.41999999    2.39000010
   13.22111034   88.24680328    0.41999999    2.39000010
   13.22333336   87.27110291    0.41999999    2.39000010
   13.22472191   95.33760071    0.41999999    2.39000010
   13.22805500   87.54329681    0.41999999    2.39000010
   13.23111057   87.78520203    0.41999999    2.39000010
   13.23444462   91.27429962    0.41999999    2.39000010
   13.23777771   87.39009857    0.41999999    2.40000010
   13.24361134   87.39009857    0.41999999    2.40000010
   13.24777794   81.42980194    0.41999999    2.39000010
   13.25111103   82.23739624    0.41999999    2.39000010
   13.25416660   84.75029755    0.41999999    2.39000010
   13.25666714   79.14569855    0.41999999    2.40000010
   13.25777817   83.13110352    0.41999999    2.40000010
   13.26111126   87.92430115    0.41999999    2.40000010
   13.26416683   84.14089966    0.41999999    2.40000010
   13.26749992   93.08450317    0.41999999    2.40000010
   13.27083302   84.85079956    0.41999999    2.40000010
   13.27388859   78.14209747    0.41999999    2.40000010
   13.27722168   76.79730225    0.40000001    2.40000010
   13.28055573   77.37149811    0.40000001    2.40000010
   13.28638935   77.37149811    0.40000001    2.40000010
   13.29055595   80.58029938    0.40000001    2.40000010
   13.29388905   78.70459747    0.40000001    2.40000010
   13.29722309   75.18039703    0.40000001    2.40000010
   13.30027771   89.39479828    0.40000001    2.40000010
   13.30361176   93.52220154    0.40000001    2.40000010
   13.30666733   90.46469879    0.40000001    2.40000010
   13.31000042   90.77200317    0.40000001    2.42000008
   13.31333351   89.37319946    0.40000001    2.40000010
   13.31638908   86.82230377    0.40000001    2.40000010
   13.31972218   92.33319855    0.40000001    2.40000010
   13.32305527   90.59079742    0.40000001    2.40000010
   13.32361126   86.61280060    0.40000001    2.40000010
   13.32944393   86.61280060    0.40000001    2.40000010
   13.33388901   85.57070160    0.40000001    2.40000010
   13.33694458   85.29840088    0.40000001    2.42000008
   13.34027767   81.21230316    0.40000001    2.42000008
   13.34361076   89.34210205    0.40000001    2.40000010
   13.34694386   87.38610077    0.40000001    2.42000008
   13.35027790   82.35160065    0.40000001    2.42000008
   13.35388947   89.87879944    0.40000001    2.42000008
   13.35694504   85.96189880    0.40000001    2.42000008
   13.35750008   80.02330017    0.40000001    2.42000008
   13.36083412   85.19229889    0.40000001    2.40000010
   13.36388969   93.42810059    0.40000001    2.42000008
   13.36722279   89.43840027    0.38000000    2.42000008
   13.37222195   89.43840027    0.40000001    2.42000008
   13.37638855   95.46970367    0.40000001    2.44000006
   13.37944412   90.16390228    0.40000001    2.42000008
   13.38277817   91.78330231    0.40000001    2.42000008
   13.38611126   93.12870026    0.40000001    2.44000006
   13.38916683   91.46029663    0.40000001    2.44000006
   13.39027786   93.24220276    0.40000001    2.44000006
   13.39277744   88.79389954    0.40000001    2.44000006
   13.39611053   89.62619781    0.40000001    2.44000006
   13.39916611   88.36660004    0.40000001    2.44000006
   13.40249920   88.76509857    0.40000001    2.44000006
   13.40583324   84.36100006    0.40000001    2.44000006
   13.40888882   86.96520233    0.40000001    2.44000006
   13.41499996   86.96520233    0.40000001    2.44000006
   13.41916656   89.35759735    0.40000001    2.44000006
   13.42250061   88.87509918    0.40000001    2.44000006
   13.42361164   87.41459656    0.40000001    2.44000006
   13.42611122   92.27749634    0.40000001    2.44000006
   13.42944431   86.13629913    0.40000001    2.44000006
   13.43277836   88.28510284    0.40000001    2.44000006
   13.43583298   82.74220276    0.40000001    2.44000006
   13.43916702   81.27380371    0.40000001    2.44000006
   13.44222260   82.45580292    0.40000001    2.44000006
   13.44555569   90.02680206    0.38000000    2.44000006
   13.44888878   95.12139893    0.40000001    2.44000006
   13.45194435   92.81120300    0.40000001    2.44000006
   13.45777798   92.81120300    0.40000001    2.44000006
   13.46194458   87.71130371    0.40000001    2.44000006
   13.46527767   94.29679871    0.40000001    2.46000004
   13.46861076   90.38130188    0.38000000    2.44000006
   13.47166634   99.51679993    0.40000001    2.44000006
   13.47499943   94.65779877    0.38000000    2.44000006
   13.47805500   94.61920166    0.38000000    2.44000006
   13.48138809   85.79499817    0.38000000    2.46000004
   13.48472214  102.02100372    0.40000001    2.44000006
   13.48777771  101.02400208    0.40000001    2.44000006
   13.49027824  103.34600067    0.40000001    2.46000004
   13.49138927   99.02120209    0.38000000    2.46000004
   13.49472237  103.47599792    0.38000000    2.46000004
   13.50083351  103.47599792    0.38000000    2.46000004
   13.50500011   91.43859863    0.38000000    2.46000004
   13.50805569   97.53179932    0.38000000    2.46000004
   13.51138878  100.09300232    0.38000000    2.46000004
   13.51444435   96.14630127    0.38000000    2.46000004
   13.51777744   99.05229950    0.38000000    2.46000004
   13.52111053   95.47219849    0.38000000    2.46000004
   13.52361107  104.42099762    0.38000000    2.46000004
   13.52472210   90.67019653    0.38000000    2.46000004
   13.52805519   99.18599701    0.38000000    2.46000004
   13.53138828   94.98919678    0.38000000    2.46000004
   13.53444481   96.93329620    0.38000000    2.46000004
   13.53777790  100.86699677    0.38000000    2.46000004
   13.54361153  100.86699677    0.38000000    2.48000002
   13.54777813  100.84400177    0.38000000    2.46000004
   13.55083370   97.03540039    0.38000000    2.48000002
   13.55416679  101.63099670    0.38000000    2.48000002
   13.55694485   87.54609680    0.38000000    2.48000002
   13.55777836   91.64859772    0.38000000    2.48000002
   13.56111145   83.16089630    0.38000000    2.48000002
   13.56444454   82.29959869    0.38000000    2.46000004
   13.56750011   84.05740356    0.38000000    2.48000002
   13.57083321   78.21119690    0.38000000    2.48000002
   13.57388878   90.95559692    0.36000001    2.48000002
   13.57722187   97.35089874    0.36000001    2.48000002
   13.58055592  104.62000275    0.36000001    2.48000002
   13.58638859  104.62000275    0.36000001    2.48000002
   13.59055519   92.98210144    0.36000001    2.48000002
   13.59388828   93.52529907    0.36000001    2.48000002
   13.59694386  102.52100372    0.36000001    2.48000002
   13.60027790   96.76049805    0.36000001    2.48000002
   13.60361195  101.38700104    0.36000001    2.48000002
   13.60666752  103.30100250    0.36000001    2.48000002
   13.61000061   98.14730072    0.36000001    2.48000002
   13.61305618   90.69779968    0.36000001    2.48000002
   13.61638927   93.65979767    0.36000001    2.48000002
   13.61972237   94.82360077    0.36000001    2.48000002
   13.62277794   92.29000092    0.38000000    2.50000000
   13.62361145   97.01570129    0.36000001    2.50000000
   13.62916660   97.01570129    0.38000000    2.48000002
   13.63333321   88.61029816    0.38000000    2.48000002
   13.63666630   97.31159973    0.38000000    2.48000002
   13.64000034   92.57540131    0.38000000    2.48000002
   13.64305496   95.53919983    0.38000000    2.48000002
   13.64638901   83.34780121    0.38000000    2.50000000
   13.64944458   82.04489899    0.38000000    2.50000000
   13.65277767   81.14959717    0.38000000    2.50000000
   13.65611076   86.32640076    0.38000000    2.50000000
   13.65694427   87.52439880    0.38000000    2.48000002
   13.65944386   90.98090363    0.38000000    2.50000000
   13.66277695   85.92289734    0.38000000    2.48000002
   13.66611099   83.69100189    0.38000000    2.48000002
   13.67222214   83.69100189    0.38000000    2.48000002
   13.67638874   89.20120239    0.38000000    2.50000000
   13.67944431   94.16339874    0.38000000    2.50000000
   13.68277836   85.11910248    0.38000000    2.50000000
   13.68583298   89.29660034    0.38000000    2.50000000
   13.68916702   89.06259918    0.38000000    2.50000000
   13.69027805   84.35369873    0.38000000    2.48000002
   13.69277763   84.97889709    0.38000000    2.50000000
   13.69611073   83.21540070    0.38000000    2.50000000
   13.69944477   79.11289978    0.38000000    2.50000000
   13.70249939   84.83959961    0.38000000    2.50000000
   13.70583344   86.13739777    0.38000000    2.50000000
   13.70888901   88.71820068    0.38000000    2.51999998
   13.71500015   88.71820068    0.38000000    2.51999998
   13.71916580   91.59570313    0.38000000    2.51999998
   13.72222137   97.46859741    0.38000000    2.51999998
   13.72361088   93.51419830    0.38000000    2.51999998
   13.72583294   95.39179993    0.38000000    2.51999998
   13.72916603   95.72850037    0.38000000    2.50000000
   13.73249912   93.22160339    0.38000000    2.51999998
   13.73555565   89.14859772    0.38000000    2.51999998
   13.73888874   92.41000366    0.38000000    2.51999998
   13.74222279   90.36389923    0.38000000    2.51999998
   13.74527836   90.15969849    0.38000000    2.51999998
   13.74861145   93.04609680    0.38000000    2.51999998
   13.75166702   92.95850372    0.38000000    2.51999998
   13.75777817   92.95850372    0.38000000    2.51999998
   13.76194477   93.52290344    0.38000000    2.51999998
   13.76527786   89.13539886    0.38000000    2.51999998
   13.76833344   82.35260010    0.38000000    2.51999998
   13.77166653   82.41320038    0.38000000    2.51999998
   13.77499962   82.38909912    0.38000000    2.51999998
   13.77805519   81.59950256    0.38000000    2.51999998
   13.78138828   87.30750275    0.38000000    2.51999998
   13.78472233   88.06549835    0.38000000    2.51999998
   13.78777790   80.27980042    0.38000000    2.51999998
   13.79027843   85.80200195    0.38000000    2.51999998
   13.79138947   83.36299896    0.38000000    2.53999996
   13.79472256   90.61150360    0.38000000    2.53999996
   13.80055618   90.61150360    0.38000000    2.51999998
   13.80472279   87.13469696    0.38000000    2.51999998
   13.80805588   98.49269867    0.38000000    2.51999998
   13.81138897  102.51699829    0.38000000    2.51999998
   13.81444454   89.90429688    0.38000000    2.51999998
   13.81777763   91.65170288    0.38000000    2.51999998
   13.82083321  100.99800110    0.38000000    2.51999998
   13.82361126   93.88929749    0.38000000    2.53999996
   13.82444477   98.36229706    0.38000000    2.51999998
   13.82777786   99.12480164    0.38000000    2.51999998
   13.83111095   95.16580200    0.38000000    2.51999998
   13.83416653   95.07070160    0.38000000    2.51999998
   13.83749962   97.41600037    0.38000000    2.53999996
   13.84361076   97.41600037    0.38000000    2.51999998
   13.84749985   96.16200256    0.38000000    2.53999996
   13.85083389  101.83999634    0.38000000    2.53999996
   13.85416698   97.77480316    0.38000000    2.53999996
   13.85694504   88.05650330    0.38000000    2.53999996
   13.85750008   87.39849854    0.38000000    2.53999996
   13.86083412   90.69750214    0.38000000    2.53999996
   13.86416721   84.04989624    0.38000000    2.53999996
   13.86722279   90.82579803    0.38000000    2.53999996
   13.87055588   89.86990356    0.38000000    2.53999996
   13.87388897   96.93679810    0.38000000    2.53999996
   13.87694454   95.99369812    0.38000000    2.53999996
   13.88027763   86.08319855    0.38000000    2.53999996
   13.88638878   86.08319855    0.38000000    2.53999996
   13.89055538   86.95300293    0.38000000    2.53999996
   13.89361095   91.20020294    0.38000000    2.53999996
   13.89694405   91.05889893    0.38000000    2.53999996
   13.90027714   90.86239624    0.38000000    2.53999996
   13.90333271  101.65799713    0.38000000    2.55999994
   13.90666676   88.23249817    0.38000000    2.53999996
   13.90972137   87.37059784    0.38000000    2.53999996
   13.91305542   96.52300262    0.38000000    2.53999996
   13.91638851   96.16220093    0.38000000    2.53999996
   13.91944504   96.91560364    0.38000000    2.53999996
   13.92277813   94.88619995    0.38000000    2.55999994
   13.92361164   88.46939850    0.38000000    2.55999994
   13.94444466   88.46939850    0.36000001    2.55999994
   13.94833374   91.96009827    0.38000000    2.55999994
   13.95166683   91.24440002    0.38000000    2.53999996
   13.95499992   90.20469666    0.38000000    2.55999994
   13.95694447   95.75199890    0.38000000    2.53999996
   13.95833302   86.59770203    0.38000000    2.53999996
   13.96166611   87.53040314    0.38000000    2.53999996
   13.96500015   97.71399689    0.38000000    2.55999994
   13.96805477   99.53369904    0.38000000    2.55999994
   13.97138882   93.64409637    0.38000000    2.55999994
   13.97472191   92.59230042    0.38000000    2.53999996
   13.97777748   99.89689636    0.38000000    2.55999994
   13.98111057   91.42320251    0.38000000    2.55999994
   13.98694515   91.42320251    0.38000000    2.55999994
   13.99111176   97.63079834    0.38000000    2.55999994
   13.99444485   93.23970032    0.38000000    2.55999994
   13.99750042   92.12210083    0.38000000    2.55999994
   14.00083351   88.48860168    0.38000000    2.55999994
   14.00416660   91.47859955    0.38000000    2.55999994
   14.00722218   86.54620361    0.38000000    2.55999994
   14.01055527   83.38809967    0.38000000    2.53999996
   14.01361084   92.90229797    0.38000000    2.55999994
   14.01694393   84.72989655    0.38000000    2.55999994
   14.02027798   87.98940277    0.40000001    2.55999994
   14.02333355   87.06259918    0.40000001    2.55999994
   14.02388859   86.47080231    0.40000001    2.55999994
   14.02999973   86.47080231    0.41999999    2.55999994
   14.03416729   84.60279846    0.40000001    2.55999994
   14.03722286   86.25039673    0.40000001    2.55999994
   14.04055595   84.97789764    0.40000001    2.55999994
   14.04361153   90.55470276    0.40000001    2.55999994
   14.04694462   87.02549744    0.41999999    2.55999994
   14.05027771   81.17169952    0.41999999    2.55999994
   14.05333328   77.06610107    0.41999999    2.55999994
   14.05666733   88.35949707    0.41999999    2.55999994
   14.05722237   84.23919678    0.41999999    2.55999994
   14.06027794   80.36299896    0.41999999    2.55999994
   14.06361103   82.14540100    0.41999999    2.55999994
   14.06666660   92.32260132    0.40000001    2.55999994
   14.07277775   92.32260132    0.41999999    2.55999994
   14.07694435   85.16750336    0.41999999    2.55999994
   14.07999992   84.60710144    0.41999999    2.57999992
   14.08333302   85.35179901    0.41999999    2.55999994
   14.08666611   91.03600311    0.40000001    2.55999994
   14.08972168   86.69270325    0.40000001    2.57999992
   14.09055519   85.28070068    0.40000001    2.57999992
   14.09333324   94.97290039    0.40000001    2.55999994
   14.09666634   87.00039673    0.40000001    2.57999992
   14.09972191   75.45020294    0.40000001    2.57999992
   14.10305595   83.75399780    0.40000001    2.57999992
   14.10638905   85.60800171    0.40000001    2.55999994
   14.10944462   90.74359894    0.40000001    2.55999994
   14.11555576   90.74359894    0.40000001    2.55999994
   14.11972237   89.36499786    0.40000001    2.55999994
   14.12305546   91.45899963    0.40000001    2.55999994
   14.12388897   86.08540344    0.40000001    2.55999994
   14.12666702   83.81050110    0.40000001    2.57999992
   14.13000011   86.53679657    0.40000001    2.55999994
   14.13305569   81.36630249    0.40000001    2.57999992
   14.13638878   88.87349701    0.40000001    2.57999992
   14.13944435   89.35240173    0.40000001    2.55999994
   14.14277744   85.11920166    0.40000001    2.57999992
   14.14611053   83.05590057    0.40000001    2.57999992
   14.14916611   83.12750244    0.40000001    2.57999992
   14.15249920   85.29940033    0.40000001    2.57999992
   14.15833282   85.29940033    0.40000001    2.57999992
   14.16249943   85.69419861    0.40000001    2.57999992
   14.16583252   85.93000031    0.38000000    2.55999994
   14.16916656   79.06430054    0.38000000    2.57999992
   14.17222214   79.07659912    0.38000000    2.55999994
   14.17555618   82.74400330    0.38000000    2.57999992
   14.17888927   78.70030212    0.38000000    2.57999992
   14.18194485   91.03079987    0.38000000    2.57999992
   14.18527794   88.97370148    0.38000000    2.57999992
   14.18833351   90.46170044    0.38000000    2.57999992
   14.19055557   86.85569763    0.38000000    2.59999990
   14.19222260   82.01889801    0.36000001    2.57999992
   14.19555569   79.46399689    0.38000000    2.57999992
   14.20138836   79.46399689    0.38000000    2.57999992
   14.20555496   84.54499817    0.38000000    2.57999992
   14.20861053   83.32230377    0.36000001    2.57999992
   14.21194458   75.99620056    0.36000001    2.59999990
   14.21500015   79.40730286    0.36000001    2.59999990
   14.21833324   84.77059937    0.38000000    2.59999990
   14.22166634   77.79239655    0.38000000    2.57999992
   14.22388840   82.34410095    0.38000000    2.57999992
   14.22527695   83.40270233    0.38000000    2.57999992
   14.22861099   82.16269684    0.38000000    2.57999992
   14.23166656   84.79100037    0.38000000    2.59999990
   14.23500061   88.05059814    0.38000000    2.59999990
   14.23805618   87.26799774    0.38000000    2.59999990
   14.24416733   87.26799774    0.38000000    2.59999990
   14.24833393   83.86129761    0.38000000    2.59999990
   14.25166702   82.66490173    0.36000001    2.59999990
   14.25500011   83.41020203    0.38000000    2.59999990
   14.25722218   94.26609802    0.38000000    2.59999990
   14.25861073   80.75070190    0.38000000    2.59999990
   14.26194477   88.47440338    0.38000000    2.59999990
   14.26500034   84.04260254    0.38000000    2.59999990
   14.26833344   86.58309937    0.38000000    2.59999990
   14.27138901   86.83820343    0.38000000    2.59999990
   14.27472210   94.15070343    0.38000000    2.59999990
   14.27805519   86.58840179    0.38000000    2.59999990
   14.28138828   77.67199707    0.38000000    2.59999990
   14.28694534   77.67199707    0.38000000    2.59999990
   14.29111195   86.05400085    0.38000000    2.59999990
   14.29444504   91.61019897    0.38000000    2.59999990
   14.29750061   89.07340240    0.38000000    2.59999990
   14.30083370   80.38880157    0.38000000    2.59999990
   14.30388927   92.79370117    0.38000000    2.59999990
   14.30722237   96.01760101    0.38000000    2.59999990
   14.31027794   83.25050354    0.38000000    2.59999990
   14.31361103   96.51969910    0.38000000    2.59999990
   14.31694412   98.96710205    0.38000000    2.59999990
   14.31999969   95.04720306    0.38000000    2.59999990
   14.32333374   86.47989655    0.38000000    2.59999990
   14.32388878   83.40390015    0.38000000    2.59999990
   14.32972240   83.40390015    0.38000000    2.57999992
   14.33388901   83.61160278    0.38000000    2.59999990
   14.33722210   91.08589935    0.38000000    2.59999990
   14.34027767   83.66030121    0.38000000    2.59999990
   14.34361076   95.92070007    0.38000000    2.59999990
   14.34694386   88.78839874    0.36000001    2.59999990
   14.35000038   91.18289948    0.38000000    2.59999990
   14.35333347   84.96279907    0.38000000    2.59999990
   14.35666752   83.03299713    0.36000001    2.59999990
   14.35722256   84.54350281    0.38000000    2.59999990
   14.36027813   85.99530029    0.38000000    2.59999990
   14.36361122   87.57849884    0.38000000    2.59999990
   14.36694431   93.45310211    0.38000000    2.59999990
   14.37277794   93.45310211    0.44000000    2.59999990
   14.37666702   83.84339905    0.50000000    2.59999990
   14.38000011   89.36560059    0.51999998    2.59999990
   14.38333321   86.39790344    0.50000000    2.59999990
   14.38638878   89.09120178    0.50000000    2.59999990
   14.38972187   81.96540070    0.50000000    2.59999990
   14.39055538   84.12950134    0.47999999    2.59999990
   14.39333344   83.86540222    0.46000001    2.59999990
   14.39666653   82.74410248    0.47999999    2.61999989
   14.39972210   79.96360016    0.51999998    2.59999990
   14.40305519   75.65440369    0.51999998    2.61999989
   14.40638828   83.87830353    0.50000000    2.61999989
   14.40944386   79.13179779    0.50000000    2.59999990
   14.41555500   79.13179779    0.51999998    2.59999990
   14.41972256   91.10669708    0.47999999    2.59999990
   14.42277813   91.26689911    0.46000001    2.59999990
   14.42416668   85.37760162    0.46000001    2.59999990
   14.42638874   92.89369965    0.46000001    2.59999990
   14.42972279   87.45709991    0.56999999    2.61999989
   14.43277836   85.39019775    0.61000001    2.61999989
   14.43611145   80.11309814    0.73000002    2.61999989
   14.43944454   90.77660370    0.73000002    2.61999989
   14.44250011   81.38240051    0.73000002    2.61999989
   14.44583321   80.12670135    0.73000002    2.59999990
   14.44888878   87.05079651    0.81999999    2.59999990
   14.45222187   82.67199707    0.88000000    2.59999990
   14.45833302   82.67199707    0.92000002    2.59999990
   14.46249962   81.78610229    0.92000002    2.59999990
   14.46583271   82.29139709    0.95999998    2.59999990
   14.46888828   94.68859863    0.94000000    2.61999989
   14.47222137   87.46600342    0.94000000    2.61999989
   14.47527695   89.09049988    0.94000000    2.61999989
   14.47861099   96.93620300    0.88000000    2.59999990
   14.48194408   93.19609833    0.88000000    2.59999990
   14.48500061   85.24810028    0.86000001    2.61999989
   14.48833370   91.29740143    0.83999997    2.61999989
   14.49083328   92.28340149    0.83999997    2.61999989
   14.49194431   90.23729706    0.83999997    2.61999989
   14.49527836   83.79129791    0.81999999    2.61999989
   14.50111103   83.79129791    0.79000002    2.61999989
   14.50527763   82.75150299    0.75000000    2.61999989
   14.50861073   84.40129852    0.73000002    2.61999989
   14.51166630   84.24490356    0.73000002    2.61999989
   14.51500034   81.29759979    0.70999998    2.61999989
   14.51833344   78.31230164    0.69000000    2.61999989
   14.52138901   88.52880096    0.69000000    2.61999989
   14.52416611   79.93620300    0.67000002    2.61999989
   14.52499962   82.53099823    0.67000002    2.61999989
   14.52833271   82.49299622    0.61000001    2.61999989
   14.53138828   77.72209930    0.58999997    2.61999989
   14.53472233   88.99960327    0.52999997    2.61999989
   14.53777790   86.51419830    0.55000001    2.59999990
   14.54416752   86.51419830    0.58999997    2.61999989
   14.54833412   81.14700317    0.61000001    2.64000010
   14.55138874   81.06179810    0.61000001    2.61999989
   14.55472279   86.19989777    0.61000001    2.61999989
   14.55749989   90.46250153    0.58999997    2.61999989
   14.55833340   83.77050018    0.58999997    2.61999989
   14.56166649   84.97979736    0.58999997    2.64000010
   14.56472206   89.97019958    0.61000001    2.61999989
   14.56805515   82.55690002    0.58999997    2.64000010
   14.57138920   86.73449707    0.58999997    2.61999989
   14.57444477   83.40920258    0.56999999    2.61999989
   14.57777786   77.58489990    0.56999999    2.64000010
   14.58083344   81.42980194    0.56999999    2.64000010
   14.58694458   81.42980194    0.51999998    2.61999989
   14.59111118   78.92189789    0.51999998    2.61999989
   14.59416676   78.53859711    0.51999998    2.64000010
   14.59749985   82.20279694    0.51999998    2.64000010
   14.60083389   80.91259766    0.46000001    2.64000010
   14.60388947   81.98840332    0.46000001    2.64000010
   14.60722256   87.75180054    0.46000001    2.64000010
   14.61055565   85.54389954    0.44000000    2.64000010
   14.61361122   83.85910034    0.44000000    2.64000010
   14.61694431   83.67810059    0.44000000    2.64000010
   14.61999989   80.53130341    0.44000000    2.61999989
   14.62333393   84.55650330    0.44000000    2.61999989
   14.62416649   89.07070160    0.44000000    2.61999989
   14.62972260   89.07070160    0.44000000    2.64000010
   14.63388920   79.06629944    0.41999999    2.64000010
   14.63722229   81.28459930    0.41999999    2.61999989
   14.64027786   83.03029633    0.40000001    2.64000010
   14.64361095   83.82859802    0.40000001    2.64000010
   14.64666653   87.69999695    0.38000000    2.64000010
   14.64999962   78.21089935    0.38000000    2.64000010
   14.65333271   92.80000305    0.38000000    2.64000010
   14.65638828   82.38690186    0.38000000    2.64000010
   14.65749931   81.08850098    0.38000000    2.64000010
   14.65999985   80.10849762    0.38000000    2.61999989
   14.66333294   88.64990234    0.38000000    2.64000010
   14.66638851   86.04470062    0.38000000    2.64000010
   14.67277813   86.04470062    0.38000000    2.64000010
   14.67694473   83.25659943    0.38000000    2.64000010
   14.68000031   88.58699799    0.38000000    2.64000010
   14.68333340   80.02210236    0.38000000    2.64000010
   14.68638897   81.90290070    0.38000000    2.64000010
   14.68972206   82.99490356    0.38000000    2.64000010
   14.69083309   87.38929749    0.38000000    2.64000010
   14.69333363   76.28900146    0.38000000    2.64000010
   14.69666672   81.91619873    0.36000001    2.64000010
   14.69972229   83.83840179    0.36000001    2.64000010
   14.70305538   84.46060181    0.36000001    2.66000009
   14.70638847   79.57969666    0.36000001    2.64000010
   14.70944405   87.80239868    0.36000001    2.64000010
   14.71555519   87.80239868    0.36000001    2.64000010
   14.71972179   88.20819855    0.36000001    2.64000010
   14.72277737   93.42199707    0.36000001    2.64000010
   14.72416592   85.12930298    0.36000001    2.64000010
   14.72638798   90.59300232    0.34000000    2.64000010
   14.72972202   86.25879669    0.34000000    2.64000010
   14.73277760   91.52770233    0.34000000    2.64000010
   14.73611164   91.72769928    0.34000000    2.64000010
   14.73944473   83.03820038    0.36000001    2.64000010
   14.74250031   81.32039642    0.36000001    2.64000010
   14.74583340   91.61689758    0.34000000    2.64000010
   14.74888897   83.87629700    0.36000001    2.66000009
   14.75222206   81.00360107    0.36000001    2.64000010
   14.75833321   81.00360107    0.36000001    2.64000010
   14.76249981   87.63059998    0.36000001    2.64000010
   14.76583290   86.08439636    0.36000001    2.64000010
   14.76888847   82.94879913    0.36000001    2.64000010
   14.77222157   81.02760315    0.36000001    2.64000010
   14.77527714   87.38790131    0.36000001    2.64000010
   14.77861118   88.83959961    0.36000001    2.64000010
   14.78194427   76.43949890    0.36000001    2.64000010
   14.78500080   79.10019684    0.36000001    2.64000010
   14.78833389   87.13230133    0.36000001    2.64000010
   14.79083347   84.19789886    0.36000001    2.64000010
   14.79194450   83.26879883    0.36000001    2.64000010
   14.79527855   82.23789978    0.36000001    2.64000010
   14.80111122   82.23789978    0.36000001    2.64000010
   14.80527782   85.09249878    0.36000001    2.64000010
   14.80861092   75.89569855    0.36000001    2.66000009
   14.81166649   78.77519989    0.36000001    2.66000009
   14.81500053   79.65039825    0.34000000    2.66000009
   14.81833363   84.07949829    0.36000001    2.64000010
   14.82138920   79.64170074    0.36000001    2.64000010
   14.82416630   77.31040192    0.36000001    2.64000010
   14.82499981   78.08360291    0.36000001    2.64000010
   14.82833290   84.50309753    0.36000001    2.64000010
   14.83138847   86.45400238    0.36000001    2.64000010
   14.83472157   82.63680267    0.36000001    2.64000010
   14.83805561   91.09059906    0.36000001    2.66000009
   14.84416676   91.09059906    0.36000001    2.64000010
   14.84805489   88.95010376    0.36000001    2.66000009
   14.85138893   88.04360199    0.36000001    2.66000009
   14.85472298   93.43129730    0.36000001    2.66000009
   14.85750008   80.98110199    0.36000001    2.64000010
   14.85805607   92.60540009    0.36000001    2.64000010
   14.86138916   94.06060028    0.36000001    2.64000010
   14.86444473   86.64040375    0.36000001    2.64000010
   14.86777782   90.24369812    0.36000001    2.66000009
   14.87111092   87.82029724    0.38000000    2.64000010
   14.87416649   84.47599792    0.38000000    2.64000010
   14.87750053   81.60440063    0.38000000    2.66000009
   14.88055611   82.79109955    0.38000000    2.64000010
   14.88694477   82.79109955    0.36000001    2.64000010
   14.89111137   87.35240173    0.36000001    2.66000009
   14.89416695   83.83360291    0.36000001    2.64000010
   14.89750004   79.26999664    0.36000001    2.64000010
   14.90083313   84.98179626    0.36000001    2.64000010
   14.90388870   80.50949860    0.36000001    2.66000009
   14.90722179   76.40840149    0.38000000    2.64000010
   14.91027737   82.29889679    0.38000000    2.66000009
   14.91361046   79.34239960    0.38000000    2.66000009
   14.91694450   87.43319702    0.38000000    2.66000009
   14.92000008   77.48310089    0.38000000    2.64000010
   14.92333412   74.89309692    0.38000000    2.64000010
   14.92416668   79.46309662    0.38000000    2.66000009
   14.92972279   79.46309662    0.38000000    2.64000010
   14.93388939   79.64170074    0.40000001    2.64000010
   14.93722248   97.60620117    0.40000001    2.66000009
   14.94027805   79.11620331    0.40000001    2.64000010
   14.95805550   82.84210205    0.44000000    2.64000010
   14.96027756   78.73970032    0.44000000    2.66000009
   14.96361065   87.07109833    0.44000000    2.64000010
   14.96694374   82.95919800    0.44000000    2.64000010
   14.97277737   82.95919800    0.47999999    2.66000009
   14.97694397   78.79109955    0.47999999    2.66000009
   14.98027706   71.80339813    0.44000000    2.66000009
   14.98333359   76.09899902    0.44000000    2.64000010
   14.98666668   75.95130157    0.40000001    2.66000009
   14.98972225   75.15650177    0.40000001    2.66000009
   14.99111176   77.67549896    0.41999999    2.66000009
   14.99333382   75.71340179    0.41999999    2.67000008
   14.99666691   78.51010132    0.44000000    2.64000010
   14.99972248   84.69869995    0.44000000    2.66000009
   15.00305557   89.25669861    0.44000000    2.66000009
   15.00638866   85.36460114    0.44000000    2.66000009
   15.00944424   80.20210266    0.41999999    2.64000010
   15.01555538   80.20210266    0.41999999    2.66000009
   15.01972198   90.17680359    0.44000000    2.64000010
   15.02305508   80.90419769    0.46000001    2.66000009
   15.02444458   87.26100159    0.46000001    2.66000009
   15.02666664   78.54149628    0.47999999    2.64000010
   15.02999973   86.52860260    0.47999999    2.66000009
   15.03305531   85.05549622    0.47999999    2.64000010
   15.03638935   89.63659668    0.51999998    2.64000010
   15.03944492   87.17669678    0.51999998    2.66000009
   15.04277802   80.46920013    0.50000000    2.66000009
   15.04611111   85.27770233    0.51999998    2.66000009
   15.04944515   86.78630066    0.51999998    2.66000009
   15.05277824   83.67990112    0.55000001    2.66000009
   15.05861092   83.67990112    0.61000001    2.67000008
   15.06250000   80.59359741    0.63000000    2.66000009
   15.06583309   81.77860260    0.63000000    2.64000010
   15.06916618   86.25849915    0.64999998    2.64000010
   15.07222176   86.01719666    0.67000002    2.66000009
   15.07555580   80.90440369    0.70999998    2.66000009
   15.07861137   73.73619843    0.73000002    2.66000009
   15.08194447   77.45290375    0.64999998    2.66000009
   15.08527756   82.66230011    0.63000000    2.64000010
   15.08833313   75.85289764    0.58999997    2.66000009
   15.09111118   80.31649780    0.56999999    2.66000009
   15.09194374   82.79850006    0.58999997    2.66000009
   15.09527779   83.02860260    0.61000001    2.66000009
   15.10138893   83.02860260    0.64999998    2.66000009
   15.10555553   76.15059662    0.63000000    2.66000009
   15.10861111   76.87619781    0.56999999    2.66000009
   15.11194515   74.69830322    0.55000001    2.66000009
   15.11527824   80.04499817    0.58999997    2.64000010
   15.11833382   82.25740051    0.63000000    2.66000009
   15.12166691   78.37940216    0.61000001    2.66000009
   15.12472248   77.70680237    0.61000001    2.66000009
   15.12527752   76.62870026    0.61000001    2.66000009
   15.12861156   78.10420227    0.56999999    2.66000009
   15.13194466   82.64730072    0.51999998    2.66000009
   15.13500023   76.93560028    0.50000000    2.66000009
   15.13833332   82.22239685    0.47999999    2.66000009
   15.14416695   82.22239685    0.50000000    2.66000009
   15.14833355   82.42070007    0.50000000    2.67000008
   15.15166664   75.00869751    0.50000000    2.67000008
   15.15472221   75.71330261    0.51999998    2.67000008
   15.15805531   74.41459656    0.51999998    2.66000009
   15.15833282   77.89350128    0.51999998    2.66000009
   15.16166592   75.08820343    0.52999997    2.66000009
   15.16472149   82.04840088    0.52999997    2.67000008
   15.16805553   83.61689758    0.55000001    2.66000009
   15.17111111   74.57070160    0.63000000    2.66000009
   15.17444515   79.95749664    0.69000000    2.67000008
   15.17777824   78.45159912    0.56999999    2.66000009
   15.18083382   85.57969666    0.56999999    2.67000008
   15.18722248   85.57969666    0.58999997    2.66000009
   15.19111156   75.65160370    0.61000001    2.67000008
   15.19444466   78.90619659    0.58999997    2.67000008
   15.19777775   76.88960266    0.58999997    2.66000009
   15.20083332   81.71080017    0.52999997    2.67000008
   15.20416641   80.90609741    0.52999997    2.67000008
   15.20722198   85.52400208    0.51999998    2.66000009
   15.21055508   81.96040344    0.51999998    2.66000009
   15.21388912   84.34339905    0.50000000    2.67000008
   15.21694374   82.72399902    0.50000000    2.67000008
   15.22027779   88.92289734    0.50000000    2.67000008
   15.22333336   83.42220306    0.50000000    2.67000008
   15.22472191   84.42209625    0.50000000    2.67000008
   15.22999954   84.42209625    0.51999998    2.66000009
   15.23416710   82.64890289    0.52999997    2.67000008
   15.23722267   80.40950012    0.52999997    2.67000008
   15.24055576   81.55819702    0.51999998    2.67000008
   15.24361134   84.66290283    0.51999998    2.67000008
   15.24694443   75.00779724    0.47999999    2.67000008
   15.25027752   75.79280090    0.50000000    2.67000008
   15.25333309   81.97419739    0.51999998    2.67000008
   15.25666714   85.05090332    0.51999998    2.67000008
   15.25777817   82.34729767    0.52999997    2.67000008
   15.26027775   81.70469666    0.51999998    2.67000008
   15.26361084   77.82790375    0.50000000    2.67000008
   15.26666641   81.31169891    0.50000000    2.67000008
   15.27277756   81.31169891    0.46000001    2.67000008
   15.27694416   79.63590240    0.46000001    2.67000008
   15.27999973   73.03569794    0.46000001    2.67000008
   15.28333378   74.14119720    0.44000000    2.67000008
   15.28666687   82.89659882    0.40000001    2.67000008
   15.28972244   78.00769806    0.40000001    2.67000008
   15.29111195   82.12359619    0.40000001    2.67000008
   15.29333401   77.97339630    0.40000001    2.67000008
   15.29666710   80.39749908    0.38000000    2.67000008
   15.29972267   78.52819824    0.40000001    2.67000008
   15.39861107   -1.00000000   -1.00000000   -1.00000000
   15.54444504   -1.00000000   -1.00000000   -1.00000000
   15.66111088   -1.00000000   -1.00000000   -1.00000000
   15.71000004   69.50350189    0.38000000    2.69000006
   15.71333313   77.92960358    0.40000001    2.67000008
   15.71638870   81.87030029    0.40000001    2.67000008
   15.71972179   81.16449738    0.40000001    2.69000006
   15.72277737   76.73200226    0.40000001    2.67000008
   15.72611046   76.39270020    0.38000000    2.69000006
   15.73027706   76.39270020    0.38000000    2.69000006
   15.73444462   78.76409912    0.38000000    2.69000006
   15.73750019   81.59120178    0.40000001    2.69000006
   15.74083328   84.47789764    0.40000001    2.71000004
   15.74333382   84.97209930    0.40000001    2.69000006
   15.74444485   84.19529724    0.40000001    2.67000008
   15.74750042   81.25250244    0.40000001    2.69000006
   15.75083351   81.19629669    0.40000001    2.69000006
   15.75416660   83.67169952    0.40000001    2.71000004
   15.75722218   86.65589905    0.40000001    2.71000004
   15.76055527   94.14320374    0.40000001    2.69000006
   15.76361084   77.74610138    0.41999999    2.69000006
   15.76694393   87.25980377    0.41999999    2.71000004
   15.77305508   87.25980377    0.47999999    2.71000004
   15.77722168   87.37429810    0.58999997    2.71000004
   15.78055573   80.51709747    0.75000000    2.69000006
   15.78361130   85.13970184    1.14999998    2.69000006
   15.78694534   85.88330078    1.16999996    2.69000006
   15.79000092   81.51139832    1.19000006    2.69000006
   15.79333401   89.14849854    1.25000000    2.67000008
   15.79666710   86.44599915    1.21000004    2.66000009
   15.79972267   78.41999817    1.13000000    2.67000008
   15.80305576   77.67649841    0.98000002    2.69000006
   15.80611134   84.78209686    0.76999998    2.69000006
   15.80944443   84.05560303    0.56999999    2.69000006
   15.81000042   82.74980164    0.52999997    2.71000004
   15.81611156   82.74980164    0.40000001    2.69000006
   15.81999969   80.87969971    0.40000001    2.69000006
   15.82333374   81.95960236    0.38000000    2.69000006
   15.82666683   87.53540039    0.38000000    2.69000006
   15.82972240   81.00620270    0.38000000    2.69000006
   15.83305550   78.39800262    0.38000000    2.69000006
   15.83611107   75.57379913    0.38000000    2.71000004
   15.83944416   81.88320160    0.38000000    2.71000004
   15.84277725   81.23970032    0.38000000    2.71000004
   15.84333324   79.34439850    0.38000000    2.71000004
   15.84638882   82.39350128    0.38000000    2.69000006
   15.84944439   79.36319733    0.38000000    2.71000004
   15.85277843   87.83000183    0.38000000    2.71000004
   15.85888958   87.83000183    0.38000000    2.71000004
   15.86305618   85.89759827    0.38000000    2.71000004
   15.86638927   84.60040283    0.36000001    2.71000004
   15.86972237   83.43969727    0.36000001    2.67000008
   15.87305546   83.03910065    0.38000000    2.71000004
   15.87611103   80.28890228    0.36000001    2.69000006
   15.87666702   83.69570160    0.38000000    2.69000006
   15.87972260   87.14530182    0.38000000    2.69000006
   15.88277817   83.25289917    0.38000000    2.71000004
   15.88611126   80.10369873    0.36000001    2.69000006
   15.88944435   77.72760010    0.36000001    2.71000004
   15.89249992   78.24680328    0.36000001    2.69000006
   15.89583302   83.56250000    0.36000001    2.69000006
   15.90166664   83.56250000    0.38000000    2.71000004
   15.90583324   87.69750214    0.38000000    2.71000004
   15.90888882   80.19529724    0.38000000    2.69000006
   15.90999985   81.93450165    0.38000000    2.71000004
   15.91277695   79.53330231    0.38000000    2.69000006
   15.91583252   76.07839966    0.40000001    2.71000004
   15.91916656   73.90950012    0.40000001    2.71000004
   15.92250061   80.19159698    0.40000001    2.71000004
   15.92555618   76.66200256    0.40000001    2.71000004
   15.92888927   77.29070282    0.40000001    2.69000006
   15.93194485   80.04540253    0.36000001    2.71000004
   15.93527794   78.35559845    0.36000001    2.71000004
   15.93833351   79.04270172    0.38000000    2.71000004
   15.94444466   79.04270172    0.38000000    2.71000004
   15.94861126   80.35970306    0.38000000    2.71000004
   15.95194435   83.53399658    0.38000000    2.69000006
   15.95499992   82.90480042    0.38000000    2.71000004
   15.95833302   79.42340088    0.38000000    2.69000006
   15.96138859   77.56420135    0.38000000    2.71000004
   15.96472168   79.25070190    0.38000000    2.71000004
   15.96805477   80.78209686    0.38000000    2.71000004
   15.97138882   84.49009705    0.38000000    2.69000006
   15.97444439   81.45580292    0.38000000    2.71000004
   15.97666645   83.32810211    0.38000000    2.71000004
   15.97805500   76.85240173    0.38000000    2.71000004
   15.98111057   82.08509827    0.38000000    2.69000006
   15.98750019   82.08509827    0.40000001    2.71000004
   15.99138927   80.63829803    0.41999999    2.71000004
   15.99472237   79.92420197    0.44000000    2.69000006
   15.99805546   81.54579926    0.40000001    2.71000004
   16.00111198   77.33860016    0.40000001    2.69000006
   16.00444412   75.93979645    0.38000000    2.69000006
   16.00749969   76.48049927    0.40000001    2.71000004
   16.01000023   75.75109863    0.40000001    2.71000004
   16.01111031   79.34700012    0.40000001    2.71000004
   16.01416588   77.03639984    0.40000001    2.71000004
   16.01749992   72.61609650    0.40000001    2.69000006
   16.02083397   72.44840240    0.40000001    2.71000004
   16.02388954   80.73269653    0.41999999    2.71000004
   16.03027725   80.73269653    0.44000000    2.71000004
   16.03444481   82.57029724    0.44000000    2.69000006
   16.03750038   81.91979980    0.41999999    2.69000006
   16.04083252   74.12079620    0.41999999    2.71000004
   16.04333305   83.33190155    0.41999999    2.71000004
   16.04444313   82.52600098    0.41999999    2.71000004
   16.04749870   77.38880157    0.40000001    2.71000004
   16.05083275   76.63449860    0.41999999    2.71000004
   16.05416679   73.97489929    0.40000001    2.71000004
   16.05722237   79.45580292    0.44000000    2.71000004
   16.06055450   77.46959686    0.44000000    2.71000004
   16.06388855   76.87480164    0.44000000    2.71000004
   16.06694603   82.32150269    0.47999999    2.71000004
   16.07305717   82.32150269    0.47999999    2.71000004
   16.07750130   82.33750153    0.47999999    2.71000004
   16.08083344   81.65640259    0.50000000    2.71000004
   16.08388901   78.31780243    0.44000000    2.71000004
   16.08722305   83.11609650    0.44000000    2.71000004
   16.09027863   80.87139893    0.44000000    2.71000004
   16.09361267   77.96279907    0.44000000    2.71000004
   16.09722328   79.61319733    0.40000001    2.71000004
   16.10027885   81.25620270    0.40000001    2.71000004
   16.10361099   80.16359711    0.38000000    2.71000004
   16.10694504   83.91560364    0.38000000    2.71000004
   16.11000061   82.13520050    0.38000000    2.71000004
   16.11055565   73.46549988    0.38000000    2.71000004
   16.11583328   73.46549988    0.40000001    2.71000004
   16.12000084   77.12830353    0.41999999    2.71000004
   16.12333298   77.72799683    0.41999999    2.71000004
   16.12638855   75.72160339    0.44000000    2.71000004
   16.12972260   76.22429657    0.44000000    2.71000004
   16.13277817   83.23310089    0.44000000    2.71000004
   16.13611031   81.31379700    0.44000000    2.71000004
   16.13944435   74.43599701    0.44000000    2.71000004
   16.14249992   77.04389954    0.44000000    2.69000006
   16.14333344   76.95230103    0.44000000    2.69000006
   16.14611053   77.78549957    0.44000000    2.71000004
   16.14944458   78.55449677    0.44000000    2.71000004
   16.15250015   81.50140381    0.44000000    2.71000004
   16.15888786   81.50140381    0.44000000    2.71000004
   16.16277695   80.33090210    0.44000000    2.71000004
   16.16611099   77.83020020    0.44000000    2.71000004
   16.16944313   84.65219879    0.44000000    2.71000004
   16.17249870   83.12740326    0.44000000    2.71000004
   16.17583275   74.51999664    0.44000000    2.71000004
   16.17666626   78.79370117    0.44000000    2.71000004
   16.17944336   77.35990143    0.44000000    2.71000004
   16.18277740   77.06749725    0.46000001    2.71000004
   16.18583298   80.29699707    0.46000001    2.69000006
   16.18916512   83.03980255    0.46000001    2.71000004
   16.19222069   82.05200195    0.46000001    2.71000004
   16.19555473   78.55989838    0.46000001    2.71000004
   16.20166779   78.55989838    0.46000001    2.71000004
   16.20583344   82.55580139    0.44000000    2.69000006
   16.20888901   78.42810059    0.44000000    2.71000004
   16.21000099   80.45899963    0.44000000    2.71000004
   16.21250153   83.28019714    0.44000000    2.69000006
   16.21583366   80.87129974    0.44000000    2.71000004
   16.21888924   82.89320374    0.40000001    2.69000006
   16.22222328   84.85119629    0.40000001    2.71000004
   16.22527885   81.00769806    0.40000001    2.71000004
   16.22861099   81.40529633    0.40000001    2.71000004
   16.23194504   76.59420013    0.38000000    2.71000004
   16.23500061   87.26950073    0.38000000    2.71000004
   16.23833275   85.17710114    0.38000000    2.71000004
   16.24444389   85.17710114    0.38000000    2.71000004
   16.24861145   85.91280365    0.36000001    2.71000004
   16.25166702   78.76779938    0.36000001    2.71000004
   16.25499916   83.80979919    0.36000001    2.71000004
   16.25833321   86.06710052    0.36000001    2.71000004
   16.26138878   81.31410217    0.34000000    2.71000004
   16.26472282   82.06120300    0.36000001    2.69000006
   16.26777840   81.60179901    0.36000001    2.71000004
   16.27111053   76.34670258    0.38000000    2.71000004
   16.27444458   83.93219757    0.44000000    2.69000006
   16.27666664   80.59439850    0.44000000    2.71000004
   16.27805519   76.14910126    0.44000000    2.71000004
   16.28138924   82.70950317    0.38000000    2.71000004
   16.28722191   82.70950317    0.40000001    2.73000002
   16.29138756   80.59349823    0.40000001    2.71000004
   16.29472160   85.29280090    0.41999999    2.71000004
   16.29777718   79.55269623    0.41999999    2.71000004
   16.30111122   85.03659821    0.46000001    2.71000004
   16.30444336   80.97989655    0.46000001    2.71000004
   16.30749893   83.05039978    0.46000001    2.71000004
   16.30999947   86.21820068    0.46000001    2.71000004
   16.31110954   80.35769653    0.46000001    2.71000004
   16.31444359   78.13539886    0.41999999    2.71000004
   16.31750107   76.39820099    0.44000000    2.71000004
   16.32083511   74.61250305    0.44000000    2.73000002
   16.32389069   80.72190094    0.40000001    2.71000004
   16.33027840   80.72190094    0.40000001    2.71000004
   16.33416748   77.93949890    0.40000001    2.71000004
   16.33750153   75.82430267    0.40000001    2.71000004
   16.34083366   82.53350067    0.38000000    2.71000004
   16.34333420   80.90619659    0.38000000    2.71000004
   16.34444427   79.87409973    0.38000000    2.71000004
   16.34777832   78.18289948    0.38000000    2.71000004
   16.35083389   82.72560120    0.38000000    2.71000004
   16.35416794   79.78350067    0.38000000    2.71000004
   16.35722351   81.21260071    0.38000000    2.71000004
   16.36055565   77.46430206    0.34000000    2.71000004
   16.36388969   76.48329926    0.34000000    2.71000004
   16.36694527   79.72850037    0.34000000    2.71000004
   16.37305641   79.72850037    0.34000000    2.71000004
   16.37722206   76.66269684    0.34000000    2.71000004
   16.38027763   79.31430054    0.34000000    2.71000004
   16.38361168   76.43240356    0.36000001    2.71000004
   16.38666725   79.03359985    0.36000001    2.71000004
   16.38999939   81.63130188    0.36000001    2.73000002
   16.39333344   80.95970154    0.36000001    2.71000004
   16.39638901   81.22260284    0.36000001    2.71000004
   16.39972115   80.49520111    0.36000001    2.71000004
   16.40305519   81.23380280    0.34000000    2.71000004
   16.40611076   77.80380249    0.34000000    2.71000004
   16.40944481   81.00119781    0.34000000    2.71000004
   16.40999985   77.36219788    0.34000000    2.71000004
   16.41583252   77.36219788    0.31999999    2.71000004
   16.42000008   75.79239655    0.31999999    2.71000004
   16.42333221   81.75749969    0.34000000    2.73000002
   16.42638779   82.80319977    0.34000000    2.73000002
   16.42972183   86.44840240    0.34000000    2.71000004
   16.43277740   89.85099792    0.34000000    2.71000004
   16.43610954   77.11910248    0.34000000    2.71000004
   16.43916512   84.21559906    0.34000000    2.71000004
   16.44249916   83.19570160    0.34000000    2.71000004
   16.44333267   88.95929718    0.34000000    2.71000004
   16.44610977   88.30560303    0.34000000    2.71000004
   16.44944382   82.82649994    0.34000000    2.73000002
   16.45250130   80.86039734    0.31999999    2.71000004
   16.45861244   80.86039734    0.31999999    2.73000002
   16.46277809   77.08550262    0.31999999    2.71000004
   16.46611214   84.36340332    0.31999999    2.71000004
   16.46916771   80.15750122    0.31999999    2.71000004
   16.47249985   78.11250305    0.31999999    2.71000004
   16.47555542   82.88449860    0.31999999    2.71000004
   16.47666740   81.72679901    0.31999999    2.71000004
   16.47916794   80.57270050    0.31999999    2.71000004
   16.48250008   74.41970062    0.31999999    2.71000004
   16.48555565   80.56670380    0.31999999    2.71000004
   16.48888969   85.29640198    0.31999999    2.71000004
   16.49194527   83.10070038    0.31999999    2.73000002
   16.49527740   81.39430237    0.31999999    2.71000004
   16.50166702   81.39430237    0.31999999    2.71000004
   16.50555611   77.53859711    0.31999999    2.71000004
   16.50888824   77.97019958    0.31999999    2.71000004
   16.51000023   80.16100311    0.31999999    2.71000004
   16.51250076   77.76460266    0.31999999    2.71000004
   16.51583290   81.90709686    0.34000000    2.71000004
   16.51888847   79.45539856    0.36000001    2.73000002
   16.52222252   80.40509796    0.36000001    2.71000004
   16.52527809   75.79470062    0.36000001    2.71000004
   16.52861023   83.53029633    0.40000001    2.71000004
   16.53194427   78.81860352    0.41999999    2.71000004
   16.53499985   75.03430176    0.41999999    2.71000004
   16.53833199   79.31269836    0.41999999    2.73000002
   16.54444313   79.31269836    0.56999999    2.71000004
   16.54861069   79.58280182    0.61000001    2.71000004
   16.55166626   74.22820282    0.63000000    2.71000004
   16.55499840   78.13960266    0.73000002    2.71000004
   16.55805397   76.21080017    0.79000002    2.71000004
   16.56138802   76.63439941    0.79000002    2.71000004
   16.56472206   79.92780304    0.83999997    2.71000004
   16.56777954   74.59459686    0.83999997    2.71000004
   16.57111168   75.48619843    0.81999999    2.71000004
   16.57416725   73.83879852    0.81999999    2.71000004
   16.57694626   73.78029633    0.79000002    2.71000004
   16.57777786   79.17279816    0.79000002    2.71000004
   16.58111191   75.43029785    0.55000001    2.71000004
   16.58722305   75.43029785    0.46000001    2.71000004
   16.59138870   81.86199951    0.44000000    2.71000004
   16.59472275   77.96399689    0.44000000    2.73000002
   16.59777832   78.38189697    0.47999999    2.71000004
   16.60111237   85.65720367    0.50000000    2.71000004
   16.60416794   76.53520203    0.56999999    2.71000004
   16.60750008   81.20860291    0.56999999    2.71000004
   16.61027908   80.42489624    0.63000000    2.71000004
   16.61111069   82.98509979    0.63000000    2.71000004
   16.61444473   84.15419769    0.64999998    2.71000004
   16.61750031   79.48780060    0.64999998    2.71000004
   16.62083435   80.98190308    0.64999998    2.71000004
   16.62388992   82.77469635    0.67000002    2.73000002
   16.63000107   82.77469635    0.69000000    2.69000006
   16.63416672   77.93409729    0.64999998    2.71000004
   16.63750076   79.31829834    0.63000000    2.71000004
   16.64055634   82.02490234    0.64999998    2.71000004
   16.64361191   85.14550018    0.64999998    2.71000004
   16.64416695   79.53299713    0.64999998    2.71000004
   16.64749908   80.15899658    0.69000000    2.71000004
   16.65055466   79.28489685    0.69000000    2.71000004
   16.65388870   77.74960327    0.64999998    2.71000004
   16.65694427   77.51380157    0.64999998    2.71000004
   16.66027832   75.15879822    0.63000000    2.71000004
   16.66361046   81.07029724    0.63000000    2.71000004
   16.66666603   76.82599640    0.63000000    2.71000004
   16.67305565   76.82599640    0.61000001    2.73000002
   16.67694473   78.69750214    0.63000000    2.71000004
   16.68027687   77.24340057    0.61000001    2.71000004
   16.68361092   76.11060333    0.61000001    2.71000004
   16.68666649   82.43090057    0.61000001    2.73000002
   16.68999863   76.08550262    0.61000001    2.71000004
   16.69305420   78.08750153    0.69000000    2.71000004
   16.69638824   83.34400177    0.64999998    2.71000004
   16.69972038   85.51390076    0.64999998    2.71000004
   16.70277786   79.56860352    0.64999998    2.71000004
   16.70611191   82.32409668    0.58999997    2.71000004
   16.70916748   84.86810303    0.55000001    2.71000004
   16.71027946   80.37359619    0.55000001    2.71000004
   16.73083305   80.37359619    0.55000001    2.71000004
   16.73500061   83.85449982    0.56999999    2.71000004
   16.73833275   78.78289795    0.56999999    2.73000002
   16.74138832   72.24210358    0.52999997    2.73000002
   16.74361229   78.80010223    0.52999997    2.71000004
   16.74527740   76.50810242    0.50000000    2.71000004
   16.74833298   76.49089813    0.47999999    2.71000004
   16.75166702   80.64029694    0.44000000    2.71000004
   16.75499916   77.37789917    0.44000000    2.71000004
   16.75805473   76.39720154    0.44000000    2.71000004
   16.76138878   78.55169678    0.44000000    2.71000004
   16.76444435   74.49279785    0.47999999    2.73000002
   16.76777840   78.53510284    0.47999999    2.73000002
   16.77361107   78.53510284    0.55000001    2.73000002
   16.77777672   77.19580078    0.55000001    2.71000004
   16.78111076   84.01480103    0.52999997    2.73000002
   16.78416634   78.11560059    0.51999998    2.71000004
   16.78750038   83.05590057    0.50000000    2.71000004
   16.79055595   80.99780273    0.50000000    2.71000004
   16.79388809   90.25050354    0.51999998    2.73000002
   16.79722214   84.64489746    0.52999997    2.73000002
   16.80027771   77.71360016    0.51999998    2.73000002
   16.80360985   78.08100128    0.52999997    2.71000004
   16.80666542   79.00090027    0.56999999    2.73000002
   16.80999947   78.70089722    0.58999997    2.71000004
   16.81055450   80.14630127    0.58999997    2.71000004
   16.81638718   80.14630127    0.55000001    2.71000004
   16.82055664   79.15270233    0.52999997    2.71000004
   16.82389069   80.27220154    0.52999997    2.71000004
   16.82694626   78.55490112    0.52999997    2.71000004
   16.83027840   78.02079773    0.52999997    2.71000004
   16.83361244   80.19550323    0.52999997    2.71000004
   16.83666801   81.16329956    0.55000001    2.71000004
   16.84000015   77.50270081    0.56999999    2.71000004
   16.84305573   75.33850098    0.56999999    2.71000004
   16.84388924   78.63569641    0.56999999    2.71000004
   16.84666824   77.41510010    0.58999997    2.71000004
   16.85000038   79.35330200    0.58999997    2.71000004
   16.85333443   76.37319946    0.55000001    2.71000004
   16.85944557   76.37319946    0.55000001    2.71000004
   16.86333466   73.41089630    0.55000001    2.71000004
   16.86666679   76.53559875    0.47999999    2.73000002
   16.87000084   75.54319763    0.47999999    2.73000002
   16.87305641   82.48139954    0.47999999    2.71000004
   16.87638855   77.36689758    0.51999998    2.71000004
   16.87722206   78.52639771    0.52999997    2.71000004
   16.88000107   77.52570343    0.50000000    2.71000004
   16.88305473   77.45809937    0.47999999    2.71000004
   16.88638878   77.83329773    0.47999999    2.71000004
   16.88944435   77.99240112    0.47999999    2.71000004
   16.89277840   77.12670135    0.47999999    2.71000004
   16.89583397   84.16670227    0.47999999    2.71000004
   16.90222168   84.16670227    0.44000000    2.73000002
   16.90638924   75.61250305    0.44000000    2.73000002
   16.90944481   75.29460144    0.46000001    2.73000002
   16.91055489   78.59750366    0.52999997    2.73000002
   16.91333389   76.55799866    0.52999997    2.73000002
   16.91638756   75.48229980    0.73000002    2.71000004
   16.91972160   80.75689697    0.75000000    2.71000004
   16.92277718   75.06680298    0.73000002    2.71000004
   16.92611122   75.95950317    0.75000000    2.71000004
   16.92916679   80.53040314    0.70999998    2.71000004
   16.93249893   77.59829712    0.70999998    2.71000004
   16.93583298   77.39119720    0.61000001    2.71000004
   16.93888855   74.81549835    0.63000000    2.71000004
   16.94499969   74.81549835    0.63000000    2.71000004
   16.94916534   80.70619965    0.61000001    2.71000004
   16.95250130   83.02149963    0.67000002    2.71000004
   16.95555687   78.71970367    0.69000000    2.71000004
   16.95888901   79.04900360    0.61000001    2.71000004
   16.96194458   78.86430359    0.61000001    2.71000004
   16.96527863   76.79180145    0.61000001    2.71000004
   16.96833420   83.46540070    0.63000000    2.71000004
   16.97166634   77.95079803    0.61000001    2.71000004
   16.97500038   79.78690338    0.61000001    2.71000004
   16.97722244   78.82790375    0.61000001    2.71000004
   16.97861099   78.47850037    0.61000001    2.71000004
   16.98166656   76.35369873    0.69000000    2.71000004
   16.98777771   76.35369873    0.67000002    2.71000004
   16.99194527   78.82009888    0.52999997    2.71000004
   16.99527740   85.13719940    0.51999998    2.71000004
   16.99833298   82.82350159    0.50000000    2.71000004
   17.00166702   80.53089905    0.50000000    2.73000002
   17.00499916   87.44259644    0.51999998    2.71000004
   17.00805473   78.52770233    0.47999999    2.71000004
   17.01055527   84.34420013    0.47999999    2.71000004
   17.01194382   80.79660034    0.47999999    2.71000004
   17.01499939   79.60109711    0.55000001    2.71000004
   17.01833344   82.16200256    0.56999999    2.71000004
   17.02138901   81.73149872    0.55000001    2.71000004
   17.02472115   80.40280151    0.50000000    2.71000004
   17.03083229   80.40280151    0.44000000    2.71000004
   17.03472137   86.52269745    0.46000001    2.71000004
   17.03805542   78.84089661    0.50000000    2.71000004
   17.04138756   82.69170380    0.50000000    2.71000004
   17.04388809   80.11769867    0.50000000    2.71000004
   17.04500008   81.02610016    0.50000000    2.71000004
   17.04805565   80.97000122    0.50000000    2.71000004
   17.05138779   83.85109711    0.51999998    2.71000004
   17.05444336   81.03379822    0.55000001    2.71000004
   17.05777740   79.03070068    0.46000001    2.71000004
   17.06083298   85.64859772    0.44000000    2.71000004
   17.06416512   79.76860046    0.50000000    2.71000004
   17.06750107   82.01180267    0.50000000    2.71000004
   17.07361221   82.01180267    0.51999998    2.71000004
   17.07777786   78.55619812    0.51999998    2.71000004
   17.08083344   77.59480286    0.51999998    2.71000004
   17.08416748   82.49330139    0.51999998    2.71000004
   17.08722305   83.71189880    0.51999998    2.71000004
   17.09055710   80.61039734    0.50000000    2.71000004
   17.09388924   79.00990295    0.51999998    2.71000004
   17.09694481   81.50569916    0.51999998    2.71000004
   17.10027885   79.70439911    0.51999998    2.73000002
   17.10333443   79.70240021    0.61000001    2.71000004
   17.10666656   78.07589722    0.61000001    2.71000004
   17.10972214   72.30840302    0.63000000    2.71000004
   17.11055565   74.81929779    0.63000000    2.71000004
   17.11638832   74.81929779    0.47999999    2.71000004
   17.12055588   76.81800079    0.50000000    2.71000004
   17.12361145   78.25289917    0.50000000    2.71000004
   17.12694550   78.30339813    0.50000000    2.71000004
   17.13027763   76.32779694    0.52999997    2.71000004
   17.13333321   79.13929749    0.47999999    2.71000004
   17.13666725   82.32849884    0.47999999    2.73000002
   17.13972282   78.70719910    0.44000000    2.71000004
   17.14305496   73.24240112    0.50000000    2.71000004
   17.14388847   74.81020355    0.50000000    2.71000004
   17.14666748   78.84600067    0.50000000    2.71000004
   17.14972115   84.90090179    0.46000001    2.71000004
   17.15305519   82.69899750    0.44000000    2.71000004
   17.15916634   82.69899750    0.46000001    2.71000004
   17.16333389   85.46199799    0.41999999    2.71000004
   17.16666603   79.10430145    0.40000001    2.71000004
   17.16972160   80.93129730    0.40000001    2.71000004
   17.17305565   78.94629669    0.40000001    2.73000002
   17.17638779   81.78510284    0.40000001    2.71000004
   17.17722130   79.74739838    0.40000001    2.71000004
   17.18000031   77.44909668    0.40000001    2.71000004
   17.18305397   79.91359711    0.40000001    2.71000004
   17.18638802   82.43399811    0.40000001    2.71000004
   17.18944359   79.48400116    0.40000001    2.71000004
   17.19277763   79.28379822    0.46000001    2.71000004
   17.19610977   81.48419952    0.55000001    2.71000004
   17.20222282   81.48419952    0.70999998    2.71000004
   17.20611191   75.35320282    0.70999998    2.71000004
   17.20944595   73.38919830    0.61000001    2.71000004
   17.21055603   73.41699982    0.58999997    2.71000004
   17.21305656   74.31040192    0.52999997    2.71000004
   17.21611214   76.40270233    0.46000001    2.71000004
   17.21944427   81.21029663    0.47999999    2.71000004
   17.22249985   80.04579926    0.46000001    2.71000004
   17.22583389   78.20510101    0.46000001    2.71000004
   17.22916794   80.18340302    0.44000000    2.71000004
   17.23222351   77.45020294    0.44000000    2.71000004
   17.23555565   81.84680176    0.44000000    2.71000004
   17.23861122   75.03019714    0.51999998    2.71000004
   17.24500084   75.03019714    0.50000000    2.71000004
   17.24916649   76.78990173    0.47999999    2.71000004
   17.25222206   75.71510315    0.44000000    2.71000004
   17.25555611   76.96520233    0.46000001    2.71000004
   17.25861168   80.05149841    0.47999999    2.71000004
   17.26194382   78.76239777    0.47999999    2.71000004
   17.26527786   80.12290192    0.44000000    2.71000004
   17.26833344   76.98919678    0.44000000    2.71000004
   17.27166557   75.12809753    0.56999999    2.71000004
   17.27472115   77.04900360    0.58999997    2.71000004
   17.27722168   77.12020111    0.55000001    2.71000004
   17.27861023   78.67289734    0.55000001    2.71000004
   17.28166580   79.23169708    0.52999997    2.71000004
   17.28777695   79.23169708    0.55000001    2.71000004
   17.29194450   78.24729919    0.44000000    2.71000004
   17.29500008   77.98739624    0.44000000    2.71000004
   17.29833221   76.72669983    0.46000001    2.71000004
   17.30166626   72.00440216    0.56999999    2.71000004
   17.30472183   78.38189697    0.56999999    2.71000004
   17.30805397   75.56639862    0.64999998    2.71000004
   17.31055450   86.44889832    0.64999998    2.71000004
   17.31166649   78.29779816    0.64999998    2.71000004
   17.31472206   82.57599640    0.56999999    2.71000004
   17.31805611   79.15579987    0.55000001    2.71000004
   17.32111168   76.02839661    0.52999997    2.71000004
   17.32444572   75.68049622    0.50000000    2.71000004
   17.33055687   75.68049622    0.50000000    2.71000004
   17.33472252   78.81800079    0.52999997    2.71000004
   17.33805656   80.04720306    0.52999997    2.71000004
   17.34111214   78.96430206    0.47999999    2.71000004
   17.34388924   79.06420135    0.46000001    2.71000004
   17.34500122   78.81900024    0.46000001    2.71000004
   17.34805679   80.27339935    0.38000000    2.71000004
   17.35138893   79.20069885    0.44000000    2.71000004
   17.35444450   82.58869934    0.46000001    2.71000004
   17.35777855   79.83730316    0.46000001    2.71000004
   17.36111069   76.78170013    0.44000000    2.71000004
   17.36416626   75.09269714    0.40000001    2.71000004
   17.36750031   77.24990082    0.41999999    2.71000004
   17.37361145   77.24990082    0.52999997    2.71000004
   17.37750053   77.60620117    0.56999999    2.69000006
   17.38083267   86.38569641    0.47999999    2.71000004
   17.38416672   72.82939911    0.52999997    2.71000004
   17.38722229   75.97429657    0.52999997    2.71000004
   17.39055634   74.46250153    0.51999998    2.73000002
   17.39361191   75.78230286    0.50000000    2.71000004
   17.39694405   78.67880249    0.50000000    2.71000004
   17.39999962   76.55770111    0.47999999    2.71000004
   17.40333366   78.18099976    0.40000001    2.71000004
   17.40666580   76.65689850    0.38000000    2.71000004
   17.40972137   79.79830170    0.40000001    2.71000004
   17.41055489   77.24639893    0.40000001    2.71000004
   17.41638756   77.24639893    0.40000001    2.71000004
   17.42055511   80.55410004    0.38000000    2.71000004
   17.42361069   75.73509979    0.40000001    2.71000004
   17.42694473   76.89469910    0.40000001    2.71000004
   17.43000031   82.47129822    0.44000000    2.71000004
   17.43333244   83.57730103    0.44000000    2.71000004
   17.43666649   76.46910095    0.44000000    2.71000004
   17.43972206   80.89270020    0.44000000    2.71000004
   17.44305420   77.16169739    0.47999999    2.71000004
   17.44388771   80.89669800    0.47999999    2.71000004
   17.44666672   82.27349854    0.50000000    2.71000004
   17.44972038   76.88430023    0.50000000    2.69000006
   17.45305634   77.76480103    0.50000000    2.69000006
   17.45916748   77.76480103    0.46000001    2.71000004
   17.46333504   77.56369781    0.47999999    2.71000004
   17.46666718   78.04550171    0.50000000    2.71000004
   17.46972275   78.32579803    0.52999997    2.71000004
   17.47305679   76.97660065    0.50000000    2.71000004
   17.47611237   76.02570343    0.50000000    2.71000004
   17.47722244   79.97309875    0.50000000    2.71000004
   17.48000145   77.84149933    0.47999999    2.71000004
   17.48305511   77.29969788    0.46000001    2.71000004
   17.48638916   75.48429871    0.44000000    2.71000004
   17.48944473   81.21749878    0.47999999    2.71000004
   17.49277878   75.73059845    0.73000002    2.71000004
   17.49611092   74.94429779    0.79000002    2.71000004
   17.50194359   74.94429779    0.67000002    2.71000004
   17.50611115   78.23789978    0.46000001    2.71000004
   17.50944519   81.53170013    0.38000000    2.69000006
   17.51055527   77.75959778    0.38000000    2.71000004
   17.51305580   78.22730255    0.38000000    2.71000004
   17.51611137   81.82479858    0.41999999    2.71000004
   17.51944351   74.49150085    0.41999999    2.71000004
   17.52277756   76.86180115    0.40000001    2.71000004
   17.52583313   75.97609711    0.40000001    2.71000004
   17.52916718   79.16159821    0.40000001    2.71000004
   17.53222275   75.65010071    0.40000001    2.71000004
   17.53555489   79.51210022    0.40000001    2.71000004
   17.53861046   78.75630188    0.40000001    2.71000004
   17.54500008   78.75630188    0.40000001    2.71000004
   17.54888916   79.54879761    0.41999999    2.71000004
   17.55222130   80.34230042    0.41999999    2.71000004
   17.55555534   76.29229736    0.41999999    2.71000004
   17.55861092   78.27330017    0.41999999    2.71000004
   17.56194305   81.41870117    0.46000001    2.71000004
   17.56499863   80.75900269    0.44000000    2.71000004
   17.56833458   77.84960175    0.44000000    2.71000004
   17.57166672   77.65499878    0.46000001    2.69000006
   17.57472229   80.09809875    0.44000000    2.71000004
   17.57722282   78.58170319    0.46000001    2.71000004
   17.57861137   79.98449707    0.46000001    2.71000004
   17.58166695   77.88310242    0.41999999    2.71000004
   17.58777809   77.88310242    0.40000001    2.71000004
   17.59194565   78.56510162    0.41999999    2.71000004
   17.59500122   80.40889740    0.44000000    2.71000004
   17.59833336   77.58719635    0.51999998    2.71000004
   17.60138893   79.59159851    0.51999998    2.71000004
   17.60472298   78.47139740    0.46000001    2.69000006
   17.60805511   77.37190247    0.46000001    2.69000006
   17.61055565   78.83699799    0.44000000    2.71000004
   17.61166763   78.46959686    0.41999999    2.71000004
   17.61472321   84.38749695    0.38000000    2.71000004
   17.61805534   78.91079712    0.38000000    2.71000004
   17.62138939   80.29969788    0.40000001    2.71000004
   17.62444496   83.33689880    0.41999999    2.71000004
   17.63055611   83.33689880    0.40000001    2.71000004
   17.63472176   77.95839691    0.40000001    2.71000004
   17.63805580   78.75910187    0.40000001    2.71000004
   17.64111137   79.90570068    0.41999999    2.71000004
   17.64388847   77.62349701    0.41999999    2.71000004
   17.64472198   75.08039856    0.41999999    2.71000004
   17.64777756   76.17859650    0.41999999    2.71000004
   17.65111160   77.72910309    0.41999999    2.71000004
   17.65444374   82.41480255    0.40000001    2.71000004
   17.65749931   79.95629883    0.40000001    2.71000004
   17.66083336   77.31770325    0.40000001    2.71000004
   17.66388893   82.17720032    0.41999999    2.71000004
   17.66722107   83.17579651    0.41999999    2.71000004
   17.67333221   83.17579651    0.41999999    2.71000004
   17.67749977   79.72200012    0.41999999    2.71000004
   17.68083191   77.76940155    0.44000000    2.69000006
   17.68388748   80.60929871    0.44000000    2.71000004
   17.68722153   85.86609650    0.47999999    2.71000004
   17.69055557   77.08519745    0.47999999    2.71000004
   17.69361115   75.51560211    0.50000000    2.71000004
   17.69694328   76.48600006    0.50000000    2.69000006
   17.70000076   84.29989624    0.47999999    2.71000004
   17.70333481   77.53140259    0.47999999    2.71000004
   17.70639038   76.65679932    0.47999999    2.69000006
   17.70972252   75.55570221    0.47999999    2.69000006
   17.71055603   76.38300323    0.55000001    2.71000004
   17.71638870   76.38300323    0.63000000    2.71000004
   17.72027779   76.75460052    0.58999997    2.71000004
   17.72361183   76.59980011    0.58999997    2.71000004
   17.72694588   74.93789673    0.56999999    2.71000004
   17.74444389   79.56079865    0.55000001    2.69000006
   17.74694443   76.86100006    0.55000001    2.71000004
   17.75000000   74.55059814    0.56999999    2.69000006
   17.75333405   77.58149719    0.56999999    2.71000004
   17.75944519   77.58149719    0.56999999    2.69000006
   17.76333427   77.37030029    0.63000000    2.71000004
   17.76666641   78.69439697    0.69000000    2.69000006
   17.77000046   74.88369751    0.69000000    2.71000004
   17.77305603   77.54470062    0.64999998    2.69000006
   17.77638817   81.83799744    0.64999998    2.69000006
   17.77777672   78.30560303    0.64999998    2.69000006
   17.77972221   74.48889923    0.67000002    2.69000006
   17.78305435   80.11840057    0.67000002    2.69000006
   17.78638840   76.90550232    0.67000002    2.69000006
   17.78944397   79.62920380    0.67000002    2.69000006
   17.79277802   79.69950104    0.55000001    2.69000006
   17.79583359   76.80529785    0.56999999    2.71000004
   17.80222130   76.80529785    0.61000001    2.69000006
   17.80638885   80.19539642    0.63000000    2.69000006
   17.80944443   80.97329712    0.63000000    2.69000006
   17.81110954   77.66539764    0.64999998    2.69000006
   17.81305504   82.39179993    0.64999998    2.69000006
   17.81638718   84.07800293    0.63000000    2.69000006
   17.81972313   83.20359802    0.61000001    2.71000004
   17.82277870   79.42729950    0.61000001    2.69000006
   17.82611275   74.98899841    0.61000001    2.69000006
   17.82916832   82.08049774    0.56999999    2.71000004
   17.83250046   78.74169922    0.55000001    2.69000006
   17.83583450   78.07389832    0.55000001    2.69000006
   17.83889008   82.63629913    0.56999999    2.69000006
   17.84500122   82.63629913    0.52999997    2.71000004
   17.84916687   80.46489716    0.55000001    2.69000006
   17.85222244   75.34169769    0.52999997    2.71000004
   17.85555649   75.96119690    0.52999997    2.69000006
   17.85888863   76.01809692    0.52999997    2.69000006
   17.86194420   81.49839783    0.51999998    2.71000004
   17.86527824   76.46130371    0.51999998    2.71000004
   17.86833382   78.35449982    0.51999998    2.69000006
   17.87166595   80.02459717    0.52999997    2.69000006
   17.87500000   76.67169952    0.52999997    2.69000006
   17.87777710   83.84619904    0.55000001    2.69000006
   17.87833405   79.71849823    0.55000001    2.69000006
   17.88166618   81.37110138    0.55000001    2.69000006
   17.88777733   81.37110138    0.52999997    2.69000006
   17.89194489   78.84559631    0.56999999    2.69000006
   17.89527702   77.01200104    0.58999997    2.69000006
   17.89833260   75.80390167    0.58999997    2.69000006
   17.90166664   80.37069702    0.61000001    2.69000006
   17.90472221   76.19170380    0.58999997    2.71000004
   17.90805435   75.77410126    0.61000001    2.69000006
   17.91110992   75.10669708    0.63000000    2.69000006
   17.91194344   80.77320099    0.63000000    2.69000006
   17.91499901   75.41059875    0.61000001    2.69000006
   17.91833305   73.99210358    0.61000001    2.69000006
   17.92138863   74.48169708    0.58999997    2.69000006
   17.92472076   76.10500336    0.58999997    2.69000006
   17.93083191   76.10500336    0.58999997    2.67000008
   17.93472099   79.05619812    0.63000000    2.69000006
   17.93805504   82.13220215    0.63000000    2.69000006
   17.94138718   80.22389984    0.63000000    2.69000006
   17.94444275   80.67859650    0.64999998    2.69000006
   17.94499969   85.83480072    0.64999998    2.69000006
   17.94805527   76.57019806    0.64999998    2.69000006
   17.95138931   73.50409698    0.70999998    2.69000006
   17.95444489   79.29720306    0.70999998    2.67000008
   17.95777893   74.63880157    0.75000000    2.69000006
   17.96083450   78.12889862    0.75000000    2.69000006
   17.96416664   77.58740234    0.73000002    2.69000006
   17.96750069   77.18499756    0.70999998    2.69000006
   17.97361183   77.18499756    0.76999998    2.69000006
   17.97777748   82.45089722    0.81999999    2.69000006
   17.97833443   74.42559814    0.86000001    2.69000006
   17.98139000   74.63839722    0.88000000    2.67000008
   17.98472214   75.94899750    0.88000000    2.69000006
   17.98777771   74.32830048    0.88000000    2.67000008
   17.99111176   77.66169739    0.80000001    2.69000006
   17.99416733   75.53009796    0.70999998    2.71000004
   17.99749947   76.81870270    0.69000000    2.69000006
   18.00083351   74.03530121    0.79000002    2.69000006
   18.00388908   78.30120087    0.75000000    2.69000006
   18.00722313   72.83319855    0.79000002    2.69000006
   18.01027870   75.46530151    0.75000000    2.67000008
   18.01111031   76.21240234    0.75000000    2.67000008
   18.01638794   76.21240234    0.75000000    2.69000006
   18.02055550   74.03810120    0.73000002    2.69000006
   18.02361107   77.35800171    0.70999998    2.69000006
   18.02694511   75.13999939    0.63000000    2.67000008
   18.03027725   77.07299805    0.58999997    2.69000006
   18.03333282   75.99220276    0.58999997    2.69000006
   18.03666687   75.86509705    0.58999997    2.69000006
   18.03972244   77.04350281    0.61000001    2.69000006
   18.04305458   82.92209625    0.61000001    2.69000006
   18.04444313   78.62290192    0.61000001    2.71000004
   18.04694366   76.57430267    0.61000001    2.69000006
   18.04999924   76.25830078    0.61000001    2.69000006
   18.05333328   80.54879761    0.61000001    2.67000008
   18.05916595   80.54879761    0.63000000    2.69000006
   18.06333351   75.69039917    0.67000002    2.67000008
   18.06666756   80.07389832    0.67000002    2.69000006
   18.06972313   81.26439667    0.67000002    2.69000006
   18.07305717   81.81279755    0.69000000    2.69000006
   18.07638931   81.36029816    0.75000000    2.67000008
   18.07777786   81.88110352    0.76999998    2.67000008
   18.08000183   77.90640259    0.76999998    2.67000008
   18.08305550   78.24500275    0.73000002    2.67000008
   18.08638954   81.57099915    0.61000001    2.69000006
   18.08944511   79.97309875    0.61000001    2.69000006
   18.09277916   78.72010040    0.67000002    2.67000008
   18.09583473   80.14189911    0.67000002    2.67000008
   18.10222244   80.14189911    0.63000000    2.69000006
   18.10611153   81.80410004    0.67000002    2.69000006
   18.10944557   81.45020294    0.69000000    2.69000006
   18.11111069   82.76419830    0.69000000    2.69000006
   18.11305618   78.41190338    0.69000000    2.69000006
   18.11611176   79.43579865    0.67000002    2.67000008
   18.11944389   82.85399628    0.69000000    2.67000008
   18.12249947   81.59999847    0.69000000    2.69000006
   18.12583351   79.36820221    0.64999998    2.69000006
   18.12916756   78.04190063    0.63000000    2.67000008
   18.13222313   81.15679932    0.61000001    2.67000008
   18.13555527   79.94529724    0.61000001    2.69000006
   18.13861084   76.31159973    0.67000002    2.69000006
   18.14500046   76.31159973    0.73000002    2.69000006
   18.14916611   76.99089813    0.75000000    2.67000008
   18.15222168   76.53610229    0.75000000    2.69000006
   18.15555573   76.93800354    0.70999998    2.69000006
   18.15861130   84.39089966    0.70999998    2.67000008
   18.16194344   81.32379913    0.70999998    2.67000008
   18.16527748   78.39150238    0.69000000    2.67000008
   18.16833305   79.41339874    0.69000000    2.67000008
   18.17166519   82.96489716    0.64999998    2.67000008
   18.17499924   82.75810242    0.64999998    2.67000008
   18.17777634   82.57520294    0.69000000    2.67000008
   18.17888832   79.02390289    0.69000000    2.67000008
   18.18194389   78.60099792    0.69000000    2.69000006
   18.18777657   78.60099792    0.76999998    2.67000008
   18.19194412   80.89939880    0.70999998    2.69000006
   18.19499969   77.79199982    0.73000002    2.69000006
   18.19833183   76.54589844    0.73000002    2.67000008
   18.20166779   76.81479645    0.75000000    2.67000008
   18.20472336   78.61409760    0.73000002    2.67000008
   18.20805550   79.61859894    0.69000000    2.69000006
   18.21111107   80.70510101    0.70999998    2.67000008
   18.21166801   80.29920197    0.70999998    2.67000008
   18.21472359   77.90519714    0.70999998    2.67000008
   18.21805573   77.26309967    0.75000000    2.69000006
   18.22111130   78.13140106    0.75000000    2.67000008
   18.22444534   79.49060059    0.76999998    2.67000008
   18.23055649   79.49060059    0.76999998    2.67000008
   18.23472214   80.31120300    0.76999998    2.67000008
   18.23805618   77.87139893    0.83999997    2.67000008
   18.24111176   84.77690125    0.94000000    2.67000008
   18.24444389   78.17960358    0.94000000    2.67000008
   18.24500084   81.64389801    0.94000000    2.67000008
   18.24805641   79.08799744    1.01999998    2.67000008
   18.25138855   75.75180054    1.03999996    2.67000008
   18.25444412   77.08229828    1.19000006    2.67000008
   18.25777817   77.69010162    1.07000005    2.67000008
   18.26111031   78.10620117    1.09000003    2.67000008
   18.26416588   78.35260010    1.07000005    2.67000008
   18.26749992   77.62229919    1.01999998    2.67000008
   18.27333260   77.62229919    1.03999996    2.67000008
   18.27750015   80.68849945    1.03999996    2.67000008
   18.27805519   81.01789856    1.05999994    2.67000008
   18.28138924   75.50499725    1.00000000    2.67000008
   18.28444481   78.96050262    0.89999998    2.67000008
   18.28777695   74.84719849    0.89999998    2.67000008
   18.29111099   74.48600006    0.98000002    2.67000008
   18.29416656   83.05400085    1.01999998    2.66000009
   18.29749870   76.33049774    1.11000001    2.67000008
   18.30055428   77.89350128    1.16999996    2.67000008
   18.30388832   80.76020050    1.14999998    2.67000008
   18.30722237   75.84899902    1.23000002    2.67000008
   18.31027794   75.80799866    1.25000000    2.67000008
   18.31138802   77.93530273    1.25000000    2.67000008
   18.31638718   77.93530273    1.39999998    2.66000009
   18.32055664   78.23660278    1.39999998    2.67000008
   18.32361221   80.89489746    1.39999998    2.67000008
   18.32694626   75.58740234    1.39999998    2.67000008
   18.33000183   80.46679688    1.11000001    2.66000009
   18.33333397   80.75520325    1.14999998    2.66000009
   18.33666801   80.89530182    1.14999998    2.66000009
   18.33972359   87.01129913    1.11000001    2.67000008
   18.34305573   80.03710175    1.07000005    2.67000008
   18.34472275   76.49800110    1.07000005    2.67000008
   18.34666824   83.67160034    1.07000005    2.66000009
   18.34972191   81.58480072    0.95999998    2.67000008
   18.35305595   83.29329681    0.79000002    2.67000008
   18.35916710   83.29329681    0.75000000    2.67000008
   18.36333466   83.74729919    0.83999997    2.67000008
   18.36638832   76.79570007    0.92000002    2.67000008
   18.36972237   83.72660065    0.81999999    2.66000009
   18.37305641   77.13690186    0.81999999    2.67000008
   18.37611198   76.76950073    0.80000001    2.67000008
   18.37805557   77.88780212    0.80000001    2.67000008
   18.37972260   80.78990173    0.79000002    2.67000008
   18.38305473   78.78099823    0.75000000    2.67000008
   18.38611031   76.55609894    0.75000000    2.67000008
   18.38944435   78.58219910    0.76999998    2.66000009
   18.39249992   78.19480133    0.79000002    2.66000009
   18.39583397   78.88320160    0.98000002    2.67000008
   18.40194321   78.88320160    1.00000000    2.67000008
   18.40611076   82.19319916    1.00000000    2.67000008
   18.40944481   78.77369690    1.07000005    2.67000008
   18.41138840   80.65889740    1.07000005    2.67000008
   18.41305542   78.27929688    1.09000003    2.66000009
   18.41638756   76.07689667    1.09000003    2.67000008
   18.41944313   74.75859833    1.09000003    2.67000008
   18.42277718   76.78379822    1.19000006    2.67000008
   18.42583275   81.35369873    1.19000006    2.66000009
   18.42916679   78.07060242    1.19000006    2.67000008
   18.43222237   72.44550323    1.16999996    2.66000009
   18.43555450   79.91790009    1.16999996    2.64000010
   18.43888855   77.53730011    1.21000004    2.66000009
   18.44472122   77.53730011    1.25000000    2.66000009
   18.44888878   76.93659973    1.26999998    2.66000009
   18.45222282   76.79789734    1.26999998    2.66000009
   18.45527840   78.43609619    1.26999998    2.66000009
   18.45861244   78.05410004    1.26999998    2.66000009
   18.46194458   75.75129700    1.25000000    2.66000009
   18.46500015   74.74569702    1.58000004    2.66000009
   18.46833420   77.40440369    1.21000004    2.66000009
   18.47138977   77.43890381    1.21000004    2.66000009
   18.47472191   76.50399780    1.23000002    2.66000009
   18.47805595   76.46199799    1.23000002    2.66000009
   18.47861099   78.13809967    1.23000002    2.66000009
   18.48166656   81.84329987    1.19000006    2.67000008
   18.48777771   81.84329987    1.13000000    2.66000009
   18.49194527   75.63929749    1.14999998    2.66000009
   18.49500084   75.87889862    1.14999998    2.66000009
   18.49833298   77.54789734    1.14999998    2.66000009
   18.50138855   79.48030090    1.16999996    2.66000009
   18.50472260   76.30719757    1.28999996    2.66000009
   18.50805473   82.84429932    1.34000003    2.66000009
   18.51111031   76.02590179    1.30999994    2.64000010
   18.51194382   77.81469727    1.30999994    2.64000010
   18.51472282   78.31109619    1.30999994    2.64000010
   18.51805496   75.94180298    1.30999994    2.66000009
   18.52111053   81.60019684    1.26999998    2.66000009
   18.52444458   78.35659790    1.05999994    2.66000009
   18.53055573   78.35659790    1.03999996    2.66000009
   18.53472137   83.45790100    1.23000002    2.66000009
   18.53777695   79.71620178    1.26999998    2.66000009
   18.54111099   79.55410004    1.26999998    2.66000009
   18.54416656   78.60359955    1.26999998    2.67000008
   18.54527664   76.09539795    1.26999998    2.67000008
   18.54777718   76.02179718    1.39999998    2.64000010
   18.55111122   76.84899902    1.46000004    2.66000009
   18.55416679   77.45649719    1.46000004    2.66000009
   18.55749893   80.11129761    1.53999996    2.66000009
   18.56083298   75.66310120    1.58000004    2.66000009
   18.56388855   78.40489960    1.55999994    2.64000010
   18.56722260   73.98750305    1.41999996    2.66000009
   18.57333374   73.98750305    1.23000002    2.66000009
   18.57750130   76.45020294    1.21000004    2.66000009
   18.57861137   75.82530212    1.21000004    2.66000009
   18.58139038   81.87100220    1.13000000    2.66000009
   18.58444595   77.81929779    1.11000001    2.66000009
   18.58777809   75.70169830    1.11000001    2.66000009
   18.59083366   77.35780334    1.21000004    2.66000009
   18.59416771   77.53669739    1.19000006    2.66000009
   18.59749985   75.86920166    1.25000000    2.66000009
   18.60055542   75.52030182    1.38000000    2.64000010
   18.60388947   76.67140198    1.38000000    2.64000010
   18.60694504   76.34860229    1.38000000    2.64000010
   18.61027908   76.00150299    1.14999998    2.66000009
   18.61194420   76.56950378    1.09000003    2.66000009
   18.61611176   76.56950378    1.11000001    2.66000009
   18.62027740   77.64720154    1.13000000    2.66000009
   18.62361145   77.42990112    1.19000006    2.66000009
   18.62666702   81.63729858    1.14999998    2.66000009
   18.63000107   77.31289673    1.07000005    2.66000009
   18.63333321   80.33370209    1.07000005    2.66000009
   18.63638878   79.40129852    1.07000005    2.64000010
   18.63972282   78.33930206    1.01999998    2.66000009
   18.64277840   76.43270111    1.01999998    2.66000009
   18.64527702   79.49189758    1.11000001    2.64000010
   18.64638901   81.80110168    1.11000001    2.64000010
   18.64972115   79.32649994    1.19000006    2.66000009
   18.65277672   81.73930359    1.07000005    2.64000010
   18.65916634   81.73930359    0.98000002    2.66000009
   18.66333389   76.25969696    1.00000000    2.66000009
   18.66638756   86.27700043    1.03999996    2.64000010
   18.66972160   76.54489899    1.01999998    2.66000009
   18.67277718   79.58740234    1.01999998    2.64000010
   18.67611122   78.49019623    1.01999998    2.66000009
   18.67860985   76.74279785    1.05999994    2.64000010
   18.67972183   77.74179840    1.05999994    2.64000010
   18.68305397   80.71360016    1.05999994    2.66000009
   18.68610954   77.93520355    1.05999994    2.64000010
   18.68944359   77.09940338    1.05999994    2.66000009
   18.69277763   76.79920197    1.07000005    2.66000009
   18.69583321   75.14890289    1.09000003    2.66000009
   18.70194435   75.14890289    1.14999998    2.64000010
   18.70611191   76.97109985    1.16999996    2.64000010
   18.70916748   80.60240173    1.21000004    2.64000010
   18.71194458   80.02079773    1.23000002    2.64000010
   18.71277809   78.42510223    1.23000002    2.64000010
   18.71611214   77.10189819    1.23000002    2.64000010
   18.71916771   76.40570068    1.30999994    2.64000010
   18.72249985   79.14980316    1.30999994    2.64000010
   18.72583389   78.81310272    1.25000000    2.66000009
   18.72888947   78.10839844    1.26999998    2.66000009
   18.73222351   80.50550079    1.26999998    2.66000009
   18.73527718   88.12470245    1.25000000    2.66000009
   18.73861122   82.14150238    1.25000000    2.66000009
   18.74472237   82.14150238    1.23000002    2.64000010
   18.76305580   80.78589630    1.16999996    2.64000010
   18.76638794   77.40280151    1.13000000    2.64000010
   18.76972198   80.58619690    1.14999998    2.64000010
   18.77305603   82.61450195    1.16999996    2.64000010
   18.77611160   79.19069672    1.09000003    2.64000010
   18.77944374   79.33799744    1.09000003    2.64000010
   18.78249931   79.49720001    1.09000003    2.64000010
   18.78777695   79.49720001    1.05999994    2.64000010
   18.79194450   75.40489960    1.00000000    2.64000010
   18.79527664   81.05049896    0.98000002    2.64000010
   18.79611015   77.41470337    0.98000002    2.64000010
   18.79888916   82.32969666    0.98000002    2.64000010
   18.80222130   83.00610352    1.00000000    2.64000010
   18.80527687   79.20700073    1.00000000    2.64000010
   18.80861092   79.53620148    0.98000002    2.64000010
   18.81166649   77.95369720    0.95999998    2.64000010
   18.81499863   80.78389740    0.94000000    2.64000010
   18.81805611   81.70439911    0.94000000    2.64000010
   18.82139015   79.83329773    0.95999998    2.64000010
   18.82472229   78.58020020    0.98000002    2.64000010
   18.83083344   78.58020020    1.03999996    2.64000010
   18.83472252   80.72640228    1.03999996    2.64000010
   18.83805656   81.84210205    1.03999996    2.64000010
   18.84138870   78.70819855    1.05999994    2.64000010
   18.84444427   82.77580261    1.07000005    2.64000010
   18.84777832   82.02839661    1.05999994    2.64000010
   18.85083389   76.65689850    1.05999994    2.64000010
   18.85416794   79.38749695    1.05999994    2.64000010
   18.85722351   82.43569946    0.94000000    2.64000010
   18.86055565   78.44930267    0.92000002    2.64000010
   18.86277771   78.89739990    0.94000000    2.64000010
   18.86416626   79.00599670    0.94000000    2.64000010
   18.86750031   78.09989929    0.95999998    2.64000010
   18.87361145   78.09989929    0.94000000    2.64000010
   18.87777710   77.99559784    0.94000000    2.64000010
   18.88083267   80.30460358    0.95999998    2.64000010
   18.88416672   80.39830017    0.95999998    2.64000010
   18.88722229   80.97460175    0.98000002    2.64000010
   18.89055634   74.82260132    0.98000002    2.64000010
   18.89388847   83.77179718    0.92000002    2.64000010
   18.89611053   78.64710236    0.92000002    2.61999989
   18.89749908   76.43039703    0.89999998    2.64000010
   18.90083313   78.53510284    0.89999998    2.64000010
   18.90388870   80.71330261    0.92000002    2.64000010
   18.90722275   80.17060089    0.92000002    2.64000010
   18.91027832   79.86750031    0.92000002    2.64000010
   18.91638756   79.86750031    0.94000000    2.64000010
   18.92055511   82.20059967    0.89999998    2.64000010
   18.92388916   86.73639679    0.88000000    2.64000010
   18.92694473   81.32990265    0.88000000    2.64000010
   18.92944336   81.11460114    0.83999997    2.64000010
   18.93055534   80.61699677    0.83999997    2.64000010
   18.93388748   79.91320038    0.83999997    2.64000010
   18.93694305   83.11689758    0.81999999    2.64000010
   18.94027710   77.83940125    0.80000001    2.64000010
   18.94333267   79.44960022    0.80000001    2.64000010
   18.94666672   77.75640106    0.76999998    2.64000010
   18.95000076   84.69499969    0.76999998    2.64000010
   18.95305634   90.23580170    0.75000000    2.64000010
   18.95916748   90.23580170    0.75000000    2.64000010
   18.96333504   83.35600281    0.75000000    2.64000010
   18.96666718   81.37509918    0.75000000    2.64000010
   18.96972275   78.82009888    0.75000000    2.64000010
   18.97305679   81.17790222    0.75000000    2.64000010
   18.97638893   81.60600281    0.75000000    2.64000010
   18.97944450   80.42669678    0.75000000    2.64000010
   18.98277855   76.89430237    0.75000000    2.64000010
   18.98583412   83.54949951    0.73000002    2.64000010
   18.98916626   76.72619629    0.73000002    2.61999989
   18.99222183   75.21080017    0.73000002    2.64000010
   18.99555588   82.31759644    0.73000002    2.64000010
   18.99638939   78.78730011    0.70999998    2.61999989
   19.00222206   78.78730011    0.73000002    2.64000010
   19.00611115   83.08460236    0.75000000    2.64000010
   19.00944519   76.58499908    0.75000000    2.64000010
   19.01277733   82.63710022    0.75000000    2.61999989
   19.01583290   83.39959717    0.75000000    2.61999989
   19.01916695   80.71959686    0.75000000    2.64000010
   19.02222252   76.91359711    0.75000000    2.64000010
   19.02555466   85.60489655    0.75000000    2.61999989
   19.02888870   81.22239685    0.75000000    2.61999989
   19.02944374   78.52880096    0.75000000    2.61999989
   19.03222275   79.57910156    0.75000000    2.61999989
   19.03555489   78.23570251    0.75000000    2.61999989
   19.03861046   78.93589783    0.79000002    2.61999989
   19.04500008   78.93589783    0.80000001    2.61999989
   19.04916573   78.98110199    0.81999999    2.61999989
   19.05222130   82.78440094    0.83999997    2.61999989
   19.05555534   80.51210022    0.86000001    2.64000010
   19.05861092   83.30539703    0.92000002    2.61999989
   19.06194305   82.02980042    0.92000002    2.61999989
   19.06305504   76.28669739    0.92000002    2.61999989
   19.06555557   79.34100342    0.92000002    2.61999989
   19.06888962   78.73090363    0.92000002    2.61999989
   19.07194519   82.32959747    0.98000002    2.61999989
   19.07527924   74.80120087    1.00000000    2.61999989
   19.07833481   79.50409698    1.00000000    2.61999989
   19.08166695   76.97859955    1.05999994    2.61999989
   19.08777809   76.97859955    1.09000003    2.61999989
   19.09194565   78.86769867    1.05999994    2.61999989
   19.09500122   79.43109894    1.11000001    2.61999989
   19.09638977   81.02100372    1.11000001    2.61999989
   19.09861183   76.75779724    1.13000000    2.61999989
   19.10194397   78.95610046    1.23000002    2.61999989
   19.10499954   77.63089752    1.28999996    2.61999989
   19.10833359   76.04109955    1.28999996    2.61999989
   19.11166763   79.70429993    1.28999996    2.61999989
   19.11472321   77.97470093    1.26999998    2.61999989
   19.11805534   78.65129852    1.16999996    2.61999989
   19.12111092   77.97470093    1.16999996    2.61999989
   19.12444496   76.79750061    1.16999996    2.61999989
   19.13055611   76.79750061    1.16999996    2.61999989
   19.13472176   77.44680023    1.13000000    2.61999989
   19.13805580   77.04319763    1.13000000    2.59999990
   19.14111137   74.88670349    1.13000000    2.59999990
   19.14444351   81.05750275    1.13000000    2.61999989
   19.14777756   85.55200195    1.07000005    2.59999990
   19.15083313   76.70449829    1.09000003    2.59999990
   19.15416718   78.03330231    1.11000001    2.59999990
   19.15722275   79.12979889    1.13000000    2.59999990
   19.16055489   79.27500153    1.13000000    2.59999990
   19.16305542   77.69229889    1.11000001    2.59999990
   19.16416550   76.81400299    1.11000001    2.59999990
   19.16749954   82.56130219    1.09000003    2.59999990
   19.17361069   82.56130219    1.01999998    2.59999990
   19.17749977   78.58719635    1.01999998    2.61999989
   19.18083191   77.42680359    1.00000000    2.61999989
   19.18416595   77.80699921    1.00000000    2.59999990
   19.18722153   78.71820068    0.95999998    2.59999990
   19.19055557   78.59670258    0.95999998    2.59999990
   19.19361115   83.06340027    0.89999998    2.59999990
   19.19638824   77.35030365    0.89999998    2.59999990
   19.19722176   84.20490265    0.89999998    2.59999990
   19.20055580   81.36229706    0.89999998    2.59999990
   19.20361137   82.85980225    0.92000002    2.59999990
   19.20694542   83.03050232    0.92000002    2.59999990
   19.21027946   88.74030304    0.89999998    2.59999990
   19.21638870   88.74030304    0.88000000    2.59999990
   19.22055626   83.71849823    0.88000000    2.59999990
   19.22361183   79.08979797    0.86000001    2.59999990
   19.22694588   89.59040070    0.83999997    2.59999990
   19.22972298   84.79409790    0.81999999    2.61999989
   19.23055649   82.44860077    0.80000001    2.59999990
   19.23388863   84.49590302    0.79000002    2.59999990
   19.23694420   89.55970001    0.79000002    2.59999990
   19.24027824   81.60169983    0.79000002    2.59999990
   19.24361229   78.01719666    0.83999997    2.59999990
   19.24666786   81.78500366    0.83999997    2.59999990
   19.25000000   80.90070343    0.83999997    2.59999990
   19.25305557   79.88950348    0.81999999    2.59999990
   19.25916672   79.88950348    0.83999997    2.57999992
   19.26333427   79.84999847    0.83999997    2.59999990
   19.26666641   79.32920074    0.88000000    2.59999990
   19.26972198   78.68409729    0.86000001    2.59999990
   19.27305603   84.25800323    0.83999997    2.59999990
   19.27611160   84.30549622    0.81999999    2.59999990
   19.27944374   80.62590027    0.83999997    2.59999990
   19.28277779   81.21150208    0.86000001    2.59999990
   19.28583336   78.52950287    0.86000001    2.59999990
   19.28916550   86.23660278    0.81999999    2.59999990
   19.29222107   81.88780212    0.81999999    2.59999990
   19.29555511   81.51380157    0.75000000    2.59999990
   19.29638863   87.00849915    0.75000000    2.59999990
   19.30194283   87.00849915    0.75000000    2.59999990
   19.30611038   87.80840302    0.75000000    2.59999990
   19.30944443   93.15380096    0.81999999    2.59999990
   19.31250000   86.17800140    0.86000001    2.59999990
   19.31583214   85.99579620    0.92000002    2.59999990
   19.31888962   87.68810272    0.92000002    2.57999992
   19.32222366   82.87509918    0.92000002    2.57999992
   19.32555580   84.27220154    0.89999998    2.59999990
   19.32861137   85.88469696    0.89999998    2.57999992
   19.32972336   81.96230316    0.89999998    2.57999992
   19.33222389   81.59490204    0.98000002    2.57999992
   19.33555603   82.97049713    1.00000000    2.57999992
   19.33861160   77.71450043    1.00000000    2.57999992
   19.34500122   77.71450043    1.01999998    2.57999992
   19.34889030   80.87709808    1.16999996    2.57999992
   19.35222244   77.45680237    1.16999996    2.57999992
   19.35555649   80.48400116    1.21000004    2.55999994
   19.35861206   84.69830322    1.23000002    2.57999992
   19.36194420   77.48560333    1.25000000    2.57999992
   19.36305618   79.74559784    1.25000000    2.57999992
   19.36555672   81.37020111    1.25000000    2.57999992
   19.36888885   79.22229767    1.26999998    2.57999992
   19.37194443   79.36660004    1.53999996    2.57999992
   19.37527847   80.05799866    1.51999998    2.57999992
   19.37861061   76.33419800    1.53999996    2.55999994
   19.38166618   78.10919952    1.51999998    2.55999994
   19.38777733   78.10919952    1.44000006    2.57999992
   19.39194489   80.37909698    1.63000000    2.57999992
   19.39500046   79.32399750    1.75000000    2.55999994
   19.39638901   77.03269958    1.75000000    2.57999992
   19.39861107   80.85269928    1.76999998    2.55999994
   19.40194321   80.74929810    1.80999994    2.55999994
   19.40527725   79.23380280    2.19000006    2.55999994
   19.40833282   80.16269684    2.03999996    2.55999994
   19.41166687   83.13980103    2.03999996    2.57999992
   19.41472244   77.03269958    2.15000010    2.55999994
   19.41805458   85.08129883    2.25000000    2.55999994
   19.42111015   83.88189697    2.25000000    2.55999994
   19.42444420   76.95200348    2.59999990    2.53999996
   19.43055534   76.95200348    2.71000004    2.53999996
   19.43472099   78.86370087    2.17000008    2.53999996
   19.43805504   76.65850067    1.91999996    2.55999994
   19.44111061   85.50070190    1.88000000    2.55999994
   19.44444275   76.63089752    1.80999994    2.53999996
   19.44749832   79.07299805    1.73000002    2.55999994
   19.45083427   80.72100067    1.73000002    2.55999994
   19.45388985   85.76219940    1.71000004    2.55999994
   19.45722389   84.16480255    1.71000004    2.55999994
   19.46055603   78.75109863    1.58000004    2.55999994
   19.46305656   80.13110352    1.36000001    2.55999994
   19.46389008   78.17890167    1.36000001    2.55999994
   19.46722221   82.59809875    1.38000000    2.55999994
   19.47333336   82.59809875    1.33000004    2.55999994
   19.47750092   82.04209900    1.38000000    2.55999994
   19.48083305   79.98960114    1.30999994    2.55999994
   19.48388863   81.35720062    1.30999994    2.55999994
   19.48722267   79.99819946    1.30999994    2.55999994
   19.49055672   82.50340271    1.30999994    2.55999994
   19.49361229   84.91130066    1.21000004    2.55999994
   19.49638939   81.00810242    1.19000006    2.55999994
   19.49722290   80.34500122    1.19000006    2.55999994
   19.50055504   82.76709747    1.21000004    2.55999994
   19.50361061   79.95639801    1.21000004    2.55999994
   19.50694466   82.17479706    1.21000004    2.55999994
   19.51027870   82.39299774    1.21000004    2.55999994
   19.51638794   82.39299774    1.16999996    2.55999994
   19.52027702   80.92469788    1.11000001    2.53999996
   19.52361107   82.63790131    1.01999998    2.55999994
   19.52694511   84.69779968    1.00000000    2.55999994
   19.52972221   82.12039948    1.00000000    2.55999994
   19.53027725   82.68740082    1.00000000    2.53999996
   19.53361130   81.47209930    1.01999998    2.55999994
   19.53694344   84.50630188    1.03999996    2.53999996
   19.53999901   81.58809662    1.01999998    2.55999994
   19.54333305   82.15139771    1.01999998    2.55999994
   19.54638863   87.08769989    1.01999998    2.55999994
   19.54972076   85.28939819    1.03999996    2.55999994
   19.55277634   78.68910217    1.03999996    2.55999994
   19.55916595   78.68910217    1.00000000    2.55999994
   19.56333351   81.26740265    1.00000000    2.55999994
   19.56638718   81.36370087    1.01999998    2.53999996
   19.56972313   83.48370361    1.53999996    2.53999996
   19.57277870   83.20580292    2.01999998    2.51999998
   19.57611275   79.48639679    2.07999992    2.51999998
   19.57944489   80.59249878    2.05999994    2.51999998
   19.58250046   84.01909637    2.03999996    2.51999998
   19.58583450   78.50299835    1.94000006    2.53999996
   19.58889008   87.66709900    2.05999994    2.51999998
   19.59222221   83.18869781    2.01999998    2.51999998
   19.59527779   79.20429993    2.07999992    2.53999996
   19.59638977   81.27549744    2.19000006    2.51999998
   19.60194397   81.27549744    1.78999996    2.53999996
   19.60611153   81.33390045    2.00000000    2.51999998
   19.60916710   80.56829834    2.03999996    2.51999998
   19.61250114   77.90630341    2.07999992    2.51999998
   19.61583328   81.46800232    1.94000006    2.51999998
   19.61888885   84.31759644    2.05999994    2.51999998
   19.62222290   81.10659790    2.09999990    2.51999998
   19.62527847   81.00299835    2.01999998    2.53999996
   19.62861061   84.51399994    2.03999996    2.51999998
   19.62972260   81.72059631    2.03999996    2.51999998
   19.63222313   79.20149994    2.05999994    2.53999996
   19.63555527   85.65730286    2.28999996    2.51999998
   19.63888931   78.13549805    2.39000010    2.51999998
   19.64472198   78.13549805    2.17000008    2.51999998
   19.64888954   83.13369751    1.89999998    2.51999998
   19.65222168   83.09629822    1.80999994    2.51999998
   19.65527725   80.27040100    1.73000002    2.51999998
   19.65861130   78.46060181    1.71000004    2.51999998
   19.66166687   80.56559753    1.53999996    2.53999996
   19.66305542   80.08950043    1.53999996    2.53999996
   19.66527748   80.19450378    1.51999998    2.53999996
   19.66860962   82.77210236    1.38000000    2.51999998
   19.67194366   92.10520172    1.33000004    2.51999998
   19.67499924   78.82039642    1.26999998    2.51999998
   19.67833328   86.80429840    1.13000000    2.53999996
   19.68138885   83.35160065    1.11000001    2.51999998
   19.68777657   83.35160065    1.09000003    2.53999996
   19.69166565   78.18659973    1.11000001    2.53999996
   19.69499969   83.29409790    1.09000003    2.51999998
   19.69638824   79.82119751    1.01999998    2.53999996
   19.69861031   81.96970367    1.01999998    2.51999998
   19.70194435   78.51200104    1.03999996    2.51999998
   19.70527840   82.18669891    1.05999994    2.51999998
   19.70833397   79.74530029    1.09000003    2.51999998
   19.71166801   84.59649658    1.09000003    2.53999996
   19.71472359   80.51899719    1.09000003    2.51999998
   19.71805573   81.72779846    1.05999994    2.51999998
   19.72111130   81.64569855    1.01999998    2.51999998
   19.72444534   81.61389923    1.01999998    2.53999996
   19.73055649   81.61389923    1.11000001    2.51999998
   19.73472214   77.69719696    1.11000001    2.51999998
   19.73777771   84.88169861    1.07000005    2.51999998
   19.74111176   82.75370026    1.09000003    2.51999998
   19.74416733   82.56790161    1.13000000    2.51999998
   19.74749947   84.42900085    1.19000006    2.51999998
   19.75083351   81.66979980    1.23000002    2.51999998
   19.75388908   83.97650146    1.13000000    2.51999998
   19.75722313   81.38770294    1.11000001    2.51999998
   19.76027870   85.67289734    1.13000000    2.51999998
   19.76305580   85.40090179    1.13000000    2.51999998
   19.78361130   85.40090179    1.05999994    2.51999998
   19.78777695   89.35279846    1.14999998    2.51999998
   19.79111099   81.69380188    1.14999998    2.51999998
   19.79416656   81.23339844    1.11000001    2.51999998
   19.79638863   81.85350037    1.19000006    2.50000000
   19.79805565   85.51899719    1.19000006    2.50000000
   19.80111122   87.15280151    1.19000006    2.51999998
   19.80444336   80.63120270    1.14999998    2.51999998
   19.80777740   85.91699982    1.14999998    2.51999998
   19.81083298   86.00370026    1.16999996    2.50000000
   19.81416512   85.75550079    1.16999996    2.50000000
   19.81722260   90.87979889    1.16999996    2.50000000
   19.82055664   93.43599701    1.16999996    2.50000000
   19.82638931   93.43599701    1.23000002    2.50000000
   19.83055687  195.62600708    1.25000000    2.51999998
   19.83361244  229.29699707    1.25000000    2.50000000
   19.83694458  278.64199829    1.23000002    2.50000000
   19.84027863  321.25299072    1.21000004    2.50000000
   19.84222221  263.60400391    1.21000004    2.50000000
   19.84361267  155.16799927    1.21000004    2.50000000
   19.84361267   86.00370026    1.16999996    2.50000000
   19.84361267   85.75550079    1.16999996    2.50000000
   19.84388924   90.87979889    1.16999996    2.50000000
   19.84388924   93.43599701    1.16999996    2.50000000
   19.84388924  195.62600708    1.25000000    2.51999998
   19.84416771  229.29699707    1.25000000    2.50000000
   19.84416771  278.64199829    1.23000002    2.50000000
   19.84444427  321.25299072    1.21000004    2.50000000
   19.84444427   85.91699982    1.14999998    2.51999998
   19.84555626  144.23599243    1.21000004    2.50000000
   19.84861183   51.30089951    1.21000004    2.50000000
   19.85194397   -1.00000000    1.21000004    2.50000000
   19.85527802   -1.00000000    1.26999998    2.50000000
   19.85833359   -1.00000000    1.19000006    2.48000002
   19.86833382   -1.00000000    1.14999998    2.50000000
   19.87166595   -1.00000000    1.25000000    2.50000000
   19.87472153   -1.00000000    1.21000004    2.48000002
   19.87833405   -1.00000000    1.21000004    2.50000000
   19.88138962   -1.00000000    1.23000002    2.50000000
   19.88472176   -1.00000000    1.25000000    2.48000002
   19.88805580   -1.00000000    1.09000003    2.48000002
   19.89111137   -1.00000000    1.11000001    2.48000002
   19.89444351   -1.00000000    1.21000004    2.48000002
   19.89749908   -1.00000000    1.28999996    2.48000002
   19.90083313   -1.00000000    1.30999994    2.48000002
   19.91110992   -1.00000000    1.33000004    2.50000000
   19.91444397   -1.00000000    1.28999996    2.50000000
   19.91749954   -1.00000000    1.28999996    2.48000002
   19.92083359   -1.00000000    1.28999996    2.48000002
   19.92416573   -1.00000000    1.34000003    2.48000002
   19.92722130   -1.00000000    1.34000003    2.48000002
   19.93055534   -1.00000000    1.25000000    2.48000002
   19.93361092   -1.00000000    1.19000006    2.48000002
   19.93694305   -1.00000000    1.26999998    2.48000002
   19.93999863   -1.00000000    1.30999994    2.48000002
   19.94333267   -1.00000000    1.30999994    2.48000002
   19.95416832   -1.00000000    1.14999998    2.48000002
   19.95722389   -1.00000000    1.19000006    2.48000002
   19.96055603   -1.00000000    1.19000006    2.46000004
   19.96361160   -1.00000000    1.23000002    2.48000002
   19.96694565   -1.00000000    1.25000000    2.46000004
   19.97000122   -1.00000000    1.30999994    2.48000002
   19.97333336   -1.00000000    1.30999994    2.48000002
   19.97666740   -1.00000000    1.25000000    2.48000002
   19.98000145   -1.00000000    1.30999994    2.48000002
   19.98333359   -1.00000000    1.30999994    2.48000002
   19.98638916   -1.00000000    1.33000004    2.46000004
   19.99694443   -1.00000000    1.30999994    2.46000004
   20.00000000   -1.00000000    1.28999996    2.46000004
   20.00333405   -1.00000000    1.36000001    2.44000006
   20.00666618   -1.00000000    1.36000001    2.44000006
   20.00972176   -1.00000000    1.39999998    2.46000004
   20.01333427   -1.00000000    1.36000001    2.46000004
   20.01666641   -1.00000000    1.38000000    2.46000004
   20.01972198   -1.00000000    1.38000000    2.46000004
   20.02305603   -1.00000000    1.39999998    2.46000004
   20.02611160   -1.00000000    1.39999998    2.46000004
   20.02944374   -1.00000000    1.39999998    2.46000004
   20.03972244   -1.00000000    1.41999996    2.46000004
   20.04305458   -1.00000000    1.38000000    2.46000004
   20.04638863   -1.00000000    1.33000004    2.46000004
   20.04972076   -1.00000000    1.33000004    2.46000004
   20.05277634   -1.00000000    1.34000003    2.44000006
   20.05611038   -1.00000000    1.34000003    2.44000006
   20.05916595   -1.00000000    1.38000000    2.44000006
   20.06250000   -1.00000000    1.30999994    2.44000006
   20.06555557   -1.00000000    1.25000000    2.44000006
   20.06888962   -1.00000000    1.25000000    2.44000006
   20.07222366   -1.00000000    1.26999998    2.44000006
   20.08250046   -1.00000000    1.30999994    2.44000006
   20.08583450   -1.00000000    1.33000004    2.44000006
   20.08889008   -1.00000000    1.30999994    2.44000006
   20.09222221   -1.00000000    1.30999994    2.44000006
   20.09555626   -1.00000000    1.30999994    2.44000006
   20.09861183   -1.00000000    1.30999994    2.44000006
   20.10194397   -1.00000000    1.25000000    2.44000006
   20.10499954   -1.00000000    1.26999998    2.44000006
   20.10833359   -1.00000000    1.28999996    2.44000006
   20.11194420   -1.00000000    1.30999994    2.44000006
   20.11527824   -1.00000000    1.30999994    2.44000006
   20.12555504   -1.00000000    1.46000004    2.42000008
   20.12861061   -1.00000000    1.50000000    2.42000008
   20.13194466   -1.00000000    1.51999998    2.42000008
   20.13500023   -1.00000000    1.61000001    2.40000010
   20.13833237   -1.00000000    1.73000002    2.40000010
   20.14138794   -1.00000000    1.78999996    2.42000008
   20.14500046   -1.00000000    1.78999996    2.42000008
   20.14833260   -1.00000000    1.85000002    2.42000008
   20.15138817   -1.00000000    1.83000004    2.42000008
   20.15472221   -1.00000000    1.83000004    2.40000010
   20.15777779   -1.00000000    1.80999994    2.40000010
   20.16833305   -1.00000000    1.39999998    2.40000010
   20.17138863   -1.00000000    1.34000003    2.42000008
   20.17472076   -1.00000000    1.30999994    2.40000010
   20.17833328   -1.00000000    1.30999994    2.40000010
   20.18166542   -1.00000000    1.33000004    2.40000010
   20.18472099   -1.00000000    1.34000003    2.40000010
   20.18805504   -1.00000000    1.33000004    2.42000008
   20.19111061   -1.00000000    1.33000004    2.42000008
   20.19444275   -1.00000000    1.30999994    2.40000010
   20.19749832   -1.00000000    1.26999998    2.40000010
   20.20083427   -1.00000000    1.26999998    2.40000010
   20.21111107   -1.00000000    1.28999996    2.40000010
   20.21444511   -1.00000000    1.33000004    2.40000010
   20.21750069   -1.00000000    1.34000003    2.40000010
   20.22083473   -1.00000000    1.33000004    2.40000010
   20.22389030   -1.00000000    1.33000004    2.40000010
   20.22722244   -1.00000000    1.36000001    2.40000010
   20.23027802   -1.00000000    1.41999996    2.39000010
   20.23361206   -1.00000000    1.41999996    2.39000010
   20.23694420   -1.00000000    1.41999996    2.39000010
   20.23999977   -1.00000000    1.41999996    2.39000010
   20.24333382   -1.00000000    1.51999998    2.39000010
   20.25388908   -1.00000000    1.58000004    2.39000010
   20.25722313   -1.00000000    1.58000004    2.39000010
   20.26055527   -1.00000000    1.58000004    2.39000010
   20.26388931   -1.00000000    1.61000001    2.39000010
   20.26694489   -1.00000000    1.61000001    2.39000010
   20.27027702   -1.00000000    1.53999996    2.39000010
   20.27333260   -1.00000000    1.44000006    2.39000010
   20.27666664   -1.00000000    1.36000001    2.39000010
   20.28027725   -1.00000000    1.33000004    2.39000010
   20.28361130   -1.00000000    1.33000004    2.39000010
   20.28666687   -1.00000000    1.30999994    2.36999989
   20.29694366   -1.00000000    1.33000004    2.39000010
   20.29999924   -1.00000000    1.33000004    2.39000010
   20.30333328   -1.00000000    1.33000004    2.39000010
   20.30638885   -1.00000000    1.33000004    2.36999989
   20.30972099   -1.00000000    1.30999994    2.36999989
   20.31305504   -1.00000000    1.30999994    2.36999989
   20.31638718   -1.00000000    1.30999994    2.36999989
   20.31944466   -1.00000000    1.33000004    2.36999989
   20.32277870   -1.00000000    1.33000004    2.36999989
   20.32583427   -1.00000000    1.36000001    2.36999989
   20.32916832   -1.00000000    1.36000001    2.36999989
   20.33972359   -1.00000000    1.39999998    2.36999989
   20.34277916   -1.00000000    1.41999996    2.36999989
   20.34638977   -1.00000000    1.39999998    2.36999989
   20.34972191   -1.00000000    1.39999998    2.36999989
   20.35277748   -1.00000000    1.39999998    2.36999989
   20.35611153   -1.00000000    1.44000006    2.36999989
   20.35916710   -1.00000000    1.50000000    2.34999990
   20.36250114   -1.00000000    1.55999994    2.34999990
   20.36583328   -1.00000000    1.63000000    2.34999990
   20.36888885   -1.00000000    1.63000000    2.32999992
   20.37222290   -1.00000000    1.63000000    2.32999992
   20.38249969   -1.00000000    1.58000004    2.32999992
   20.38583374   -1.00000000    1.61000001    2.34999990
   20.38888931   -1.00000000    1.61000001    2.34999990
   20.39222145   -1.00000000    1.60000002    2.34999990
   20.39527702   -1.00000000    1.60000002    2.34999990
   20.39861107   -1.00000000    1.53999996    2.32999992
   20.40166664   -1.00000000    1.53999996    2.32999992
   20.40499878   -1.00000000    1.51999998    2.32999992
   20.40833282   -1.00000000    1.48000002    2.32999992
   20.41166687   -1.00000000    1.46000004    2.32999992
   20.41499901   -1.00000000    1.44000006    2.32999992
   20.42527771   -1.00000000    1.38000000    2.32999992
   20.42860985   -1.00000000    1.38000000    2.32999992
   20.43166542   -1.00000000    1.39999998    2.32999992
   20.43499947   -1.00000000    1.39999998    2.32999992
   20.43833160   -1.00000000    1.51999998    2.32999992
   20.44138718   -1.00000000    1.53999996    2.32999992
   20.44499969   -1.00000000    1.53999996    2.32999992
   20.44833183   -1.00000000    1.53999996    2.30999994
   20.45138931   -1.00000000    1.50000000    2.30999994
   20.45472336   -1.00000000    1.46000004    2.32999992
   20.45777893   -1.00000000    1.46000004    2.30999994
   20.46805573   -1.00000000    1.48000002    2.32999992
   20.47138977   -1.00000000    1.46000004    2.32999992
   20.47472191   -1.00000000    1.46000004    2.30999994
   20.47805595   -1.00000000    1.50000000    2.30999994
   20.48139000   -1.00000000    1.48000002    2.30999994
   20.48444557   -1.00000000    1.50000000    2.30999994
   20.48777771   -1.00000000    1.50000000    2.30999994
   20.49111176   -1.00000000    1.50000000    2.30999994
   20.49416733   -1.00000000    1.51999998    2.30999994
   20.49749947   -1.00000000    1.53999996    2.30999994
   20.50055504   -1.00000000    1.71000004    2.28999996
   20.51111031   -1.00000000    1.85000002    2.28999996
   20.51444435   -1.00000000    1.85000002    2.28999996
   20.51749992   -1.00000000    2.09999990    2.28999996
   20.52083397   -1.00000000    2.23000002    2.28999996
   20.52416611   -1.00000000    2.32999992    2.28999996
   20.52722168   -1.00000000    2.39000010    2.28999996
   20.53055573   -1.00000000    2.42000008    2.28999996
   20.53361130   -1.00000000    2.51999998    2.26999998
   20.53694344   -1.00000000    2.57999992    2.26999998
   20.53999901   -1.00000000    2.82999992    2.25000000
   20.54333305   -1.00000000    3.09999990    2.25000000
   20.55388832   -1.00000000    3.20000005    2.25000000
   20.55722237   -1.00000000    2.84999990    2.25000000
   20.56027794   -1.00000000    2.67000008    2.26999998
   20.56361008   -1.00000000    2.67000008    2.26999998
   20.56666756   -1.00000000    2.59999990    2.25000000
   20.57000160   -1.00000000    2.59999990    2.25000000
   20.57305717   -1.00000000    2.64000010    2.25000000
   20.57638931   -1.00000000    2.50000000    2.25000000
   20.57972336   -1.00000000    2.40000010    2.25000000
   20.58305550   -1.00000000    2.44000006    2.25000000
   20.58611107   -1.00000000    2.46000004    2.25000000
   20.59666824   -1.00000000    2.30999994    2.23000002
   20.60000038   -1.00000000    2.26999998    2.25000000
   20.60305595   -1.00000000    2.28999996    2.25000000
   20.60639000   -1.00000000    2.34999990    2.23000002
   20.60944557   -1.00000000    2.34999990    2.25000000
   20.61305618   -1.00000000    2.39000010    2.23000002
   20.61638832   -1.00000000    2.42000008    2.23000002
   20.61944389   -1.00000000    2.26999998    2.23000002
   20.62277794   -1.00000000    2.23000002    2.23000002
   20.62583351   -1.00000000    2.25000000    2.23000002
   20.62916756   -1.00000000    2.40000010    2.23000002
   20.63944435   -1.00000000    2.59999990    2.23000002
   20.64277840   -1.00000000    2.55999994    2.21000004
   20.64611053   -1.00000000    2.39000010    2.21000004
   20.64944458   -1.00000000    2.34999990    2.21000004
   20.65250015   -1.00000000    2.89000010    2.21000004
   20.65583229   -1.00000000    2.69000006    2.21000004
   20.65916634   -1.00000000    2.67000008    2.21000004
   20.66222191   -1.00000000    2.50000000    2.21000004
   20.66555595   -1.00000000    2.17000008    2.21000004
   20.66860962   -1.00000000    2.05999994    2.21000004
   20.67194366   -1.00000000    2.00000000    2.19000006
   20.68249893   -1.00000000    2.01999998    2.19000006
   20.68555450   -1.00000000    1.96000004    2.19000006
   20.68888855   -1.00000000    1.96000004    2.19000006
   20.69194412   -1.00000000    1.98000002    2.21000004
   20.69527626   -1.00000000    2.07999992    2.21000004
   20.69833183   -1.00000000    2.09999990    2.19000006
   20.70166779   -1.00000000    2.13000011    2.21000004
   20.70499992   -1.00000000    2.25000000    2.19000006
   20.70805550   -1.00000000    2.26999998    2.19000006
   20.71166801   -1.00000000    2.32999992    2.19000006
   20.71500015   -1.00000000    2.30999994    2.19000006
   20.72527885   -1.00000000    2.32999992    2.17000008
   20.72833443   -1.00000000    2.34999990    2.17000008
   20.73166656   -1.00000000    2.40000010    2.17000008
   20.73500061   -1.00000000    2.53999996    2.17000008
   20.73805618   -1.00000000    2.67000008    2.17000008
   20.74138832   -1.00000000    2.82999992    2.17000008
   20.74472237   -1.00000000    2.96000004    2.15000010
   20.74805641   -1.00000000    2.96000004    2.15000010
   20.75111198   -1.00000000    2.61999989    2.15000010
   20.75444412   -1.00000000    2.40000010    2.15000010
   20.75777817   -1.00000000    2.30999994    2.15000010
   20.76805496   -1.00000000    2.28999996    2.15000010
   20.77138901   -1.00000000    2.40000010    2.15000010
   20.77444458   -1.00000000    2.34999990    2.15000010
   20.77805519   -1.00000000    2.44000006    2.15000010
   20.79749870   -1.00000000    2.30999994    2.13000011
   20.80083275   -1.00000000    2.23000002    2.15000010
   20.81083298   -1.00000000    2.13000011    2.13000011
   20.81416512   -1.00000000    2.11999989    2.13000011
   20.81722260   -1.00000000    2.23000002    2.11999989
   20.82055664   -1.00000000    2.48000002    2.11999989
   20.82389069   -1.00000000    2.78999996    2.11999989
   20.82694626   -1.00000000    2.78999996    2.11999989
   20.83027840   -1.00000000    3.41000009    2.11999989
   20.83333397   -1.00000000    4.01999998    2.11999989
   20.83666801   -1.00000000    4.38999987    2.11999989
   20.83972359   -1.00000000    4.40999985    2.11999989
   20.84305573   -1.00000000    4.38999987    2.11999989
   20.85388947   -1.00000000    2.76999998    2.09999990
   20.85694504   -1.00000000    2.53999996    2.09999990
   20.86027908   -1.00000000    2.39000010    2.09999990
   20.86333466   -1.00000000    2.46000004    2.09999990
   20.86666679   -1.00000000    2.48000002    2.09999990
   20.86972237   -1.00000000    2.84999990    2.07999992
   20.87305641   -1.00000000    2.71000004    2.09999990
   20.87638855   -1.00000000    2.59999990    2.09999990
   20.88000107   -1.00000000    2.42000008    2.07999992
   20.88305473   -1.00000000    2.42000008    2.07999992
   20.88638878   -1.00000000    2.46000004    2.07999992
   20.89666748   -1.00000000    2.84999990    2.07999992
   20.89972115   -1.00000000    2.64000010    2.07999992
   20.90305519   -1.00000000    2.64000010    2.05999994
   20.90638924   -1.00000000    2.64000010    2.05999994
   20.90944481   -1.00000000    2.53999996    2.05999994
   20.91305542   -1.00000000    2.40000010    2.05999994
   20.91611099   -1.00000000    2.34999990    2.05999994
   20.91944313   -1.00000000    2.34999990    2.05999994
   20.92249870   -1.00000000    2.26999998    2.05999994
   20.92583275   -1.00000000    2.23000002    2.03999996
   20.92916679   -1.00000000    2.23000002    2.03999996
   20.93944359   -1.00000000    2.39000010    2.03999996
   20.94277763   -1.00000000    2.36999989    2.03999996
   20.94638824   -1.00000000    2.42000008    2.03999996
   20.94944382   -1.00000000    2.48000002    2.03999996
