    HOUR (UT)   FLARE FACTOR    SKY TESTER    SUN TESTER
   11.38166714   -1.00000000   -1.00000000   -1.00000000
   11.42166710   87.34089661    4.90999985    2.50000000
   11.42472267   85.47519684    4.90999985    2.50000000
   11.42805576   82.03890228    4.90999985    2.50000000
   11.43111134   87.30249786    4.90999985    2.50000000
   11.43444443   86.22589874    4.90999985    2.50000000
   11.43777752   82.74870300    4.90999985    2.50000000
   11.44194412   82.74870300    4.90999985    2.50000000
   11.44583321   87.63770294    4.90999985    2.50000000
   11.44916630   84.86940002    4.90999985    2.51999998
   11.45249939   85.50409698    4.90999985    2.50000000
   11.45472240   84.75440216    4.90999985    2.51999998
   11.45611095   83.41580200    4.90999985    2.50000000
   11.45944405   87.10399628    4.90999985    2.50000000
   11.46249962   89.91570282    4.90999985    2.50000000
   11.46583271   88.45850372    4.90999985    2.51999998
   11.46916580   86.98580170    4.90999985    2.50000000
   11.47222137   85.41970062    4.90999985    2.50000000
   11.47555542   85.59040070    4.90999985    2.51999998
   11.47861099   86.13200378    4.90999985    2.51999998
   11.48472214   86.13200378    4.90999985    2.51999998
   11.48888874   86.72250366    4.90999985    2.51999998
   11.49194431   89.42870331    4.90999985    2.51999998
   11.49527836   86.47370148    4.90999985    2.51999998
   11.49861145   82.50980377    4.90999985    2.50000000
   11.50194454   88.29859924    4.90999985    2.51999998
   11.50500011   88.04160309    4.90999985    2.51999998
   11.50833321   83.53160095    4.90999985    2.51999998
   11.51138878   91.07119751    4.90999985    2.51999998
   11.51472187   87.18720245    4.90999985    2.51999998
   11.51805496   83.03119659    4.90999985    2.51999998
   11.52111053   90.92669678    4.90999985    2.51999998
   11.52166653   85.55999756    4.90999985    2.51999998
   11.52750015   85.55999756    4.90999985    2.51999998
   11.53166676   85.35240173    4.90999985    2.51999998
   11.53500080   82.35910034    4.90999985    2.51999998
   11.53805637   83.92350006    4.90999985    2.51999998
   11.54138947   84.96060181    4.90999985    2.51999998
   11.54472256   87.59889984    4.90999985    2.51999998
   11.54777813   85.41480255    4.90999985    2.53999996
   11.55111122   85.94339752    4.90999985    2.51999998
   11.55416679   89.87899780    4.90999985    2.51999998
   11.55500031   86.53209686    4.90999985    2.53999996
   11.55777836   86.64019775    4.90999985    2.51999998
   11.56111145   86.45960236    4.90999985    2.53999996
   11.56416702   85.84329987    4.90999985    2.53999996
   11.57027817   85.84329987    4.90999985    2.51999998
   11.57444477   83.73719788    4.90999985    2.53999996
   11.57777786   84.41149902    4.90999985    2.53999996
   11.58083344   85.05919647    4.90999985    2.53999996
   11.58416653   89.47910309    4.90999985    2.51999998
   11.58749962   85.34750366    4.90999985    2.53999996
   11.58833313   89.54000092    4.90999985    2.53999996
   11.59111118   84.20439911    4.90999985    2.53999996
   11.59444427   85.02410126    4.90999985    2.53999996
   11.59749985   85.41989899    4.90999985    2.53999996
   11.60083389   83.24389648    4.90999985    2.53999996
   11.60388947   84.45639801    4.90999985    2.53999996
   11.60722256   89.47820282    4.90999985    2.53999996
   11.61333370   89.47820282    4.90999985    2.53999996
   11.61750031   85.69879913    4.90999985    2.53999996
   11.62055588   83.59519958    4.90999985    2.55999994
   11.62166691   83.92479706    4.90999985    2.55999994
   11.62416649   83.42320251    4.90999985    2.55999994
   11.62750053   80.68620300    4.90999985    2.53999996
   11.63055611   84.13079834    4.90999985    2.53999996
   11.63388920   86.66049957    4.90999985    2.53999996
   11.63694477   84.28430176    4.90999985    2.53999996
   11.64027786   80.75869751    4.90999985    2.53999996
   11.64361095   85.72309875    4.90999985    2.55999994
   11.64666653   84.24800110    4.90999985    2.53999996
   11.64999962   86.70580292    4.90999985    2.53999996
   11.65611076   86.70580292    4.90999985    2.55999994
   11.66027737   81.89459991    4.90999985    2.53999996
   11.66333294   82.72720337    4.90999985    2.55999994
   11.66666698   80.35600281    4.90999985    2.55999994
   11.67000008   84.51979828    4.90999985    2.55999994
   11.67305565   85.83329773    4.90999985    2.55999994
   11.67638874   83.30370331    4.90999985    2.53999996
   11.67972279   83.32910156    4.90999985    2.55999994
   11.68277836   86.14510345    4.90999985    2.53999996
   11.68611145   83.80660248    4.90999985    2.55999994
   11.68833351   82.76360321    4.90999985    2.55999994
   11.68972206   88.80310059    4.90999985    2.55999994
   11.69305515   84.60870361    4.90999985    2.55999994
   11.69888878   84.60870361    4.90999985    2.53999996
   11.70305538   83.01760101    4.90999985    2.55999994
   11.70638847   79.95120239    4.90999985    2.55999994
   11.70944405   82.35440063    4.90999985    2.55999994
   11.71277714   86.47530365    4.90999985    2.55999994
   11.71583271   86.34709930    4.90999985    2.55999994
   11.71916580   87.59239960    4.90999985    2.55999994
   11.72166634   84.88400269    4.90999985    2.53999996
   11.72277737   82.67019653    4.90999985    2.55999994
   11.72611046   81.04319763    4.90999985    2.57999992
   11.72916603   81.59159851    4.90999985    2.57999992
   11.73249912   81.39160156    4.90999985    2.55999994
   11.73583317   87.52480316    4.90999985    2.55999994
   11.74194431   87.52480316    4.90999985    2.55999994
   11.74583340   81.28510284    4.90999985    2.57999992
   11.74916649   83.87000275    4.90999985    2.55999994
   11.75249958   86.38590240    4.90999985    2.55999994
   11.75527763   83.51519775    4.90999985    2.57999992
   11.75611115   82.79920197    4.90999985    2.57999992
   11.75944424   83.10739899    4.90999985    2.57999992
   11.76249981   87.71209717    4.90999985    2.57999992
   11.76583290   89.20580292    4.90999985    2.57999992
   11.76916599   87.20010376    4.90999985    2.55999994
   11.77222157   85.12500000    4.90999985    2.57999992
   11.77555561   81.52140045    4.90999985    2.57999992
   11.77861118   85.25060272    4.90999985    2.55999994
   11.78472233   85.25060272    4.90999985    2.57999992
   11.78888893   81.93550110    4.90999985    2.57999992
   11.79194450   81.47429657    4.90999985    2.57999992
   11.79527855   81.58029938    4.90999985    2.57999992
   11.79833412   83.56939697    4.90999985    2.59999990
   11.80166721   79.84559631    4.90999985    2.57999992
   11.80500031   81.95809937    4.90999985    2.59999990
   11.80805588   82.34519958    4.90999985    2.57999992
   11.81138897   80.72679901    4.90999985    2.57999992
   11.81472206   84.77089691    4.90999985    2.57999992
   11.81777763   85.73410034    4.90999985    2.57999992
   11.82111073   82.06700134    4.90999985    2.57999992
   11.82166672   82.43430328    4.90999985    2.57999992
   11.82750034   82.43430328    4.90999985    2.59999990
   11.83166695   84.89360046    4.90999985    2.59999990
   11.83472157   82.48719788    4.90999985    2.59999990
   11.83805561   81.84970093    4.90999985    2.57999992
   11.84138870   83.34210205    4.90999985    2.57999992
   11.84444427   85.17199707    4.90999985    2.57999992
   11.84777737   83.23300171    4.90999985    2.59999990
   11.85111141   80.28589630    4.90999985    2.57999992
   11.85416698   82.37989807    4.90999985    2.57999992
   11.85500050   82.18049622    4.90999985    2.59999990
   11.85777855   81.18360138    4.90999985    2.59999990
   11.86111164   79.23590088    4.90999985    2.57999992
   11.86416721   86.62400055    4.90999985    2.59999990
   11.87027836   86.62400055    4.90999985    2.59999990
   11.87444496   81.23819733    4.90999985    2.59999990
   11.87777805   78.11660004    4.90999985    2.59999990
   11.88083363   79.60079956    4.90999985    2.59999990
   11.88416672   78.27469635    4.90999985    2.59999990
   11.88749981   81.69200134    4.90999985    2.59999990
   11.88833332   77.84320068    4.90999985    2.59999990
   11.89083290   76.89019775    4.90999985    2.59999990
   11.89416695   81.83080292    4.90999985    2.59999990
   11.89722252   79.78099823    4.90999985    2.59999990
   11.90055561   76.70379639    4.90999985    2.59999990
   11.90388870   81.03980255    4.90999985    2.59999990
   11.90694427   79.43370056    4.90999985    2.59999990
   11.91333294   79.43370056    4.90999985    2.59999990
   11.91722298   80.22750092    4.90999985    2.61999989
   11.92055607   81.91919708    4.90999985    2.59999990
   11.92194462   80.76360321    4.90999985    2.61999989
   11.92416668   81.50309753    4.90999985    2.59999990
   11.92750072   77.02899933    4.90999985    2.59999990
   11.93055630   81.44740295    4.90999985    2.61999989
   11.93388939   85.34040070    4.90999985    2.61999989
   11.93722248   81.88050079    4.90999985    2.59999990
   11.94027805   80.25610352    4.90999985    2.61999989
   11.94361115   79.97119904    4.90999985    2.61999989
   11.94694424   82.89640045    4.90999985    2.59999990
   11.94999981   80.59100342    4.90999985    2.61999989
   11.95611095   80.59100342    4.90999985    2.59999990
   11.96027756   80.74019623    4.90999985    2.61999989
   11.96333313   79.42520142    4.90999985    2.61999989
   11.96666622   79.52610016    4.90999985    2.61999989
   11.96999931   80.41950226    4.90999985    2.59999990
   11.97305489   79.78720093    4.90999985    2.61999989
   11.97638798   77.79859924    4.90999985    2.64000010
   11.97944355   79.53810120    4.90999985    2.61999989
   11.98277760   86.51699829    4.90999985    2.61999989
   11.98611164   78.34799957    4.90999985    2.61999989
   11.98833370   81.98370361    4.90999985    2.61999989
   11.98972225   78.94419861    4.90999985    2.61999989
   11.99305534   81.98079681    4.90999985    2.61999989
   11.99888897   81.98079681    4.90999985    2.61999989
   12.00305557   83.69840240    4.90999985    2.61999989
   12.00611115   77.98390198    4.90999985    2.61999989
   12.00944424   77.02519989    4.90999985    2.61999989
   12.01277733   78.36380005    4.90999985    2.61999989
   12.01583290   81.80239868    4.90999985    2.61999989
   12.01916599   81.87039948    4.90999985    2.61999989
   12.02166653   78.04309845    4.90999985    2.61999989
   12.02277756   76.86769867    4.90999985    2.61999989
   12.02611065   80.72450256    4.90999985    2.61999989
   12.02916622   78.45860291    4.90999985    2.61999989
   12.03249931   81.28459930    4.90999985    2.61999989
   12.03583336   78.42109680    4.90999985    2.61999989
   12.04166698   78.42109680    4.90999985    2.64000010
   12.04583359   81.65820313    4.90999985    2.61999989
   12.04916668   83.20610046    4.90999985    2.64000010
   12.05222225   82.91989899    4.90999985    2.61999989
   12.05527782   80.25090027    4.90999985    2.61999989
   12.05583382   84.28450012    4.90999985    2.61999989
   12.05916691   79.61650085    4.90999985    2.61999989
   12.06222248   80.55870056    4.90999985    2.61999989
   12.06555557   79.95850372    4.90999985    2.61999989
   12.06888866   80.31659698    4.90999985    2.64000010
   12.07194424   80.43340302    4.90999985    2.61999989
   12.07527733   81.96839905    4.90999985    2.64000010
   12.07861137   81.66100311    4.90999985    2.64000010
   12.08472157   81.66100311    4.90999985    2.64000010
   12.08861065   82.42549896    4.90999985    2.61999989
   12.09194374   79.23220062    4.90999985    2.61999989
   12.09527779   79.27529907    4.90999985    2.64000010
   12.09833336   80.58609772    4.90999985    2.61999989
   12.10166740   81.83509827    4.90999985    2.64000010
   12.10472298   79.22579956    4.90999985    2.64000010
   12.10805607   79.31710052    4.90999985    2.64000010
   12.11138916   80.36139679    4.90999985    2.64000010
   12.11444473   81.54219818    4.90999985    2.64000010
   12.11777782   85.53430176    4.90999985    2.64000010
   12.12111092   82.50569916    4.90999985    2.64000010
   12.12194443   77.35669708    4.90999985    2.64000010
   12.12750053   77.35669708    4.90999985    2.61999989
   12.13166714   80.68979645    4.90999985    2.64000010
   12.13472176   84.13809967    4.90999985    2.64000010
   12.13805580   81.11090088    4.90999985    2.61999989
   12.14111137   82.30660248    4.90999985    2.64000010
   12.14444447   79.62180328    4.90999985    2.64000010
   12.14777756   79.33000183    4.90999985    2.64000010
   12.15083313   76.80280304    4.90999985    2.64000010
   12.15416622   79.46360016    4.90999985    2.64000010
   12.15527725   78.49849701    4.90999985    2.64000010
   12.15777779   79.67310333    4.90999985    2.64000010
   12.16111088   82.65390015    4.90999985    2.64000010
   12.16416645   78.46929932    4.90999985    2.64000010
   12.17027855   78.46929932    4.90999985    2.64000010
   12.17444515   83.22380066    4.90999985    2.64000010
   12.17750072   85.03970337    4.90999985    2.64000010
   12.18083382   84.44210052    4.90999985    2.64000010
   12.18416691   78.22730255    4.90999985    2.64000010
   12.18722248   80.67230225    4.90999985    2.66000009
   12.18861103   78.84470367    4.90999985    2.66000009
   12.19083309   78.10199738    4.90999985    2.64000010
   12.19416714   77.88569641    4.90999985    2.64000010
   12.19722271   81.01940155    4.90999985    2.64000010
   12.20055580   86.01709747    4.90999985    2.64000010
   12.20388889   83.86660004    4.90999985    2.66000009
   12.20694447   76.68150330    4.90999985    2.66000009
   12.21305561   76.68150330    4.90999985    2.66000009
   12.21722221   83.24289703    4.90999985    2.66000009
   12.22055531   79.04190063    4.90999985    2.64000010
   12.22194386   80.12500000    4.90999985    2.66000009
   12.22388840   80.96420288    4.90999985    2.66000009
   12.22722149   82.07530212    4.90999985    2.66000009
   12.23027706   78.81250000    4.90999985    2.66000009
   12.23361111   80.98899841    4.90999985    2.66000009
   12.23694515   81.66269684    4.90999985    2.66000009
   12.24000072   83.62840271    4.90999985    2.64000010
   12.24333382   87.38600159    4.90999985    2.66000009
   12.24666691   80.39369965    4.90999985    2.66000009
   12.24972248   84.16200256    4.90999985    2.66000009
   12.25583363   84.16200256    4.90999985    2.67000008
   12.26000023   82.85389709    4.90999985    2.66000009
   12.26333332   76.59559631    4.90999985    2.66000009
   12.26666641   80.88089752    4.90999985    2.66000009
   12.26972198   79.36199951    4.90999985    2.66000009
   12.27305508   79.64859772    4.90999985    2.66000009
   12.27638817   80.28559875    4.90999985    2.66000009
   12.27944374   83.78849792    4.90999985    2.66000009
   12.28277779   81.09829712    4.90999985    2.66000009
   12.28611183   84.94470215    4.90999985    2.66000009
   12.28861141   77.91699982    4.90999985    2.67000008
   12.28944492   82.67459869    4.90999985    2.66000009
   12.29277802   77.52670288    4.90999985    2.66000009
   12.29888916   77.52670288    4.90999985    2.66000009
   12.30277824   76.56849670    4.90999985    2.66000009
   12.30611134   79.27149963    4.90999985    2.66000009
   12.30944443   83.44539642    4.90999985    2.66000009
   12.31250000   80.99870300    4.90999985    2.66000009
   12.31583309   78.44909668    4.90999985    2.66000009
   12.31916618   82.43009949    4.90999985    2.66000009
   12.32194424   80.90899658    4.90999985    2.67000008
   12.32250023   82.72519684    4.90999985    2.67000008
   12.32583332   81.28820038    4.90999985    2.67000008
   12.32888889   81.57379913    4.90999985    2.67000008
   12.33222198   82.22000122    4.90999985    2.66000009
   12.33555508   80.93000031    4.90999985    2.66000009
   12.34166622   80.93000031    4.90999985    2.67000008
   12.34583282   76.46880341    4.90999985    2.66000009
   12.34888840   72.51399994    4.90999985    2.66000009
   12.35222244   75.28269958    4.90999985    2.66000009
   12.35527802   76.80629730    4.90999985    2.66000009
   12.35583401   79.53759766    4.90999985    2.67000008
   12.35916710   81.02110291    4.90999985    2.66000009
   12.36222267   76.93280029    4.90999985    2.67000008
   12.36555576   75.63089752    4.90999985    2.67000008
   12.36888885   80.48760223    4.90999985    2.66000009
   12.37194443   78.21739960    4.90999985    2.67000008
   12.37527752   84.75140381    4.90999985    2.66000009
   12.37861156   79.00540161    4.90999985    2.67000008
   12.38444424   79.00540161    4.90999985    2.67000008
   12.38861084   76.21219635    4.90999985    2.67000008
   12.39194393   79.30590057    4.90999985    2.67000008
   12.39499950   76.64579773    4.90999985    2.67000008
   12.39833355   77.12419891    4.90999985    2.67000008
   12.40138817   79.04389954    4.90999985    2.67000008
   12.40472221   81.27600098    4.90999985    2.67000008
   12.40805531   81.23979950    4.90999985    2.66000009
   12.41111088   78.02510071    4.90999985    2.67000008
   12.41444397   79.61599731    4.90999985    2.66000009
   12.41777802   79.30159760    4.90999985    2.67000008
   12.42083359   80.11139679    4.90999985    2.67000008
   12.42194462   77.11319733    4.90999985    2.66000009
   12.44250011   77.11319733    4.90999985    2.67000008
   12.44666672   81.42939758    4.90999985    2.67000008
   12.44999981   85.99909973    4.90999985    2.67000008
   12.45305538   74.64730072    4.90999985    2.67000008
   12.45527744   77.30660248    4.90999985    2.67000008
   12.45666695   76.35230255    4.90999985    2.67000008
   12.46000004   77.31449890    4.90999985    2.67000008
   12.46333313   76.68869781    4.90999985    2.67000008
   12.46638870   80.60980225    4.90999985    2.67000008
   12.46972179   79.50520325    4.90999985    2.67000008
   12.47277737   78.29910278    4.90999985    2.69000006
   12.47611046   81.08830261    4.90999985    2.67000008
   12.47944355   81.88680267    4.90999985    2.67000008
   12.48527813   81.88680267    4.90999985    2.67000008
   12.48944473   80.73190308    4.90999985    2.67000008
   12.49277782   78.49240112    4.90999985    2.67000008
   12.49583340   80.22530365    4.90999985    2.67000008
   12.49916649   81.52469635    4.90999985    2.67000008
   12.50222206   77.92209625    4.90999985    2.67000008
   12.50555515   82.76200104    4.90999985    2.69000006
   12.50888920   82.72010040    4.90999985    2.67000008
   12.51194477   82.54560089    4.90999985    2.67000008
   12.51527786   81.15809631    4.90999985    2.67000008
   12.51861095   79.56960297    4.90999985    2.67000008
   12.52166653   80.16329956    4.90999985    2.69000006
   12.52222157   80.25659943    4.90999985    2.67000008
   12.52805519   80.25659943    4.90999985    2.69000006
   12.53222179   77.05740356    4.90999985    2.69000006
   12.53555584   79.69049835    4.90999985    2.67000008
   12.53861141   82.25469971    4.90999985    2.69000006
   12.54194450   76.72650146    4.90999985    2.67000008
   12.54527855   76.64309692    4.90999985    2.69000006
   12.54833412   78.98259735    4.90999985    2.69000006
   12.55166721   82.67849731    4.90999985    2.69000006
   12.55500031   76.25949860    4.90999985    2.67000008
   12.55555534   79.01950073    4.90999985    2.67000008
   12.55861092   81.99530029    4.90999985    2.67000008
   12.56166649   79.48570251    4.90999985    2.69000006
   12.56500053   80.53759766    4.90999985    2.67000008
   12.57111073   80.53759766    4.90999985    2.69000006
   12.57499981   78.90170288    4.90999985    2.69000006
   12.57833290   80.37349701    4.90999985    2.69000006
   12.58166695   75.23549652    4.90999985    2.69000006
   12.58472157   78.62059784    4.90999985    2.69000006
   12.58805561   83.19809723    4.90999985    2.69000006
   12.58888817   78.03739929    4.90999985    2.67000008
   12.59166622   79.82679749    4.90999985    2.69000006
   12.59472179   83.52079773    4.90999985    2.69000006
   12.59805489   88.03530121    4.90999985    2.69000006
   12.60138893   82.45649719    4.90999985    2.69000006
   12.60444450   78.11920166    4.90999985    2.69000006
   12.60777855   78.89769745    4.90999985    2.69000006
   12.61388969   78.89769745    4.90999985    2.69000006
   12.61805534   84.01480103    4.90999985    2.69000006
   12.62111092   81.39589691    4.90999985    2.67000008
   12.62222195   79.18029785    4.90999985    2.69000006
   12.62500000   79.61499786    4.90999985    2.69000006
   12.62805557   77.82550049    4.90999985    2.69000006
   12.63138866   79.06639862    4.90999985    2.69000006
   12.63472176   79.31999969    4.90999985    2.69000006
   12.63777733  130.57099915    4.90999985    2.69000006
   12.64111137   87.51760101    4.90999985    2.69000006
   12.64444447   78.79720306    4.90999985    2.69000006
   12.64750004   81.00930023    4.90999985    2.69000006
   12.65083313   80.94640350    4.90999985    2.71000004
   12.65666676   80.94640350    4.90999985    2.69000006
   12.66083336   79.93869781    4.90999985    2.69000006
   12.66416645   82.88310242    4.90999985    2.69000006
   12.66722298   83.30030060    4.90999985    2.69000006
   12.67055607   79.99539948    4.90999985    2.69000006
   12.67361164   81.58219910    4.90999985    2.69000006
   12.67694473   81.11900330    4.90999985    2.69000006
   12.68027782   87.42420197    4.90999985    2.69000006
   12.68333340   78.86499786    4.90999985    2.69000006
   12.68666649   77.26139832    4.90999985    2.71000004
   12.68888855   78.45760345    4.90999985    2.69000006
   12.69027805   79.55780029    4.90999985    2.69000006
   12.69333363   80.27850342    4.90999985    2.69000006
   12.69944477   80.27850342    4.90999985    2.69000006
   12.70361137   76.57959747    4.90999985    2.71000004
   12.70694447   77.04100037    4.90999985    2.71000004
   12.71000004   77.15450287    4.90999985    2.71000004
   12.71333313   83.82720184    4.90999985    2.69000006
   12.71694374   82.08560181    4.90999985    2.71000004
   12.71999931   77.15170288    4.90999985    2.71000004
   12.72222137   80.05930328    4.90999985    2.71000004
   12.72388840   76.48010254    4.90999985    2.71000004
   12.72694397   78.51570129    4.90999985    2.71000004
   12.73055553   76.54170227    4.90999985    2.71000004
   12.73388958   79.37709808    4.90999985    2.69000006
   12.73694515   79.51689911    4.90999985    2.71000004
   12.74250031   79.51689911    4.90999985    2.71000004
   12.74638939   85.18219757    4.90999985    2.69000006
   12.74972248   78.03009796    4.90999985    2.71000004
   12.75305557   77.05180359    4.90999985    2.69000006
   12.75555515   80.31839752    4.90999985    2.71000004
   12.75666714   75.40429688    4.90999985    2.71000004
   12.75972176   76.19439697    4.90999985    2.71000004
   12.76305580   78.76049805    4.90999985    2.69000006
   12.76638889   77.34960175    4.90999985    2.71000004
   12.76944447   78.26519775    4.90999985    2.73000002
   12.77277756   76.55809784    4.90999985    2.71000004
   12.77611065   79.71690369    4.90999985    2.69000006
   12.77916622   76.72229767    4.90999985    2.71000004
   12.78527832   76.72229767    4.90999985    2.71000004
   12.78944492   78.03710175    4.90999985    2.71000004
   12.79250050   79.72270203    4.90999985    2.71000004
   12.79583359   83.01909637    4.90999985    2.71000004
   12.79916668   84.07749939    4.90999985    2.71000004
   12.80222225   79.88130188    4.90999985    2.71000004
   12.80555534   81.99349976    4.90999985    2.71000004
   12.80888939   78.24440002    4.90999985    2.71000004
   12.81194496   84.46269989    4.90999985    2.71000004
   12.81527805   78.58039856    4.90999985    2.71000004
   12.81861115   77.29989624    4.90999985    2.71000004
   12.82166672   81.23329926    4.90999985    2.73000002
   12.82222176   74.10949707    4.90999985    2.71000004
   12.82805538   74.10949707    4.90999985    2.71000004
   12.83222198   77.41639709    4.90999985    2.73000002
   12.83555508   76.02890015    4.90999985    2.71000004
   12.83861065   79.70059967    4.90999985    2.71000004
   12.84194374   78.36389923    4.90999985    2.71000004
   12.84499931   77.14089966    4.90999985    2.71000004
   12.84833336   77.92749786    4.90999985    2.71000004
   12.85166740   75.66629791    4.90999985    2.71000004
   12.85472298   76.18049622    4.90999985    2.73000002
   12.85555553   82.76619720    4.90999985    2.73000002
   12.85833359   79.48239899    4.90999985    2.73000002
   12.86166668   83.06079865    4.90999985    2.73000002
   12.86472225  149.92599487    4.90999985    2.71000004
   12.87083340  149.92599487    4.90999985    2.71000004
   12.87500000   80.59470367    4.90999985    2.71000004
   12.87833309   74.70140076    4.90999985    2.73000002
   12.88138866   78.66010284    4.90999985    2.73000002
   12.88472176   77.18019867    4.90999985    2.73000002
   12.88805580   79.02899933    4.90999985    2.73000002
   12.88888836   70.35070038    4.90999985    2.71000004
   12.89166641   80.93990326    4.90999985    2.73000002
   12.89499950   83.31099701    4.90999985    2.73000002
   12.89805508   79.48190308    4.90999985    2.73000002
   12.90138817   84.20909882    4.90999985    2.73000002
   12.90444374   79.35910034    4.90999985    2.73000002
   12.90777779   75.66919708    4.90999985    2.71000004
   12.91388893   75.66919708    4.90999985    2.73000002
   12.91777802   75.80220032    4.90999985    2.73000002
   12.92111111   79.56340027    4.90999985    2.73000002
   12.92222214   74.92990112    4.90999985    2.71000004
   12.92472267   78.90959930    4.90999985    2.71000004
   12.92805576   80.29019928    4.90999985    2.73000002
   12.93111134   76.98509979    4.90999985    2.73000002
   12.93444443   75.76339722    4.90999985    2.73000002
   12.93750000   77.99430084    4.90999985    2.73000002
   12.94083309   82.49160004    4.90999985    2.71000004
   12.94416714   79.83889771    4.90999985    2.75000000
   12.94750023   82.28289795    4.90999985    2.71000004
   12.95055580   83.08339691    4.90999985    2.73000002
   12.95666695   83.08339691    4.90999985    2.73000002
   12.96083355   81.30519867    4.90999985    2.71000004
   12.96388912   82.28209686    4.90999985    2.71000004
   12.96722221   80.04290009    4.90999985    2.73000002
   12.97055531   80.26640320    4.90999985    2.73000002
   12.97361088   87.68699646    4.90999985    2.73000002
   12.97694397   80.42800140    4.90999985    2.73000002
   12.97999954   80.44470215    4.90999985    2.73000002
   12.98333359   77.27870178    4.90999985    2.71000004
   12.98666668   80.79370117    4.90999985    2.73000002
   12.98888874   79.26789856    4.90999985    2.73000002
   12.99027824   77.27020264    4.90999985    2.71000004
   12.99361134   78.42400360    4.90999985    2.75000000
   12.99944496   78.42400360    4.90999985    2.73000002
   13.00361156   76.28279877    4.90999985    2.75000000
   13.00694466   84.74340057    4.90999985    2.73000002
   13.01000023   77.58999634    4.90999985    2.71000004
   13.01333332   81.88230133    4.90999985    2.73000002
   13.01638889   81.49639893    4.90999985    2.73000002
   13.01972198   80.27639771    4.90999985    2.73000002
   13.02222157   81.46269989    4.90999985    2.73000002
   13.02333355   78.22920227    4.90999985    2.73000002
   13.02666664   79.51540375    4.90999985    2.73000002
   13.02972221   78.63919830    4.90999985    2.73000002
   13.03305531   80.18019867    4.90999985    2.73000002
   13.03611183   80.56009674    4.90999985    2.73000002
   13.04222298   80.56009674    4.90999985    2.73000002
   13.04638958   81.52529907    4.90999985    2.75000000
   13.04972267   77.80680084    4.90999985    2.73000002
   13.05277824   78.03440094    4.90999985    2.73000002
   13.05555534   78.53880310    4.90999985    2.73000002
   13.05638885   79.73650360    4.90999985    2.73000002
   13.05972195   78.34390259    4.90999985    2.73000002
   13.06277752   78.91870117    4.90999985    2.75000000
   13.06611156   80.15039825    4.90999985    2.73000002
   13.06916618   79.29250336    4.90999985    2.73000002
   13.07250023   85.26490021    4.90999985    2.75000000
   13.07583332   84.29370117    4.90999985    2.75000000
   13.07888889   78.86530304    4.90999985    2.73000002
   13.08500004   78.86530304    4.90999985    2.73000002
   13.08916664   79.21549988    4.90999985    2.73000002
   13.09249973   83.90019989    4.90999985    2.73000002
   13.09583282   86.71160126    4.90999985    2.73000002
   13.09888840   85.64610291    4.90999985    2.73000002
   13.10222244   82.03520203    4.90999985    2.75000000
   13.10527802   81.44450378    4.90999985    2.73000002
   13.10861111   80.30159760    4.90999985    2.73000002
   13.11194515   80.80809784    4.90999985    2.75000000
   13.11500072   82.18009949    4.90999985    2.73000002
   13.11833382   81.73449707    4.90999985    2.75000000
   13.12166691   79.83989716    4.90999985    2.75000000
   13.12222195   83.58560181    4.90999985    2.75000000
   13.12805557   83.58560181    4.90999985    2.73000002
   13.13222218   80.07119751    4.90999985    2.73000002
   13.13527775   80.64730072    4.90999985    2.73000002
   13.13861084   79.19029999    4.90999985    2.75000000
   13.14166641   78.07050323    4.90999985    2.73000002
   13.14499950   79.76750183    4.90999985    2.75000000
   13.14833355   80.98320007    4.90999985    2.75000000
   13.15138817   81.54789734    4.90999985    2.75000000
   13.15472221   84.18240356    4.90999985    2.75000000
   13.15555477   85.68840027    4.90999985    2.75000000
   13.15833282   87.57559967    4.90999985    2.75000000
   13.16166592   77.81620026    4.90999985    2.73000002
   13.16472149   73.48650360    4.90999985    2.75000000
   13.17083359   73.48650360    4.90999985    2.75000000
   13.17500019   75.91570282    4.90999985    2.75000000
   13.17805576   77.44100189    4.90999985    2.75000000
   13.18138885   79.20220184    4.90999985    2.75000000
   13.18472195   79.24359894    4.90999985    2.75000000
   13.18777752   77.63079834    4.90999985    2.75000000
   13.18888855   80.26010132    4.90999985    2.75000000
   13.19138908   79.78050232    4.90999985    2.73000002
   13.19472218   80.26090240    4.90999985    2.75000000
   13.19777775   78.23419952    4.90999985    2.75000000
   13.20111084   78.22810364    4.90999985    2.75000000
   13.20444393   75.65390015    4.90999985    2.75000000
   13.20749950   81.65419769    4.90999985    2.75000000
   13.21361065   81.65419769    4.90999985    2.75000000
   13.21777725   81.30599976    4.90999985    2.75000000
   13.22111034   74.78299713    4.90999985    2.75000000
   13.22222137   73.32140350    4.90999985    2.75000000
   13.22472191   78.91909790    4.90999985    2.75000000
   13.22805500   77.80650330    4.90999985    2.75000000
   13.23111057   81.58270264    4.90999985    2.75000000
   13.23444462   80.98179626    4.90999985    2.73000002
   13.23777771   77.90409851    4.90999985    2.75000000
   13.24083328   76.72930145    4.90999985    2.75000000
   13.24416733   79.34230042    4.90999985    2.75000000
   13.24722290   78.90149689    4.90999985    2.75000000
   13.25055599   80.76239777    4.90999985    2.73000002
   13.25638866   80.76239777    4.90999985    2.75000000
   13.26055527   79.24510193    4.90999985    2.75000000
   13.26388931   80.05999756    4.90999985    2.75000000
   13.26722240   79.69249725    4.90999985    2.75000000
   13.27027798   78.26879883    4.90999985    2.75000000
   13.27361107   83.00849915    4.90999985    2.75000000
   13.27694416   79.92880249    4.90999985    2.75000000
   13.27999973   83.03549957    4.90999985    2.75000000
   13.28333378   74.79930115    4.90999985    2.75000000
   13.28638935   77.03569794    4.90999985    2.75000000
   13.28888893   79.79119873    4.90999985    2.75000000
   13.29000092   78.79129791    4.90999985    2.75000000
   13.29333401   79.62819672    4.90999985    2.75000000
   13.29944515   79.62819672    4.90999985    2.75000000
   13.30361176   91.95010376    4.90999985    2.75000000
   13.30666733   87.87519836    4.90999985    2.75000000
   13.31000042   90.45960236    4.90999985    2.75000000
   13.31305599   97.22389984    4.90999985    2.75000000
   13.31638908   96.61530304    4.90999985    2.76999998
   13.31972218   75.30460358    4.90999985    2.75000000
   13.32222176   77.19920349    4.90999985    2.75000000
   13.32333374   75.28890228    4.90999985    2.75000000
   13.32666683   78.60410309    4.90999985    2.75000000
   13.32972240   76.69349670    4.90999985    2.75000000
   13.33305550   78.21710205    4.90999985    2.75000000
   13.33638859   77.81590271    4.90999985    2.75000000
   13.34222221   77.81590271    4.90999985    2.73000002
   13.34638882   79.81169891    4.90999985    2.75000000
   13.34944439   79.68569946    4.90999985    2.75000000
   13.35277843   81.75119781    4.90999985    2.75000000
   13.35583401   79.99710083    4.90999985    2.75000000
   13.35638905   84.68609619    4.90999985    2.75000000
   13.35972214   79.10289764    4.90999985    2.75000000
   13.36277771   89.09089661    4.90999985    2.75000000
   13.36611176   82.54470062    4.90999985    2.75000000
   13.36944485   82.99909973    4.90999985    2.75000000
   13.37250042   81.81320190    4.90999985    2.75000000
   13.37583351  111.23200226    4.90999985    2.75000000
   13.37916660   84.43789673    4.90999985    2.75000000
   13.38500023   84.43789673    4.90999985    2.76999998
   13.38916683   78.27519989    4.90999985    2.76999998
   13.39249992   79.47280121    4.90999985    2.75000000
   13.39555550   82.32530212    4.90999985    2.75000000
   13.39888859   76.16410065    4.90999985    2.75000000
   13.40222168   83.39630127    4.90999985    2.75000000
   13.40527725   84.28769684    4.90999985    2.75000000
   13.40861034   83.51660156    4.90999985    2.75000000
   13.41166592   82.58180237    4.90999985    2.75000000
   13.41499996   80.00530243    4.90999985    2.75000000
   13.41833401   78.58100128    4.90999985    2.75000000
   13.42138958   83.38420105    4.90999985    2.76999998
   13.42250061   80.67050171    4.90999985    2.75000000
   13.42777824   80.67050171    4.90999985    2.75000000
   13.43194485   75.36689758    4.90999985    2.75000000
   13.43527794   79.00990295    4.90999985    2.75000000
   13.43861103   81.07289886    4.90999985    2.75000000
   13.45611095   79.59600067    4.90999985    2.76999998
   13.45861053   76.39320374    4.90999985    2.75000000
   13.46166611   77.92919922    4.90999985    2.75000000
   13.46500015   77.79109955    4.90999985    2.75000000
   13.47083282   77.79109955    4.90999985    2.76999998
   13.47499943   75.84919739    4.90999985    2.75000000
   13.47833252   77.47339630    4.90999985    2.75000000
   13.48138809   85.01100159    4.90999985    2.75000000
   13.48472214   80.79019928    4.90999985    2.76999998
   13.48805618   82.39700317    4.90999985    2.76999998
   13.48944473   76.42720032    4.90999985    2.76999998
   13.49166679   82.82730103    4.90999985    2.76999998
   13.49499989   79.39459991    4.90999985    2.76999998
   13.49805546   86.91439819    4.90999985    2.75000000
   13.50138855   80.98509979    4.90999985    2.76999998
   13.50472260   78.37760162    4.90999985    2.76999998
   13.50777817   80.19010162    4.90999985    2.76999998
   13.51388931   80.19010162    4.90999985    2.75000000
   13.51777744   84.20099640    4.90999985    2.75000000
   13.52111053   82.40029907    4.90999985    2.76999998
   13.52277756   75.22389984    4.90999985    2.75000000
   13.52472210   80.18000031    4.90999985    2.76999998
   13.52805519   82.68219757    4.90999985    2.75000000
   13.53111076   80.66280365    4.90999985    2.76999998
   13.53444481   82.59349823    4.90999985    2.76999998
   13.53777790   78.63749695    4.90999985    2.76999998
   13.54083347   78.79409790    4.90999985    2.76999998
   13.54416752   76.56150055    4.90999985    2.78999996
   13.54750061   83.47299957    4.90999985    2.76999998
   13.55055618   85.53649902    4.90999985    2.75000000
   13.55666733   85.53649902    4.90999985    2.76999998
   13.56083393   83.56109619    4.90999985    2.75000000
   13.56388950   87.50309753    4.90999985    2.75000000
   13.56722260   79.41290283    4.90999985    2.76999998
   13.57027817   79.38420105    4.90999985    2.76999998
   13.57361126   79.57679749    4.90999985    2.78999996
   13.57694435   80.64360046    4.90999985    2.76999998
   13.57999992   80.72750092    4.90999985    2.76999998
   13.58333302   81.42980194    4.90999985    2.76999998
   13.58666611   81.24649811    4.90999985    2.76999998
   13.58944416   83.53880310    4.90999985    2.76999998
   13.59000015   78.82469940    4.90999985    2.76999998
   13.59333324   80.82700348    4.90999985    2.76999998
   13.59944439   80.82700348    4.90999985    2.76999998
   13.60361195   79.40760040    4.90999985    2.76999998
   13.60694504   80.34719849    4.90999985    2.76999998
   13.61000061   79.46779633    4.90999985    2.78999996
   13.61333370   77.97100067    4.90999985    2.78999996
   13.61638927   81.95240021    4.90999985    2.75000000
   13.61972237   80.51029968    4.90999985    2.76999998
   13.62277794   85.00550079    4.90999985    2.76999998
   13.62333393   75.47019958    4.90999985    2.76999998
   13.62666702   80.84390259    4.90999985    2.76999998
   13.62972260   79.27439880    4.90999985    2.76999998
   13.63305569   79.08329773    4.90999985    2.76999998
   13.63638878   85.28600311    4.90999985    2.76999998
   13.64222240   85.28600311    4.90999985    2.78999996
   13.64638901   80.71089935    4.90999985    2.76999998
   13.64972210   77.23660278    4.90999985    2.76999998
   13.65305519   76.31030273    4.90999985    2.76999998
   13.65611076   89.68479919    4.90999985    2.76999998
   13.65638828   82.17720032    4.90999985    2.76999998
   13.65972137   76.60009766    4.90999985    2.76999998
   13.66305542   77.19439697    4.90999985    2.76999998
   13.66611099   82.52189636    4.90999985    2.76999998
   13.66944504   80.26660156    4.90999985    2.76999998
   13.67250061   75.77960205    4.90999985    2.76999998
   13.67583370   81.19930267    4.90999985    2.76999998
   13.67916679   80.47969818    4.90999985    2.76999998
   13.68527794   80.47969818    4.90999985    2.76999998
   13.68944454   75.27639771    4.90999985    2.76999998
   13.68972206   78.72450256    4.90999985    2.76999998
   13.69305515   79.37689972    4.90999985    2.76999998
   13.69638920   78.11769867    4.90999985    2.76999998
   13.69944477   79.72299957    4.90999985    2.76999998
   13.70277786   76.16310120    4.90999985    2.76999998
   13.70583344   76.88009644    4.90999985    2.76999998
   13.70916653   78.79290009    4.90999985    2.76999998
   13.71249962   75.23560333    4.90999985    2.76999998
   13.71555519   82.94149780    4.90999985    2.78999996
   13.71888828   77.85829926    4.90999985    2.78999996
   13.72222137   81.80940247    4.90999985    2.76999998
   13.72277737   78.41249847    4.90999985    2.76999998
   13.72805500   78.41249847    4.90999985    2.76999998
   13.73222160   75.95670319    4.90999985    2.78999996
   13.73527813   80.88230133    4.90999985    2.76999998
   13.73861122   84.00409698    4.90999985    2.78999996
   13.74166679   77.22059631    4.90999985    2.78999996
   13.74499989   76.72589874    4.90999985    2.78999996
   13.74833393   75.91889954    4.90999985    2.76999998
   13.75138855   77.87429810    4.90999985    2.78999996
   13.75472260   78.08809662    4.90999985    2.78999996
   13.75611115   75.41310120    4.90999985    2.78999996
   13.75833321   82.36389923    4.90999985    2.78999996
   13.76166630   79.22899628    4.90999985    2.76999998
   13.76500034   78.78469849    4.90999985    2.76999998
   13.77083302   78.78469849    4.90999985    2.78999996
   13.77499962   77.07140350    4.90999985    2.76999998
   13.77805519   75.80719757    4.90999985    2.78999996
   13.78138828   78.96630096    4.90999985    2.76999998
   13.78472233   80.97910309    4.90999985    2.76999998
   13.78777790   77.89659882    4.90999985    2.76999998
   13.78944492   80.71939850    4.90999985    2.78999996
   13.79138947   80.42900085    4.90999985    2.78999996
   13.79472256   84.38349915    4.90999985    2.78999996
   13.79805565   80.94300079    4.90999985    2.76999998
   13.80111122   78.57730103    4.90999985    2.78999996
   13.80444431   86.14849854    4.90999985    2.78999996
   13.80749989   79.71050262    4.90999985    2.76999998
   13.81361103   79.71050262    4.90999985    2.76999998
   13.81777763   76.28990173    4.90999985    2.78999996
   13.82111073   82.17829895    4.90999985    2.78999996
   13.82277775   78.16369629    4.90999985    2.78999996
   13.82444477   80.19920349    4.90999985    2.78999996
   13.82777786   80.95719910    4.90999985    2.78999996
   13.83111095   79.26429749    4.90999985    2.78999996
   13.83416653   82.58029938    4.90999985    2.78999996
   13.83749962   82.33010101    4.90999985    2.78999996
   13.84055519   79.56569672    4.90999985    2.78999996
   13.84388828   79.46900177    4.90999985    2.78999996
   13.84722233   83.33049774    4.90999985    2.78999996
   13.85027790   75.10720062    4.90999985    2.78999996
   13.85666752   75.10720062    4.90999985    2.78999996
   13.86055565   82.29689789    4.90999985    2.78999996
   13.86388969   81.10279846    4.90999985    2.78999996
   13.86722279   73.20729828    4.90999985    2.78999996
   13.87027836   75.90529633    4.90999985    2.78999996
   13.87361145   78.22250366    4.90999985    2.78999996
   13.87694454   75.88960266    4.90999985    2.78999996
   13.88000011   80.26969910    4.90999985    2.78999996
   13.88333321   78.61519623    4.90999985    2.78999996
   13.88638878   78.57260132    4.90999985    2.78999996
   13.88944435   83.95870209    4.90999985    2.80999994
   13.89000034   79.07489777    4.90999985    2.80999994
   13.89333344   77.99569702    4.90999985    2.78999996
   13.89944458   77.99569702    4.90999985    2.78999996
   13.90361118   78.27519989    4.90999985    2.78999996
   13.90666676   81.90200043    4.90999985    2.78999996
   13.90999985   85.47899628    4.90999985    2.78999996
   13.91305542   81.08899689    4.90999985    2.78999996
   13.91638851   79.86100006    4.90999985    2.76999998
   13.91972256   75.65119934    4.90999985    2.76999998
   13.92277813   79.50849915    4.90999985    2.78999996
   13.92305565   83.15229797    4.90999985    2.76999998
   13.92638874   81.20919800    4.90999985    2.76999998
   13.92972279   80.82900238    4.90999985    2.78999996
   13.93277836   80.28269958    4.90999985    2.78999996
   13.93611145   78.47270203    4.90999985    2.76999998
   13.94222260   78.47270203    4.90999985    2.78999996
   13.94638920   84.13459778    4.90999985    2.78999996
   13.94944477   78.83450317    4.90999985    2.76999998
   13.95277786   77.65139771    4.90999985    2.76999998
   13.95611095   85.04219818    4.90999985    2.78999996
   13.95638847   78.92710114    4.90999985    2.78999996
   13.95972157   76.00599670    4.90999985    2.78999996
   13.96305561   81.89920044    4.90999985    2.78999996
   13.96611118   80.58830261    4.90999985    2.78999996
   13.96944427   77.06109619    4.90999985    2.78999996
   13.97249985   74.74759674    4.90999985    2.76999998
   13.97583294   75.92759705    4.90999985    2.78999996
   13.97916603   80.73880005    4.90999985    2.76999998
   13.98500061   80.73880005    4.90999985    2.78999996
   13.98916721   77.61750031    4.90999985    2.78999996
   13.98972225   79.99459839    4.90999985    2.78999996
   13.99305534   78.00499725    4.90999985    2.80999994
   13.99611092   84.64520264    4.90999985    2.78999996
   13.99944496   79.34439850    4.90999985    2.80999994
   14.00277805   81.80750275    4.90999985    2.80999994
   14.00583363   81.84909821    4.90999985    2.82999992
   14.00916672   73.06099701    4.90999985    2.80999994
   14.01222229   78.33390045    4.90999985    2.80999994
   14.01555538   78.00309753    4.90999985    2.80999994
   14.01888847   78.43969727    4.90999985    2.80999994
   14.02194405   79.95050049    4.90999985    2.80999994
   14.02305508   82.19100189    4.90999985    2.80999994
   14.02805519   82.19100189    4.90999985    2.78999996
   14.03194427   77.08409882    4.90999985    2.80999994
   14.03527832   80.78299713    4.90999985    2.78999996
   14.03861141   86.09629822    4.90999985    2.82999992
   14.04166698   85.96549988    4.90999985    2.80999994
   14.04500008   81.95330048    4.90999985    2.82999992
   14.04833412   81.36250305    4.90999985    2.80999994
   14.05138874   84.40979767    4.90999985    2.80999994
   14.05472279   80.79239655    4.90999985    2.80999994
   14.05638885   84.06999969    4.90999985    2.80999994
   14.05833340   73.97129822    4.90999985    2.80999994
   14.06138897   80.00250244    4.90999985    2.80999994
   14.06472206   82.17630005    4.90999985    2.80999994
   14.07083321   82.17630005    4.90999985    2.78999996
   14.07499981   80.10790253    4.90999985    2.78999996
   14.07805538   77.85019684    4.90999985    2.80999994
   14.08138847   80.04329681    4.90999985    2.78999996
   14.08444405   82.85910034    4.90999985    2.78999996
   14.08777714   78.38629913    4.90999985    2.78999996
   14.08972168   78.30010223    4.90999985    2.80999994
   14.09166622   80.84739685    4.90999985    2.78999996
   14.09472179   77.01770020    4.90999985    2.78999996
   14.09805489   75.91339874    4.90999985    2.80999994
   14.10138893   81.29049683    4.90999985    2.78999996
   14.10444450   75.58439636    4.90999985    2.78999996
   14.10777855   76.68019867    4.90999985    2.78999996
   14.11361122   76.68019867    4.90999985    2.78999996
   14.11777782   81.59100342    4.90999985    2.80999994
   14.12083340   78.09169769    4.90999985    2.80999994
   14.12305546   81.32830048    4.90999985    2.80999994
   14.12472248   81.26820374    4.90999985    2.78999996
   14.12777805   80.34570313    4.90999985    2.78999996
   14.13111115   82.09819794    4.90999985    2.80999994
   14.13444424   80.54209900    4.90999985    2.80999994
   14.13749981   75.34230042    4.90999985    2.80999994
   14.14083290   75.18879700    4.90999985    2.80999994
   14.14388847   74.64810181    4.90999985    2.80999994
   14.14722252   77.44450378    4.90999985    2.82999992
   14.15055561   81.03009796    4.90999985    2.80999994
   14.15638828   81.03009796    4.90999985    2.80999994
   14.16055489   77.85379791    4.90999985    2.80999994
   14.16388893   80.39790344    4.90999985    2.80999994
   14.16694450   75.39440155    4.90999985    2.80999994
   14.17027855   83.25219727    4.90999985    2.80999994
   14.17361164   79.82579803    4.90999985    2.80999994
   14.17666721   72.97190094    4.90999985    2.78999996
   14.18000031   77.28520203    4.90999985    2.78999996
   14.18305588   79.47360229    4.90999985    2.78999996
   14.18638897   81.03759766    4.90999985    2.80999994
   14.18972206   80.95819855    4.90999985    2.80999994
   14.19027805   83.10939789    4.90999985    2.80999994
   14.19333363   81.43530273    4.90999985    2.80999994
   14.19944477   81.43530273    4.90999985    2.80999994
   14.20333290   77.65280151    4.90999985    2.80999994
   14.20666695   82.75229645    4.90999985    2.80999994
   14.21000004   80.92780304    4.90999985    2.82999992
   14.21305561   79.03079987    4.90999985    2.82999992
   14.21638870   82.73509979    4.90999985    2.82999992
   14.21944427   81.78099823    4.90999985    2.82999992
   14.22277737   79.13500214    4.90999985    2.82999992
   14.22361088   87.47399902    4.90999985    2.82999992
   14.22638798   84.39579773    4.90999985    2.82999992
   14.22972202   82.78240204    4.90999985    2.82999992
   14.23305511   81.66110229    4.90999985    2.82999992
   14.23611164   81.02809906    4.90999985    2.82999992
   14.24222279   81.02809906    4.90999985    2.82999992
   14.24638939   78.26869965    4.90999985    2.82999992
   14.24944496   75.44000244    4.90999985    2.82999992
   14.25277805   78.37519836    4.90999985    2.82999992
   14.25583363   79.97660065    4.90999985    2.84999990
   14.25694466   75.85369873    4.90999985    2.82999992
   14.25944424   82.80269623    4.90999985    2.82999992
   14.26277733   80.86049652    4.90999985    2.82999992
   14.26611137   79.02960205    4.90999985    2.82999992
   14.26916599   77.63150024    4.90999985    2.82999992
   14.27250004   79.79959869    4.90999985    2.82999992
   14.27555561   75.86959839    4.90999985    2.82999992
   14.27888870   78.61879730    4.90999985    2.82999992
   14.28500080   78.61879730    4.90999985    2.82999992
   14.28916740   75.69059753    4.90999985    2.82999992
   14.29027843   78.79460144    4.90999985    2.82999992
   14.29277802   74.07150269    4.90999985    2.80999994
   14.29611111   78.11930084    4.90999985    2.80999994
   14.29944515   83.67780304    4.90999985    2.82999992
   14.30249977   77.96489716    4.90999985    2.82999992
   14.30583382   81.43470001    4.90999985    2.80999994
   14.30888939   83.67769623    4.90999985    2.82999992
   14.31222248   77.98000336    4.90999985    2.82999992
   14.31555557   79.91510010    4.90999985    2.80999994
   14.31861115   81.51709747    4.90999985    2.82999992
   14.32194424   79.86479950    4.90999985    2.82999992
   14.32361126   77.33070374    4.90999985    2.82999992
   14.32777786   77.33070374    4.90999985    2.82999992
   14.33194447   79.66269684    4.90999985    2.80999994
   14.33527756   76.99009705    4.90999985    2.82999992
   14.33833313   77.59359741    4.90999985    2.82999992
   14.34166622   82.69979858    4.90999985    2.82999992
   14.34499931   80.78140259    4.90999985    2.82999992
   14.34805489   78.84729767    4.90999985    2.80999994
   14.35138893   74.61910248    4.90999985    2.80999994
   14.35472298   81.09049988    4.90999985    2.82999992
   14.35694504   76.41329956    4.90999985    2.82999992
   14.35805607   79.24109650    4.90999985    2.80999994
   14.36138916   81.55400085    4.90999985    2.82999992
   14.36472225   79.91380310    4.90999985    2.82999992
   14.37083340   79.91380310    4.90999985    2.80999994
   14.37472248   75.10350037    4.90999985    2.82999992
   14.37805557   79.90820313    4.90999985    2.80999994
   14.38138866   78.41349792    4.90999985    2.80999994
   14.38444424   81.71920013    4.90999985    2.80999994
   14.38777733   76.21450043    4.90999985    2.80999994
   14.39027786   84.23020172    4.90999985    2.82999992
   14.39138889   81.85019684    4.90999985    2.82999992
   14.39472198   78.96320343    4.90999985    2.82999992
   14.39805508   82.37529755    4.90999985    2.82999992
   14.40111065   78.93620300    4.90999985    2.82999992
   14.40444374   82.93370056    4.90999985    2.80999994
   14.40777779   86.36389923    4.90999985    2.80999994
   14.41361046   86.36389923    4.90999985    2.82999992
   14.41777802   79.67630005    4.90999985    2.82999992
   14.42083359   79.04039764    4.90999985    2.82999992
   14.42361164   85.34449768    4.90999985    2.80999994
   14.42444515   81.53669739    4.90999985    2.80999994
   14.42777824   84.27210236    4.90999985    2.82999992
   14.43111134   82.27510071    4.90999985    2.82999992
   14.43416691   81.51049805    4.90999985    2.82999992
   14.43750000   79.57839966    4.90999985    2.82999992
   14.44083309   77.57029724    4.90999985    2.80999994
   14.44388866   77.05770111    4.90999985    2.80999994
   14.44722271   80.14920044    4.90999985    2.80999994
   14.45027733   77.42199707    4.90999985    2.80999994
   14.45638847   77.42199707    4.90999985    2.80999994
   14.47472191   79.43150330    4.90999985    2.80999994
   14.47805500   74.57399750    4.90999985    2.80999994
   14.48111057   80.03099823    4.90999985    2.82999992
   14.48444462   76.22599792    4.90999985    2.80999994
   14.48777771   78.06330109    4.90999985    2.80999994
   14.49083328   79.68260193    4.90999985    2.80999994
   14.49416733   77.73509979    4.90999985    2.82999992
   14.49944496   77.73509979    4.90999985    2.82999992
   14.50361156   84.18270111    4.90999985    2.80999994
   14.50694466   82.48560333    4.90999985    2.82999992
   14.50777817   84.40480042    4.90999985    2.82999992
   14.51055527   78.32469940    4.90999985    2.82999992
   14.51361084   84.59960175    4.90999985    2.82999992
   14.51694393   78.30799866    4.90999985    2.82999992
   14.52027798   83.10500336    4.90999985    2.82999992
   14.52333355   75.83830261    4.90999985    2.80999994
   14.52666664   86.97859955    4.90999985    2.82999992
   14.52999973   81.83730316    4.90999985    2.82999992
   14.53305531   85.93000031    4.90999985    2.84999990
   14.53638935   84.67310333    4.90999985    2.84999990
   14.54222298   84.67310333    4.90999985    2.84999990
   14.54638958   81.32530212    4.90999985    2.84999990
   14.54972267   81.26409912    4.90999985    2.82999992
   14.55277824   78.39199829    4.90999985    2.84999990
   14.55611134   78.19640350    4.90999985    2.84999990
   14.55944443   82.92569733    4.90999985    2.84999990
   14.56250000   78.18219757    4.90999985    2.84999990
   14.56583309   74.41429901    4.90999985    2.82999992
   14.56916618   83.13939667    4.90999985    2.82999992
   14.57222176   78.78829956    4.90999985    2.84999990
   14.57444477   75.86450195    4.90999985    2.84999990
   14.57611084   84.14409637    4.90999985    2.82999992
   14.57916641   77.51069641    4.90999985    2.82999992
   14.58527756   77.51069641    4.90999985    2.82999992
   14.58916664   83.81600189    4.90999985    2.84999990
   14.59249973   86.11160278    4.90999985    2.84999990
   14.59583282   78.67199707    4.90999985    2.82999992
   14.59888840   77.02069855    4.90999985    2.80999994
   14.60222244   87.20770264    4.90999985    2.82999992
   14.60555553   84.52829742    4.90999985    2.82999992
   14.60777855   83.18399811    4.90999985    2.82999992
   14.60916710   82.13420105    4.90999985    2.84999990
   14.61222267   84.76239777    4.90999985    2.82999992
   14.61555576   80.41030121    4.90999985    2.84999990
   14.61888885   76.33170319    4.90999985    2.84999990
   14.62194443   83.55380249    4.90999985    2.82999992
   14.62805557   83.55380249    4.90999985    2.82999992
   14.63222218   83.29309845    4.90999985    2.82999992
   14.63527775   86.22019958    4.90999985    2.82999992
   14.63861084   80.23349762    4.90999985    2.82999992
   14.64111137   84.48149872    4.90999985    2.82999992
   14.64222240   88.36900330    4.90999985    2.82999992
   14.64527798   87.65869904    4.90999985    2.84999990
   14.64861107   79.31880188    4.90999985    2.84999990
   14.65194416   88.54479980    4.90999985    2.84999990
   14.65499973   82.07260132    4.90999985    2.82999992
   14.65833282   78.76519775    4.90999985    2.82999992
   14.66166592   84.16040039    4.90999985    2.82999992
   14.66472149   82.50869751    4.90999985    2.82999992
   14.67083359   82.50869751    4.90999985    2.84999990
   14.67500019   80.84130096    4.90999985    2.82999992
   14.67833328   81.87650299    4.90999985    2.84999990
   14.68138885   83.38420105    4.90999985    2.84999990
   14.68472195   85.49990082    4.90999985    2.82999992
   14.68777752   81.61889648    4.90999985    2.84999990
   14.69111156   79.79769897    4.90999985    2.82999992
   14.69444466   80.28790283    4.90999985    2.82999992
   14.69750023   79.01820374    4.90999985    2.84999990
   14.70083332   80.27890015    4.90999985    2.82999992
   14.70416641   75.20549774    4.90999985    2.84999990
   14.70722198   85.01100159    4.90999985    2.82999992
   14.70777798   80.75779724    4.90999985    2.82999992
   14.71361065   80.75779724    4.90999985    2.84999990
   14.71777725   82.38289642    4.90999985    2.82999992
   14.72111034   85.72170258    4.90999985    2.82999992
   14.72416592   77.71800232    4.90999985    2.84999990
   14.72749996   80.61260223    4.90999985    2.84999990
   14.73083305   82.55210114    4.90999985    2.84999990
   14.73416710   82.05290222    4.90999985    2.84999990
   14.73722267   78.60269928    4.90999985    2.82999992
   14.74055576   82.39859772    4.90999985    2.82999992
   14.74138927   86.90550232    4.90999985    2.82999992
   14.74416733   83.48919678    4.90999985    2.82999992
   14.74750042   83.56729889    4.90999985    2.84999990
   14.75055599   86.75759888    4.90999985    2.84999990
   14.75666714   86.75759888    4.90999985    2.84999990
   14.76083374   77.67669678    4.90999985    2.84999990
   14.76388931   81.33100128    4.90999985    2.84999990
   14.76722240   82.83209991    4.90999985    2.82999992
   14.77027798   77.20200348    4.90999985    2.84999990
   14.77361107   83.43800354    4.90999985    2.82999992
   14.77472210   84.03949738    4.90999985    2.82999992
   14.77722168   82.63480377    4.90999985    2.82999992
   14.78055573   80.02059937    4.90999985    2.84999990
   14.78361130   81.52420044    4.90999985    2.84999990
   14.78694534   80.20030212    4.90999985    2.82999992
   14.79027843   83.95919800    4.90999985    2.84999990
   14.79333401   76.16310120    4.90999985    2.84999990
   14.79944515   76.16310120    4.90999985    2.84999990
   14.80361176   79.66380310    4.90999985    2.84999990
   14.80666733   78.93160248    4.90999985    2.84999990
   14.80805588   82.21649933    4.90999985    2.82999992
   14.81027794   84.01730347    4.90999985    2.82999992
   14.81361103   82.66169739    4.90999985    2.84999990
   14.81666660   77.99069977    4.90999985    2.84999990
   14.81999969   85.23410034    4.90999985    2.84999990
   14.82305527   82.33419800    4.90999985    2.84999990
   14.82638836   81.01830292    4.90999985    2.82999992
   14.82972240   80.05059814    4.90999985    2.84999990
   14.83277798   76.53199768    4.90999985    2.82999992
   14.83611107   86.11329651    4.90999985    2.82999992
   14.84222221   86.11329651    4.90999985    2.82999992
   14.84638882   78.72869873    4.90999985    2.82999992
   14.84944439   79.09770203    4.90999985    2.82999992
   14.85277843   84.08930206    4.90999985    2.82999992
   14.85611153   86.18039703    4.90999985    2.82999992
   14.85916710   77.44219971    4.90999985    2.82999992
   14.86250019   76.61569977    4.90999985    2.82999992
   14.86583328   80.92980194    4.90999985    2.82999992
   14.86888885   76.75309753    4.90999985    2.82999992
   14.87222195   75.83470154    4.90999985    2.82999992
   14.87444496   77.14820099    4.90999985    2.82999992
   14.87583351   81.04489899    4.90999985    2.82999992
   14.87916660   78.44609833    4.90999985    2.82999992
   14.88500023   78.44609833    4.90999985    2.82999992
   14.88916683   81.35289764    4.90999985    2.82999992
   14.89249992   83.28420258    4.90999985    2.82999992
   14.89555550   79.82700348    4.90999985    2.84999990
   14.89888859   79.24520111    4.90999985    2.84999990
   14.90222168   80.41449738    4.90999985    2.82999992
   14.90527725   87.30829620    4.90999985    2.82999992
   14.90777779   80.34940338    4.90999985    2.82999992
   14.90916634   78.16400146    4.90999985    2.82999992
   14.91249943   75.68129730    4.90999985    2.80999994
   14.91555500   80.70629883    4.90999985    2.82999992
   14.91888905   75.93419647    4.90999985    2.82999992
   14.92194462   80.44319916    4.90999985    2.82999992
   14.92805576   80.44319916    4.90999985    2.82999992
   14.93194485   76.80760193    4.90999985    2.82999992
   14.93527794   73.96080017    4.90999985    2.84999990
   14.93861103   78.83609772    4.90999985    2.82999992
   14.94111156   75.47810364    4.90999985    2.82999992
   14.94222260   78.23760223    4.90999985    2.84999990
   14.94555569   80.48300171    4.90999985    2.82999992
   14.94861126   82.53880310    4.90999985    2.84999990
   14.95194435   87.35549927    4.90999985    2.82999992
   14.95499992   83.28170013    4.90999985    2.84999990
   14.95833302   79.42230225    4.90999985    2.84999990
   14.96166611   80.97250366    4.90999985    2.84999990
   14.96472168   85.30110168    4.90999985    2.84999990
   14.97083282   85.30110168    4.90999985    2.84999990
   14.97499943   80.08139801    4.90999985    2.82999992
   14.97805500   87.84670258    4.90999985    2.82999992
   14.98138809   84.20749664    4.90999985    2.84999990
   14.98472214   88.34329987    4.90999985    2.84999990
   14.98777771   75.38490295    4.90999985    2.84999990
   14.99111176   80.25399780    4.90999985    2.84999990
   14.99416733   84.59880066    4.90999985    2.82999992
   14.99750042   83.00769806    4.90999985    2.84999990
   15.00083351   87.52819824    4.90999985    2.84999990
   15.00388908   81.87840271    4.90999985    2.84999990
   15.00722218   78.82859802    4.90999985    2.84999990
   15.00777817   79.96980286    4.90999985    2.84999990
   15.01361084   79.96980286    4.90999985    2.86999989
   15.01777744   80.47830200    4.90999985    2.84999990
   15.02083302   81.24109650    4.90999985    2.84999990
   15.02416611   75.30780029    4.90999985    2.84999990
   15.02750015   83.27600098    4.90999985    2.86999989
   15.03055573   80.88400269    4.90999985    2.86999989
   15.03388977   76.92600250    4.90999985    2.86999989
   15.03722286   84.50869751    4.90999985    2.86999989
   15.04027843   74.98220062    4.90999985    2.86999989
   15.04111195   75.36589813    4.90999985    2.86999989
   15.04388905   77.71970367    4.90999985    2.86999989
   15.04722309   76.84510040    4.90999985    2.84999990
   15.05027771   83.73110199    4.90999985    2.84999990
   15.05638885   83.73110199    4.90999985    2.84999990
   15.06055546   79.52449799    4.90999985    2.84999990
   15.06388950   82.71260071    4.90999985    2.84999990
   15.06694412   80.85359955    4.90999985    2.84999990
   15.07027817   79.92939758    4.90999985    2.84999990
   15.07361126   80.59989929    4.90999985    2.86999989
   15.07444477   81.77269745    4.90999985    2.86999989
   15.07722187   84.67070007    4.90999985    2.84999990
   15.08055592   81.44889832    4.90999985    2.86999989
   15.08361053   78.14579773    4.90999985    2.84999990
   15.08694458   76.05629730    4.90999985    2.84999990
   15.09027767   77.49320221    4.90999985    2.86999989
   15.09333324   80.89340210    4.90999985    2.84999990
   15.09944439   80.89340210    4.90999985    2.84999990
   15.10333347   85.76619720    4.90999985    2.86999989
   15.10666752   82.27850342    4.90999985    2.86999989
   15.10777855   82.62519836    4.90999985    2.84999990
   15.11027813   87.82980347    4.90999985    2.84999990
   15.11361122   84.29599762    4.90999985    2.84999990
   15.11666679   87.88870239    4.90999985    2.84999990
   15.11999989   82.81469727    4.90999985    2.82999992
   15.12333393   86.21060181    4.90999985    2.84999990
   15.12638855   88.12229919    4.90999985    2.84999990
   15.12972260   81.19699860    4.90999985    2.84999990
   15.13277817   84.33100128    4.90999985    2.84999990
   15.13611126   82.56659698    4.90999985    2.84999990
   15.14222240   82.56659698    4.90999985    2.84999990
   15.14638901   81.98670197    4.90999985    2.84999990
   15.25416660   -1.00000000   -1.00000000   -1.00000000
   15.42583370   -1.00000000   -1.00000000   -1.00000000
   15.59638882   -1.00000000   -1.00000000   -1.00000000
   15.84305477   69.89710236    4.90999985    2.82999992
   15.84638882   78.77909851    4.90999985    2.82999992
   15.84944439   77.97949982    4.90999985    2.84999990
   15.85277843   82.70410156    4.90999985    2.84999990
   15.85611153   85.12660217    4.90999985    2.84999990
   15.85944462   78.40840149    4.90999985    2.84999990
   15.86333370   78.40840149    4.90999985    2.84999990
   15.86750031   83.47679901    4.90999985    2.82999992
   15.87083340   78.27420044    4.90999985    2.84999990
   15.87416649   79.74759674    4.90999985    2.82999992
   15.87638855   79.49040222    4.90999985    2.82999992
   15.87777805   82.08100128    4.90999985    2.84999990
   15.88083363   80.94899750    4.90999985    2.82999992
   15.88416672   76.69969940    4.90999985    2.84999990
   15.88749981   78.40149689    4.90999985    2.82999992
   15.89055538   79.63410187    4.90999985    2.84999990
   15.89388847   74.17700195    4.90999985    2.82999992
   15.89722252   75.53220367    4.90999985    2.84999990
   15.90027714   80.95410156    4.90999985    2.84999990
   15.90638828   80.95410156    4.90999985    2.84999990
   15.91055489   78.26750183    4.90999985    2.84999990
   15.91361046   83.18489838    4.90999985    2.84999990
   15.91694450   83.44550323    4.90999985    2.82999992
   15.92000008   78.97570038    4.90999985    2.84999990
   15.92333412   78.77580261    4.90999985    2.84999990
   15.92666721   80.17489624    4.90999985    2.84999990
   15.92972279   80.06420135    4.90999985    2.82999992
   15.93305588   78.75170135    4.90999985    2.84999990
   15.93638897   77.16169739    4.90999985    2.82999992
   15.93944454   79.52359772    4.90999985    2.84999990
   15.94277763   79.18979645    4.90999985    2.82999992
   15.94333363   84.82129669    4.90999985    2.82999992
   15.94916630   84.82129669    4.90999985    2.84999990
   15.95333290   85.12529755    4.90999985    2.84999990
   15.95638847   82.13800049    4.90999985    2.82999992
   15.95972157   78.68340302    4.90999985    2.84999990
   15.96305561   79.24289703    4.90999985    2.84999990
   15.96611118   79.13849640    4.90999985    2.84999990
   15.96944427   78.59230042    4.90999985    2.84999990
   15.97277737   78.36689758    4.90999985    2.82999992
   15.97583294   75.23010254    4.90999985    2.84999990
   15.97666645   80.08769989    4.90999985    2.84999990
   15.97972202   76.70159912    4.90999985    2.84999990
   15.98277760   81.61430359    4.90999985    2.84999990
   15.98611164   75.83550262    4.90999985    2.84999990
   15.99194431   75.83550262    4.90999985    2.84999990
   15.99611092   82.55059814    4.90999985    2.82999992
   15.99944496   78.16989899    4.90999985    2.84999990
   16.00250053   75.85310364    4.90999985    2.84999990
   16.00583267   82.77169800    4.90999985    2.84999990
   16.00916672   80.96040344    4.90999985    2.82999992
   16.01000023   78.88020325    4.90999985    2.84999990
   16.01277733   79.94989777    4.90999985    2.84999990
   16.01583290   84.03849792    4.90999985    2.84999990
   16.01916695   79.84329987    4.90999985    2.82999992
   16.02249908   76.42919922    4.90999985    2.84999990
   16.02555466   81.39430237    4.90999985    2.84999990
   16.02888870   80.36990356    4.90999985    2.84999990
   16.03472137   80.36990356    4.90999985    2.84999990
   16.03888893   80.78810120    4.90999985    2.84999990
   16.04222107   79.68750000    4.90999985    2.84999990
   16.04333305   81.65080261    4.90999985    2.84999990
   16.04583359   82.35389709    4.90999985    2.84999990
   16.04888916   79.74069977    4.90999985    2.84999990
   16.05222130   81.34649658    4.90999985    2.84999990
   16.05527687   86.30590057    4.90999985    2.84999990
   16.05861092   82.27189636    4.90999985    2.84999990
   16.06194305   79.89869690    4.90999985    2.84999990
   16.06499863   82.30940247    4.90999985    2.84999990
   16.06833458   79.30840302    4.90999985    2.84999990
   16.07166672   83.80239868    4.90999985    2.84999990
   16.07777786   83.80239868    4.90999985    2.84999990
   16.08194542   79.57730103    4.90999985    2.84999990
   16.08500099   77.83630371    4.90999985    2.84999990
   16.08833313   79.32299805    4.90999985    2.84999990
   16.09166718   77.12460327    4.90999985    2.82999992
   16.09472275   78.41010284    4.90999985    2.84999990
   16.09805679   77.79129791    4.90999985    2.84999990
   16.10111237   79.24939728    4.90999985    2.84999990
   16.10444450   79.39779663    4.90999985    2.84999990
   16.10777855   85.71070099    4.90999985    2.84999990
   16.11000061   84.33049774    4.90999985    2.84999990
   16.11138916   82.18949890    4.90999985    2.82999992
   16.11444473   84.80930328    4.90999985    2.84999990
   16.12055588   84.80930328    4.90999985    2.84999990
   16.12472153   83.84829712    4.90999985    2.84999990
   16.12805557   79.87030029    4.90999985    2.84999990
   16.13111115   87.87020111    4.90999985    2.84999990
   16.13444519   78.60289764    4.90999985    2.82999992
   16.13750076   80.62629700    4.90999985    2.82999992
   16.14083290   82.49839783    4.90999985    2.82999992
   16.14333344   78.19400024    4.90999985    2.84999990
   16.14472198   77.49389648    4.90999985    2.82999992
   16.14777756   78.44529724    4.90999985    2.84999990
   16.15111160   82.57630157    4.90999985    2.82999992
   16.15416718   81.25949860    4.90999985    2.84999990
   16.15749931   82.31400299    4.90999985    2.84999990
   16.16333389   82.31400299    4.90999985    2.84999990
   16.16749954   81.69439697    4.90999985    2.84999990
   16.17083359   81.83409882    4.90999985    2.84999990
   16.17388916   86.40350342    4.90999985    2.84999990
   16.17666626   79.36660004    4.90999985    2.84999990
   16.17777634   82.91899872    4.90999985    2.84999990
   16.18083191   81.73110199    4.90999985    2.84999990
   16.18416595   82.00749969    4.90999985    2.84999990
   16.18722153   82.14029694    4.90999985    2.84999990
   16.19055557   76.37999725    4.90999985    2.84999990
   16.19388771   74.94490051    4.90999985    2.84999990
   16.19694328   81.48709869    4.90999985    2.84999990
   16.20027924   78.37629700    4.90999985    2.84999990
   16.20611191   78.37629700    4.90999985    2.84999990
   16.21027946   78.64820099    4.90999985    2.84999990
   16.21361160   80.30889893    4.90999985    2.82999992
   16.21694565   81.99759674    4.90999985    2.82999992
   16.22000122   82.07089996    4.90999985    2.82999992
   16.22333336   78.64700317    4.90999985    2.82999992
   16.22638893   79.98889923    4.90999985    2.84999990
   16.22972298   82.74880219    4.90999985    2.82999992
   16.23305511   79.01979828    4.90999985    2.82999992
   16.23611069   78.08550262    4.90999985    2.84999990
   16.23944473   76.55870056    4.90999985    2.82999992
   16.24277878   76.84729767    4.90999985    2.82999992
   16.24333382   79.64289856    4.90999985    2.82999992
   16.24916649   79.64289856    4.90999985    2.84999990
   16.25333405   77.55149841    4.90999985    2.84999990
   16.25638962   76.27639771    4.90999985    2.82999992
   16.25972176   80.67310333    4.90999985    2.84999990
   16.26277733   77.92189789    4.90999985    2.84999990
   16.26611137   77.30970001    4.90999985    2.84999990
   16.26944351   76.09510040    4.90999985    2.84999990
   16.27249908   81.86250305    4.90999985    2.84999990
   16.27583313   79.35610199    4.90999985    2.84999990
   16.27666664   80.52249908    4.90999985    2.84999990
   16.27944374   83.56700134    4.90999985    2.84999990
   16.28249931   83.64499664    4.90999985    2.84999990
   16.28583336   84.87030029    4.90999985    2.86999989
   16.29194450   84.87030029    4.90999985    2.84999990
   16.29611015   82.31050110    4.90999985    2.84999990
   16.29916573   77.13490295    4.90999985    2.84999990
   16.30249977   84.37709808    4.90999985    2.84999990
   16.30583191   77.41210175    4.90999985    2.84999990
   16.30888748   79.74510193    4.90999985    2.84999990
   16.30999947   78.87650299    4.90999985    2.84999990
   16.31277657   81.72149658    4.90999985    2.82999992
   16.31583214   75.45570374    4.90999985    2.86999989
   16.31916809   81.04720306    4.90999985    2.84999990
   16.32250023   83.37590027    4.90999985    2.84999990
   16.32555580   79.73149872    4.90999985    2.82999992
   16.32888985   75.67040253    4.90999985    2.82999992
   16.33472252   75.67040253    4.90999985    2.84999990
   16.33889008   76.18599701    4.90999985    2.84999990
   16.34222221   80.73320007    4.90999985    2.84999990
   16.34333420   76.81199646    4.90999985    2.84999990
   16.34583473   75.79329681    4.90999985    2.84999990
   16.34889030   76.74379730    4.90999985    2.84999990
   16.35222244   79.33000183    4.90999985    2.84999990
   16.35555649   75.23970032    4.90999985    2.84999990
   16.35861206   76.92279816    4.90999985    2.84999990
   16.36194420   80.11299896    4.90999985    2.84999990
   16.36499977   77.07800293    4.90999985    2.84999990
   16.36833382   76.15280151    4.90999985    2.82999992
   16.37166595   77.69830322    4.90999985    2.84999990
   16.37750053   77.69830322    4.90999985    2.84999990
   16.38166618   80.15290070    0.19000000    0.51999998
   16.38500023   75.69080353    0.09000000    0.07000000
   16.38833237   82.91269684    0.09000000    0.07000000
   16.39138794   79.39530182    0.09000000    0.07000000
   16.39472198   77.64219666    0.09000000    0.07000000
   16.39777756   81.26670074    0.09000000    0.07000000
   16.40111160   84.46150208    0.09000000    0.07000000
   16.40444374   79.49659729    0.09000000    0.07000000
   16.40749931   78.25589752    0.09000000    0.07000000
   16.40999985   81.96269989    0.09000000    0.07000000
   16.41138840   82.06069946    0.09000000    0.07000000
   16.41444397   82.11720276    0.09000000    0.07000000
   16.42055511   82.11720276    0.09000000    0.07000000
   16.42472076   79.35209656    0.09000000    0.07000000
   16.42777634   75.04579926    0.09000000    0.07000000
   16.43111038   75.39209747    0.09000000    0.07000000
   16.43416595   79.39160156    0.09000000    0.07000000
   16.43750000   77.00039673    0.09000000    0.07000000
   16.44083214   80.85340118    0.09000000    0.07000000
   16.44333267   75.88800049    0.09000000    0.07000000
   16.44444275   76.59590149    0.09000000    0.07000000
   16.44749832   73.24880219    0.09000000    0.07000000
   16.45083427   78.20829773    0.09000000    0.07000000
   16.45416832   73.95179749    0.09000000    0.07000000
   16.45722389   79.88529968    0.09000000    0.07000000
   16.46333504   79.88529968    0.09000000    0.07000000
   16.46750069   79.68049622    0.09000000    0.07000000
   16.47055626   78.78479767    0.09000000    0.07000000
   16.47389030   77.32689667    0.09000000    0.07000000
   16.47666740   87.77269745    0.09000000    0.07000000
   16.47750092   76.27570343    0.09000000    0.07000000
   16.48055649   75.73030090    0.09000000    0.07000000
   16.48388863   78.08860016    0.09000000    0.07000000
   16.48722267   75.87699890    0.09000000    0.07000000
   16.49027824   81.51399994    0.09000000    0.07000000
   16.49361229   82.56620026    0.09000000    0.07000000
   16.49666786   81.12989807    0.09000000    0.07000000
   16.50000000   75.43589783    0.09000000    0.07000000
   16.50611115   75.43589783    0.09000000    0.07000000
   16.51027870   75.47650146    0.09000000    0.07000000
   16.51361084   77.00209808    0.09000000    0.07000000
   16.51666641   78.39769745    0.09000000    0.07000000
   16.52000046   77.41349792    0.09000000    0.07000000
   16.52333260   77.83860016    0.09000000    0.07000000
   16.52638817   79.01930237    0.09000000    0.07000000
   16.52972221   79.90100098    0.09000000    0.07000000
   16.53305435   79.39330292    0.09000000    0.07000000
   16.53610992   79.04799652    0.09000000    0.07000000
   16.53944397   79.08650208    0.09000000    0.07000000
   16.54249954   78.39060211    0.09000000    0.07000000
   16.54333305   85.32389832    0.09000000    0.07000000
   16.54888916   85.32389832    0.09000000    0.07000000
   16.55305481   83.23269653    0.09000000    0.07000000
   16.55638885   79.11699677    0.09000000    0.07000000
   16.55972099   79.57879639    0.09000000    0.07000000
   16.56277657   76.57990265    0.09000000    0.07000000
   16.56611061   76.16190338    0.09000000    0.07000000
   16.56944466   81.12020111    0.09000000    0.07000000
   16.57250023   77.39050293    0.09000000    0.07000000
   16.57583427   80.42759705    0.09000000    0.07000000
   16.57666779   80.31379700    0.09000000    0.07000000
   16.57944489   76.07559967    0.09000000    0.07000000
   16.58250046   77.05539703    0.09000000    0.07000000
   16.58583450   78.93270111    0.09000000    0.07000000
   16.59194565   78.93270111    0.09000000    0.07000000
   16.59611130   78.11409760    0.09000000    0.07000000
   16.59916687   80.46140289    0.09000000    0.07000000
   16.60250092   77.19360352    0.09000000    0.07000000
   16.60555649   79.29160309    0.09000000    0.07000000
   16.60888863   81.26560211    0.09000000    0.07000000
   16.61000061   85.39270020    0.09000000    0.07000000
   16.61250114   76.67169952    0.09000000    0.07000000
   16.61555672   81.04550171    0.09000000    0.07000000
   16.61888885   77.79949951    0.09000000    0.07000000
   16.62222290   78.43650055    0.09000000    0.07000000
   16.62527847   88.36479950    0.09000000    0.07000000
   16.62861061   85.47460175    0.09000000    0.07000000
   16.63472176   85.47460175    0.09000000    0.07000000
   16.63888931   80.96759796    0.09000000    0.07000000
   16.64194489   86.27239990    0.09000000    0.07000000
   16.64333344   79.94470215    0.09000000    0.07000000
   16.64583397   85.04550171    0.09000000    0.07000000
   16.64888954   78.07959747    0.09000000    0.07000000
   16.65222168   82.64540100    0.09000000    0.07000000
   16.65555573   81.22889709    0.09000000    0.07000000
   16.65861130   82.97190094    0.09000000    0.07000000
   16.66194344   78.39810181    0.09000000    0.07000000
   16.66527748   81.09220123    0.09000000    0.07000000
   16.66833305   78.60949707    0.09000000    0.07000000
   16.67166519   86.77870178    0.09000000    0.07000000
   16.67749977   86.77870178    0.09000000    0.07000000
   16.68166542   84.63349915    0.09000000    0.07000000
   16.68499947   78.64589691    0.09000000    0.07000000
   16.68805504   85.52179718    0.09000000    0.07000000
   16.69138718   88.26139832    0.09000000    0.07000000
   16.69472122   93.98500061    0.09000000    0.07000000
   16.69777679   84.24770355    0.09000000    0.07000000
   16.70111275   88.53099823    0.09000000    0.07000000
   16.70444489   85.88449860    0.09000000    0.07000000
   16.70750046   82.52510071    0.09000000    0.07000000
   16.71000099   85.79540253    0.09000000    0.07000000
   16.71138954   85.55919647    0.09000000    0.07000000
   16.71444511   87.71679688    0.09000000    0.07000000
   16.72027779   87.71679688    0.09000000    0.07000000
   16.72444534   90.31169891    0.09000000    0.07000000
   16.72777748   84.24469757    0.09000000    0.07000000
   16.73111153   84.13860321    0.09000000    0.07000000
   16.73416710   82.69010162    0.09000000    0.07000000
   16.73750114   83.39949799    0.09000000    0.07000000
   16.74055672   82.43019867    0.09000000    0.07000000
   16.74333382   84.11869812    0.09000000    0.07000000
   16.74444389   90.15489960    0.09000000    0.07000000
   16.74777794   82.57630157    0.09000000    0.07000000
   16.75083351   86.73320007    0.09000000    0.07000000
   16.75416756   84.76080322    0.09000000    0.07000000
   16.75722313   85.98860168    0.09000000    0.07000000
   16.76333427   85.98860168    0.09000000    0.07000000
   16.76749992   83.18139648    0.09000000    0.07000000
   16.77055550   86.95700073    0.09000000    0.07000000
   16.77388954   92.84420013    0.09000000    0.07000000
   16.77666664   90.98629761    0.09000000    0.07000000
   16.77750015   82.95240021    0.09000000    0.07000000
   16.78083229   88.07270050    0.09000000    0.07000000
   16.78388786   88.65260315    0.09000000    0.07000000
   16.78722191   89.72589874    0.09000000    0.07000000
   16.79027748   80.99099731    0.09000000    0.07000000
   16.79361153   89.50029755    0.09000000    0.07000000
   16.79694366   86.33229828    0.09000000    0.07000000
   16.79999924   87.76399994    0.09000000    0.07000000
   16.80611038   87.76399994    0.09000000    0.07000000
   16.81027794   87.00189972    0.09000000    0.07000000
   16.81333351   88.14160156    0.09000000    0.07000000
   16.81666756   87.06690216    0.09000000    0.07000000
   16.82000160   82.08709717    0.09000000    0.07000000
   16.82305717   93.37449646    0.09000000    0.07000000
   16.82638931   90.31130219    0.09000000    0.07000000
   16.82972336   92.40399933    0.09000000    0.07000000
   16.83277893   88.47290039    0.09000000    0.07000000
   16.83611107   81.07700348    0.09000000    0.07000000
   16.83916664   86.47830200    0.09000000    0.07000000
   16.84250069   91.47509766    0.09000000    0.07000000
   16.84333420   87.93720245    0.09000000    0.07000000
   16.86416626   87.93720245    0.09000000    0.07000000
   16.86833382   87.83249664    0.09000000    0.07000000
   16.87138939   90.37650299    0.09000000    0.07000000
   16.87472153   90.08740234    0.09000000    0.07000000
   16.87666702   88.96119690    0.09000000    0.07000000
   16.87833405   92.94210052    0.09000000    0.07000000
   16.88166618   86.22760010    0.09000000    0.07000000
   16.88472176   91.41320038    0.09000000    0.07000000
   16.88805580   90.35310364    0.09000000    0.07000000
   16.89138794   90.29049683    0.09000000    0.07000000
   16.89444351   89.71620178    0.09000000    0.07000000
   16.89777756   95.32980347    0.09000000    0.07000000
   16.90083313   87.99189758    0.09000000    0.07000000
   16.90694427   87.99189758    0.09000000    0.07000000
   16.91110992   86.53260040    0.09000000    0.07000000
   16.91416550   82.15940094    0.09000000    0.07000000
   16.91749954   80.96700287    0.09000000    0.07000000
   16.92055511   80.32209778    0.09000000    0.07000000
   16.92388916   83.34729767    0.09000000    0.07000000
   16.92722130   84.05829620    0.09000000    0.07000000
   16.93027687   87.44490051    0.09000000    0.07000000
   16.93361092   82.57099915    0.09000000    0.07000000
   16.93694305   88.96720123    0.09000000    0.07000000
   16.93999863   86.25579834    0.09000000    0.07000000
   16.94333267   84.22339630    0.09000000    0.07000000
   16.94388771   89.57150269    0.09000000    0.07000000
   16.94972038   89.57150269    0.09000000    0.07000000
   16.95388985   90.24259949    0.09000000    0.07000000
   16.95694542   87.88649750    0.09000000    0.07000000
   16.96027946   89.39389801    0.09000000    0.07000000
   16.96361160   86.97329712    0.09000000    0.07000000
   16.96666718   81.70279694    0.09000000    0.07000000
   16.97000122   88.82340240    0.09000000    0.07000000
   16.97333336   88.13970184    0.09000000    0.07000000
   16.97638893   90.32420349    0.09000000    0.07000000
   16.97722244   90.76329803    0.09000000    0.07000000
   16.98000145   94.48390198    0.09000000    0.07000000
   16.98333359   95.91629791    0.09000000    0.07000000
   16.98666763   88.32260132    0.09000000    0.07000000
   16.99250031   88.32260132    0.09000000    0.07000000
   16.99666786   87.49220276    0.09000000    0.07000000
   17.00000000   89.83899689    0.09000000    0.07000000
   17.00305557   88.54049683    0.09000000    0.07000000
   17.00638962   93.10569763    0.09000000    0.07000000
   17.00972176   88.66560364    0.09000000    0.07000000
   17.01055527   86.32890320    0.09000000    0.07000000
   17.01305580   88.11990356    0.09000000    0.07000000
   17.01638794   85.81400299    0.09000000    0.07000000
   17.01972198   87.78669739    0.09000000    0.07000000
   17.02277756   91.15010071    0.09000000    0.07000000
   17.02611160   91.07499695    0.09000000    0.07000000
   17.02944374   97.23789978    0.09000000    0.07000000
   17.03527641   97.23789978    0.09000000    0.07000000
   17.03944397   89.65720367    0.09000000    0.07000000
   17.04277802   91.41850281    0.09000000    0.07000000
   17.04388809   93.61430359    0.09000000    0.07000000
   17.04611015   88.83519745    0.09000000    0.07000000
   17.04944420   91.15509796    0.09000000    0.07000000
   17.05277634   91.63430023    0.09000000    0.07000000
   17.05583191   85.61000061    0.09000000    0.07000000
   17.05916595   88.47450256    0.09000000    0.07000000
   17.06250000   86.33419800    0.09000000    0.07000000
   17.06555557   88.05750275    0.09000000    0.07000000
   17.06888962   84.69740295    0.09000000    0.07000000
   17.07222366   89.99330139    0.09000000    0.07000000
   17.07833481   89.99330139    0.09000000    0.07000000
   17.08250046   83.56590271    0.09000000    0.07000000
   17.08555603   86.27200317    0.09000000    0.07000000
   17.08889008   91.08910370    0.09000000    0.07000000
   17.09194565   95.58899689    0.09000000    0.07000000
   17.09527779   90.73570251    0.09000000    0.07000000
   17.09861183   89.70659637    0.09000000    0.07000000
   17.10166740   86.36430359    0.09000000    0.07000000
   17.10499954   83.58519745    0.09000000    0.07000000
   17.10833359   86.78150177    0.09000000    0.07000000
   17.11055565   95.37909698    0.09000000    0.07000000
   17.11194420   91.51239777    0.09000000    0.07000000
   17.11499977   88.72940063    0.09000000    0.07000000
   17.12111092   88.72940063    0.09000000    0.07000000
   17.12527847   89.73629761    0.09000000    0.07000000
   17.12833405   90.06919861    0.09000000    0.07000000
   17.13166618   92.83910370    0.09000000    0.07000000
   17.13500023   91.68509674    0.09000000    0.07000000
   17.13805580   92.92179871    0.09000000    0.07000000
   17.14138794   89.13839722    0.09000000    0.07000000
   17.14388847   91.44329834    0.09000000    0.07000000
   17.14500046   84.99539948    0.09000000    0.07000000
   17.14805603   86.66790009    0.09000000    0.07000000
   17.15138817   82.03209686    0.09000000    0.07000000
   17.15444374   90.50229645    0.09000000    0.07000000
   17.15777779   89.53720093    0.09000000    0.07000000
   17.16388893   89.53720093    0.09000000    0.07000000
   17.16805458   91.74500275    0.09000000    0.07000000
   17.17138863   91.92440033    0.09000000    0.07000000
   17.17444420   84.44309998    0.09000000    0.07000000
   17.17722130   89.98639679    0.09000000    0.07000000
   17.17833328   91.29959869    0.09000000    0.07000000
   17.18138885   86.58609772    0.09000000    0.07000000
   17.18472099   85.16999817    0.09000000    0.07000000
   17.18777657   89.90209961    0.09000000    0.07000000
   17.19111061   94.74929810    0.09000000    0.07000000
   17.19444275   85.08889771    0.09000000    0.07000000
   17.19777679   91.71289825    0.09000000    0.07000000
   17.20083427   89.57540131    0.09000000    0.07000000
   17.20666695   89.57540131    0.09000000    0.07000000
   17.21083450   90.88870239    0.09000000    0.07000000
   17.21416664   90.09359741    0.09000000    0.07000000
   17.21722221   89.53170013    0.09000000    0.07000000
   17.22055626   93.30750275    0.09000000    0.07000000
   17.22389030   91.58000183    0.09000000    0.07000000
   17.22694588   96.21890259    0.09000000    0.07000000
   17.23027802   90.44670105    0.09000000    0.07000000
   17.23361206   87.58529663    0.09000000    0.07000000
   17.23666763   86.24099731    0.09000000    0.07000000
   17.23999977   87.18800354    0.09000000    0.07000000
   17.24305534   91.24369812    0.09000000    0.07000000
   17.24388885   87.81749725    0.09000000    0.07000000
   17.24972153   87.81749725    0.09000000    0.07000000
   17.25361061   94.38860321    0.09000000    0.07000000
   17.25694466   81.23780060    0.09000000    0.07000000
   17.26027870   86.66030121    0.09000000    0.07000000
   17.26333427   88.83730316    0.09000000    0.07000000
   17.26666641   87.41339874    0.09000000    0.07000000
   17.27000046   88.51450348    0.09000000    0.07000000
   17.27305603   89.10980225    0.09000000    0.07000000
   17.27638817   93.80059814    0.09000000    0.07000000
   17.27722168   90.68150330    0.09000000    0.07000000
   17.28000069   94.94699860    0.09000000    0.07000000
   17.28305435   92.57489777    0.09000000    0.07000000
   17.28638840   89.59439850    0.09000000    0.07000000
   17.29249954   89.59439850    0.09000000    0.07000000
   17.29666710   89.09839630    0.09000000    0.07000000
   17.29972076   92.30310059    0.09000000    0.07000000
   17.30305481   87.56310272    0.09000000    0.07000000
   17.30638885   84.44869995    0.09000000    0.07000000
   17.30944443   91.13150024    0.09000000    0.07000000
   17.31055450   91.47689819    0.09000000    0.07000000
   17.31333351   93.76290131    0.09000000    0.07000000
   17.31638718   89.97290039    0.09000000    0.07000000
   17.31972313   91.50939941    0.09000000    0.07000000
   17.32277870   89.89520264    0.09000000    0.07000000
   17.32611275   85.78109741    0.09000000    0.07000000
   17.32944489   90.05709839    0.09000000    0.07000000
   17.33527756   90.05709839    0.09000000    0.07000000
   17.33944511   89.64270020    0.09000000    0.07000000
   17.34277916   88.84559631    0.09000000    0.07000000
   17.34388924   91.18170166    0.09000000    0.07000000
   17.34638977   89.12030029    0.09000000    0.07000000
   17.34944534   91.45189667    0.09000000    0.07000000
   17.35277748   89.42559814    0.09000000    0.07000000
   17.35583305   89.58429718    0.09000000    0.07000000
   17.35916710   89.63739777    0.09000000    0.07000000
   17.36250114   85.66079712    0.09000000    0.07000000
   17.36555672   89.95649719    0.09000000    0.07000000
   17.36888885   91.25650024    0.09000000    0.07000000
   17.37222290   91.06690216    0.09000000    0.07000000
   17.37805557   91.06690216    0.09000000    0.07000000
   17.38222313   94.59320068    0.09000000    0.07000000
   17.38555527   88.75360107    0.09000000    0.07000000
   17.38861084   91.15699768    0.09000000    0.07000000
   17.39194489   86.16149902    0.09000000    0.07000000
   17.39527702   88.18939972    0.09000000    0.07000000
   17.39833260   90.61990356    0.09000000    0.07000000
   17.40166664   94.01550293    0.09000000    0.07000000
   17.40499878   93.79399872    0.09000000    0.07000000
   17.40805435   85.58249664    0.09000000    0.07000000
   17.41055489   88.11380005    0.09000000    0.07000000
   17.41194344   86.60729980    0.09000000    0.07000000
   17.41499901   88.38950348    0.09000000    0.07000000
   17.42111015   88.38950348    0.09000000    0.07000000
   17.42499924   88.08789825    0.09000000    0.07000000
   17.42833328   84.19450378    0.09000000    0.07000000
   17.43166542   88.74389648    0.09000000    0.07000000
   17.43472099   85.59230042    0.09000000    0.07000000
   17.43805504   80.70980072    0.09000000    0.07000000
   17.44138718   88.64920044    0.09000000    0.07000000
   17.44388771   84.98600006    0.09000000    0.07000000
   17.44499969   82.50350189    0.09000000    0.07000000
   17.44805527   87.35910034    0.09000000    0.07000000
   17.45138931   85.53330231    0.09000000    0.07000000
   17.45472336   89.88629913    0.09000000    0.07000000
   17.45777893   89.17389679    0.09000000    0.07000000
   17.46389008   89.17389679    0.09000000    0.07000000
   17.46805573   88.69300079    0.09000000    0.07000000
   17.47111130   87.87860107    0.09000000    0.07000000
   17.47444534   83.31639862    0.09000000    0.07000000
   17.47722244   88.20020294    0.09000000    0.07000000
   17.47805595   90.79350281    0.09000000    0.07000000
   17.48111153   88.98169708    0.09000000    0.07000000
   17.48444557   89.84420013    0.09000000    0.07000000
   17.48777771   88.87619781    0.09000000    0.07000000
   17.49083328   91.41770172    0.09000000    0.07000000
   17.49416733   91.97530365    0.09000000    0.07000000
   17.49722290   87.33599854    0.09000000    0.07000000
   17.50055504   88.58360291    0.09000000    0.07000000
   17.50666618   88.58360291    0.09000000    0.07000000
   17.51083374   86.61879730    0.09000000    0.07000000
   17.51416588   84.00319672    0.09000000    0.07000000
   17.51722145   92.63359833    0.09000000    0.07000000
   17.52055550   92.07990265    0.09000000    0.07000000
   17.52361107   88.80609894    0.09000000    0.07000000
   17.52694511   88.53089905    0.09000000    0.07000000
   17.53027725   89.66320038    0.09000000    0.07000000
   17.53333282   90.39330292    0.09000000    0.07000000
   17.53666687   96.37760162    0.09000000    0.07000000
   17.53999901   85.58470154    0.09000000    0.07000000
   17.54305458   91.03500366    0.09000000    0.07000000
   17.54388809   89.62899780    0.09000000    0.07000000
   17.54944420   89.62899780    0.09000000    0.07000000
   17.55360985   82.54350281    0.09000000    0.07000000
   17.55694389   94.50710297    0.09000000    0.07000000
   17.55999947   92.69909668    0.09000000    0.07000000
   17.56333351   87.51599884    0.09000000    0.07000000
   17.56666756   87.77809906    0.09000000    0.07000000
   17.56972313   91.85040283    0.09000000    0.07000000
   17.57305717   93.58509827    0.09000000    0.07000000
   17.57638931   92.50119781    0.09000000    0.07000000
   17.57722282   92.54640198    0.09000000    0.07000000
   17.58000183   93.09559631    0.09000000    0.07000000
   17.58305550   93.00399780    0.09000000    0.07000000
   17.58638954   90.95379639    0.09000000    0.07000000
   17.59250069   90.95379639    0.09000000    0.07000000
   17.59638977   91.05439758    0.09000000    0.07000000
   17.59972191   95.36920166    0.09000000    0.07000000
   17.60305595   86.65640259    0.09000000    0.07000000
   17.60611153   98.81780243    0.09000000    0.07000000
   17.60944557   94.44660187    0.09000000    0.07000000
   17.61055565   85.60790253    0.09000000    0.07000000
   17.61305618   91.08830261    0.09000000    0.07000000
   17.61611176   91.34159851    0.09000000    0.07000000
   17.61944389   89.47499847    0.09000000    0.07000000
   17.62277794   95.75879669    0.09000000    0.07000000
   17.62583351   92.24500275    0.09000000    0.07000000
   17.62916756   93.94889832    0.09000000    0.07000000
   17.63527679   93.94889832    0.09000000    0.07000000
   17.63944435   92.26789856    0.09000000    0.07000000
   17.64249992   96.37789917    0.09000000    0.07000000
   17.64388847   98.59429932    0.09000000    0.07000000
   17.64638901  100.10099792    0.09000000    0.07000000
   17.64944458   94.48290253    0.09000000    0.07000000
   17.65277672   95.08110046    0.09000000    0.07000000
   17.65611076   90.40480042    0.09000000    0.07000000
   17.65916634   94.03340149    0.09000000    0.07000000
   17.66250038   89.67310333    0.09000000    0.07000000
   17.66583252   85.65740204    0.09000000    0.07000000
   17.66888809   88.87750244    0.09000000    0.07000000
   17.67222214   89.86509705    0.09000000    0.07000000
   17.67805481   89.86509705    0.09000000    0.07000000
   17.68222237   90.28140259    0.09000000    0.07000000
   17.68555450   90.90119934    0.09000000    0.07000000
   17.68861008   86.95390320    0.09000000    0.07000000
   17.69194412   87.54049683    0.09000000    0.07000000
   17.69499969   87.05329895    0.09000000    0.07000000
   17.69833183   94.19200134    0.09000000    0.07000000
   17.70166779   93.00389862    0.09000000    0.07000000
   17.70472336   97.93840027    0.09000000    0.07000000
   17.70805550   93.11650085    0.09000000    0.07000000
   17.71055603   87.71510315    0.09000000    0.07000000
   17.71166801   87.06099701    0.09000000    0.07000000
   17.71472359   83.65370178    0.09000000    0.07000000
   17.72083473   83.65370178    0.09000000    0.07000000
   17.72500038   94.86239624    0.09000000    0.07000000
   17.72833443   86.97669983    0.09000000    0.07000000
   17.73139000   86.61239624    0.09000000    0.07000000
   17.73472214   93.22319794    0.09000000    0.07000000
   17.73805618   85.50630188    0.09000000    0.07000000
   17.74111176   91.14089966    0.09000000    0.07000000
   17.74388885   94.05400085    0.09000000    0.07000000
   17.74500084   87.58119965    0.09000000    0.07000000
   17.74805641   93.76699829    0.09000000    0.07000000
   17.75138855   96.34860229    0.09000000    0.07000000
   17.75472260   91.04399872    0.09000000    0.07000000
   17.75777817   86.23480225    0.09000000    0.07000000
   17.76388931   86.23480225    0.09000000    0.07000000
   17.76777840   91.49479675    0.09000000    0.07000000
   17.77111053   89.39479828    0.09000000    0.07000000
   17.77444458   95.04519653    0.09000000    0.07000000
   17.77722168   92.17230225    0.09000000    0.07000000
   17.77805519   87.08480072    0.09000000    0.07000000
   17.78111076   96.84020233    0.09000000    0.07000000
   17.78444481   89.47059631    0.09000000    0.07000000
   17.78777695   90.99040222    0.09000000    0.07000000
   17.79083252   96.43150330    0.09000000    0.07000000
   17.79416656   90.53440094    0.09000000    0.07000000
   17.79749870   90.09880066    0.09000000    0.07000000
   17.80055428   87.53330231    0.09000000    0.07000000
   17.80666542   87.53330231    0.09000000    0.07000000
   17.81083298   87.22899628    0.09000000    0.07000000
   17.81388855   90.41590118    0.09000000    0.07000000
   17.81722260   95.83439636    0.09000000    0.07000000
   17.82027817   96.61979675    0.09000000    0.07000000
   17.82361221   90.61589813    0.09000000    0.07000000
   17.82694626   90.75879669    0.09000000    0.07000000
   17.83000183   89.72599792    0.09000000    0.07000000
   17.83333397   91.46880341    0.09000000    0.07000000
   17.83666801   98.80130005    0.09000000    0.07000000
   17.83972359   87.52690125    0.09000000    0.07000000
   17.84305573   92.41159821    0.09000000    0.07000000
   17.84388924   95.34020233    0.09000000    0.07000000
   17.84944534   95.34020233    0.09000000    0.07000000
   17.85361099   94.68029785    0.09000000    0.07000000
   17.85694504   94.32499695    0.09000000    0.07000000
   17.86000061   95.06649780    0.09000000    0.07000000
   17.87750053   90.23999786    0.09000000    0.07000000
   17.88000107   90.14880371    0.09000000    0.07000000
   17.88333321   94.75350189    0.09000000    0.07000000
   17.88638878   94.64669800    0.09000000    0.07000000
   17.89249992   94.64669800    0.09000000    0.07000000
   17.89666748   84.82389832    0.09000000    0.07000000
   17.89972115   88.31680298    0.09000000    0.07000000
   17.90305519   95.13310242    0.09000000    0.07000000
   17.90638924   86.88549805    0.09000000    0.07000000
   17.90944481   89.19239807    0.09000000    0.07000000
   17.93166542   74.67569733    0.09000000    0.07000000
   17.93499947   75.88200378    0.09000000    0.07000000
   17.93833160   78.06710052    0.09000000    0.07000000
   17.94138718   78.06520081    0.09000000    0.07000000
   17.94472122   83.80410004    0.09000000    0.07000000
   17.94777679   80.05780029    0.09000000    0.07000000
   17.95194435   80.05780029    0.09000000    0.07000000
   17.95611191   77.18229675    0.09000000    0.07000000
   17.95944595   75.73970032    0.09000000    0.07000000
   17.96250153   72.37670135    0.09000000    0.07000000
   17.96500015   77.94400024    0.09000000    0.07000000
   17.96638870   74.85359955    0.09000000    0.07000000
   17.96972275   76.11949921    0.09000000    0.07000000
   17.97277832   77.86789703    0.09000000    0.07000000
   17.97611237   80.23529816    0.09000000    0.07000000
   17.97916794   78.00009918    0.09000000    0.07000000
   17.98250008   74.08180237    0.09000000    0.07000000
   17.98583412   75.50990295    0.09000000    0.07000000
   17.98888969   75.10579681    0.09000000    0.07000000
   17.99500084   75.10579681    0.09000000    0.07000000
   17.99888992   76.62860107    0.09000000    0.07000000
   18.00222206   74.56929779    0.09000000    0.07000000
   18.00555611   70.42639923    0.09000000    0.07000000
   18.00861168   73.17880249    0.09000000    0.07000000
   18.01194382   74.58219910    0.09000000    0.07000000
   18.01527786   79.35540009    0.09000000    0.07000000
   18.01833344   78.37920380    0.09000000    0.07000000
   18.02166557   74.48539734    0.09000000    0.07000000
   18.02472115   73.74539948    0.09000000    0.07000000
   18.02805519   81.43620300    0.09000000    0.07000000
   18.03138924   80.23789978    0.09000000    0.07000000
   18.03194427   77.36039734    0.09000000    0.07000000
   18.03777695   77.36039734    0.09000000    0.07000000
   18.04194450   83.76660156    0.09000000    0.07000000
   18.04500008   76.87889862    0.09000000    0.07000000
   18.04833221   76.29060364    0.09000000    0.07000000
   18.05166626   74.61239624    0.09000000    0.07000000
   18.05472183   77.64070129    0.09000000    0.07000000
   18.05805397   80.13970184    0.09000000    0.07000000
   18.06110954   75.91239929    0.09000000    0.07000000
   18.06444359   78.34040070    0.09000000    0.07000000
   18.06527710   77.77680206    0.09000000    0.07000000
   18.06805611   76.48709869    0.09000000    0.07000000
   18.07139015   75.62729645    0.09000000    0.07000000
   18.07472229   75.63269806    0.09000000    0.07000000
   18.08055687   75.63269806    0.09000000    0.07000000
   18.08472252   75.82440186    0.09000000    0.07000000
   18.08805656   80.05879974    0.09000000    0.07000000
   18.09111214   84.35269928    0.09000000    0.07000000
   18.09444427   78.72509766    0.09000000    0.07000000
   18.09749985   82.33830261    0.09000000    0.07000000
   18.09861183   81.51950073    0.09000000    0.07000000
   18.10111237   75.57089996    0.09000000    0.07000000
   18.10444450   82.72419739    0.09000000    0.07000000
   18.10777855   79.74949646    0.09000000    0.07000000
   18.11083412   78.52079773    0.09000000    0.07000000
   18.11416626   80.03189850    0.09000000    0.07000000
   18.11722183   78.98159790    0.09000000    0.07000000
   18.12333298   78.98159790    0.09000000    0.07000000
   18.12750053   83.78430176    0.09000000    0.07000000
   18.13083267   80.69339752    0.09000000    0.07000000
   18.13194466   82.73719788    0.09000000    0.07000000
   18.13444519   80.03780365    0.09000000    0.07000000
   18.13777733   81.11759949    0.09000000    0.07000000
   18.14111137   81.02819824    0.09000000    0.07000000
   18.14416695   81.01920319    0.09000000    0.07000000
   18.14749908   86.71189880    0.09000000    0.07000000
   18.15055466   79.97509766    0.09000000    0.07000000
   18.15388870   79.63999939    0.09000000    0.07000000
   18.15722275   78.79850006    0.09000000    0.07000000
   18.16027832   82.65760040    0.09000000    0.07000000
   18.16638756   82.65760040    0.09000000    0.07000000
   18.17027664   81.32849884    0.09000000    0.07000000
   18.17361069   80.59410095    0.09000000    0.07000000
   18.17694473   83.86489868    0.09000000    0.07000000
   18.18000031   77.80629730    0.09000000    0.07000000
   18.18333244   75.51270294    0.09000000    0.07000000
   18.18666649   73.72440338    0.09000000    0.07000000
   18.18972206   72.62989807    0.09000000    0.07000000
   18.19305420   73.68019867    0.09000000    0.07000000
   18.19610977   77.89959717    0.09000000    0.07000000
   18.19861031   85.28279877    0.09000000    0.07000000
   18.19972038   80.33899689    0.09000000    0.07000000
   18.20305634   80.99559784    0.09000000    0.07000000
   18.20916748   80.99559784    0.09000000    0.07000000
   18.21333504   80.44950104    0.09000000    0.07000000
   18.21638870   75.72789764    0.09000000    0.07000000
   18.21972275   78.16899872    0.09000000    0.07000000
   18.22305679   78.31330109    0.09000000    0.07000000
   18.22611237   77.00119781    0.09000000    0.07000000
   18.22944450   83.66790009    0.09000000    0.07000000
   18.23194504   79.52130127    0.09000000    0.07000000
   18.23305511   78.94000244    0.09000000    0.07000000
   18.23638916   81.48670197    0.09000000    0.07000000
   18.23972321   80.66110229    0.09000000    0.07000000
   18.24277878   82.02380371    0.09000000    0.07000000
   18.24611092   84.70120239    0.09000000    0.07000000
   18.25194359   84.70120239    0.09000000    0.07000000
   18.25611115   82.79229736    0.09000000    0.07000000
   18.25944519   77.49479675    0.09000000    0.07000000
   18.26250076   81.53389740    0.09000000    0.07000000
   18.26527786   84.22299957    0.09000000    0.07000000
   18.26611137   79.86160278    0.09000000    0.07000000
   18.26944351   77.73719788    0.09000000    0.07000000
   18.27277756   77.29389954    0.09000000    0.07000000
   18.27583313   75.80000305    0.09000000    0.07000000
   18.27916718   76.55770111    0.09000000    0.07000000
   18.28222275   73.64360046    0.09000000    0.07000000
   18.28555489   77.31539917    0.09000000    0.07000000
   18.28888893   74.76300049    0.09000000    0.07000000
   18.29472160   74.76300049    0.09000000    0.07000000
   18.29888916   75.36779785    0.09000000    0.07000000
   18.30222130   79.66079712    0.09000000    0.07000000
   18.30527687   77.71810150    0.09000000    0.07000000
   18.30861092   74.22779846    0.09000000    0.07000000
   18.31194305   79.48200226    0.09000000    0.07000000
   18.31499863   79.00749969    0.09000000    0.07000000
   18.31833458   76.75990295    0.09000000    0.07000000
   18.32166672   81.39089966    0.09000000    0.07000000
   18.32472229   76.93090057    0.09000000    0.07000000
   18.32805634   81.67469788    0.09000000    0.07000000
   18.33139038   83.92610168    0.09000000    0.07000000
   18.33194542   77.19429779    0.09000000    0.07000000
   18.33777809   77.19429779    0.09000000    0.07000000
   18.34166718   79.78189850    0.09000000    0.07000000
   18.34500122   74.96410370    0.09000000    0.07000000
   18.34833336   77.59799957    0.09000000    0.07000000
   18.35138893   77.95729828    0.09000000    0.07000000
   18.35472298   77.82869720    0.09000000    0.07000000
   18.35805511   76.55339813    0.09000000    0.07000000
   18.36111069   80.38700104    0.09000000    0.07000000
   18.36444473   76.11190033    0.09000000    0.07000000
   18.36527824   79.13610077    0.09000000    0.07000000
   18.36777878   74.23709869    0.09000000    0.07000000
   18.37111092   77.06980133    0.09000000    0.07000000
   18.37444496   73.68080139    0.09000000    0.07000000
   18.38055611   73.68080139    0.09000000    0.07000000
   18.38472176   76.69670105    0.09000000    0.07000000
   18.38777733   74.88220215    0.09000000    0.07000000
   18.39111137   78.59690094    0.09000000    0.07000000
   18.39444351   75.89360046    0.09000000    0.07000000
   18.39749908   74.97049713    0.09000000    0.07000000
   18.39861107   73.48400116    0.09000000    0.07000000
   18.40111160   75.53269958    0.09000000    0.07000000
   18.40444374   75.24949646    0.09000000    0.07000000
   18.40777779   81.69950104    0.09000000    0.07000000
   18.41083336   79.13189697    0.09000000    0.07000000
   18.41416550   84.70729828    0.09000000    0.07000000
   18.41749954   83.04640198    0.09000000    0.07000000
   18.42361069   83.04640198    0.09000000    0.07000000
   18.42777634   81.32949829    0.09000000    0.07000000
   18.43111038   79.10739899    0.09000000    0.07000000
   18.43194389   81.41149902    0.09000000    0.07000000
   18.43444443   79.52510071    0.09000000    0.07000000
   18.43777657   78.35649872    0.09000000    0.07000000
   18.44111061   78.70149994    0.09000000    0.07000000
   18.44416618   78.37599945    0.09000000    0.07000000
   18.44749832   84.88559723    0.09000000    0.07000000
   18.45083427   78.19860077    0.09000000    0.07000000
   18.45388985   81.46990204    0.09000000    0.07000000
   18.45722389   80.63240051    0.09000000    0.07000000
   18.46027946   82.27629852    0.09000000    0.07000000
   18.46611214   82.27629852    0.09000000    0.07000000
   18.47027779   85.12979889    0.09000000    0.07000000
   18.47361183   78.66329956    0.09000000    0.07000000
   18.47666740   73.20050049    0.09000000    0.07000000
   18.48000145   80.72969818    0.09000000    0.07000000
   18.48333359   78.73970032    0.09000000    0.07000000
   18.48666763   82.57550049    0.09000000    0.07000000
   18.48972321   79.19309998    0.09000000    0.07000000
   18.49305534   78.44869995    0.09000000    0.07000000
   18.49611092   82.14409637    0.09000000    0.07000000
   18.49861145   79.06800079    0.09000000    0.07000000
   18.49972153   80.03330231    0.09000000    0.07000000
   18.50305557   81.80439758    0.09000000    0.07000000
   18.50916672   81.80439758    0.09000000    0.07000000
   18.51305580   76.87449646    0.09000000    0.07000000
   18.51638794   77.65180206    0.09000000    0.07000000
   18.51972198   74.20369720    0.09000000    0.07000000
   18.52277756   80.87850189    0.09000000    0.07000000
   18.52611160   77.74530029    0.09000000    0.07000000
   18.52944374   78.92960358    0.09000000    0.07000000
   18.53194427   80.49169922    0.09000000    0.07000000
   18.53305435   79.41419983    0.09000000    0.07000000
   18.53610992   75.84919739    0.09000000    0.07000000
   18.53944397   80.01110077    0.09000000    0.07000000
   18.54249954   79.70050049    0.09000000    0.07000000
   18.54583359   73.86129761    0.09000000    0.07000000
   18.55194283   73.86129761    0.09000000    0.07000000
   18.55611038   75.16649628    0.09000000    0.07000000
   18.55916595   79.00250244    0.09000000    0.07000000
   18.56250000   76.69259644    0.09000000    0.07000000
   18.56527710   80.67720032    0.09000000    0.07000000
   18.56611061   75.81269836    0.09000000    0.07000000
   18.56944466   73.99269867    0.09000000    0.07000000
   18.57277870   73.76650238    0.09000000    0.07000000
   18.57583427   74.78739929    0.09000000    0.07000000
   18.57916832   75.54810333    0.09000000    0.07000000
   18.58250046   75.11409760    0.09000000    0.07000000
   18.58555603   75.71700287    0.09000000    0.07000000
   18.58889008   75.92769623    0.09000000    0.07000000
   18.59472275   75.92769623    0.09000000    0.07000000
   18.59889030   72.86530304    0.09000000    0.07000000
   18.60222244   79.79250336    0.09000000    0.07000000
   18.60527802   78.26550293    0.09000000    0.07000000
   18.60861206   80.05339813    0.09000000    0.07000000
   18.61166763   76.40579987    0.09000000    0.07000000
   18.61499977   81.53610229    0.09000000    0.07000000
   18.61833382   83.70420074    0.09000000    0.07000000
   18.62138939   72.62580109    0.09000000    0.07000000
   18.62472153   74.96959686    0.09000000    0.07000000
   18.62805557   73.91729736    0.09000000    0.07000000
   18.63111115   76.95469666    0.09000000    0.07000000
   18.63194466   76.11470032    0.09000000    0.07000000
   18.63750076   76.11470032    0.09000000    0.07000000
   18.64166641   74.20290375    0.09000000    0.07000000
   18.64500046   83.77459717    0.09000000    0.07000000
   18.64805603   77.30850220    0.09000000    0.07000000
   18.65138817   76.28829956    0.09000000    0.07000000
   18.65472221   76.59100342    0.09000000    0.07000000
   18.65777779   81.67109680    0.09000000    0.07000000
   18.66110992   76.37059784    0.09000000    0.07000000
   18.66444397   77.26010132    0.09000000    0.07000000
   18.66527748   77.63089752    0.09000000    0.07000000
   18.66805458   83.56050110    0.09000000    0.07000000
   18.67111015   75.69329834    0.09000000    0.07000000
   18.67444420   76.92690277    0.09000000    0.07000000
   18.68055534   76.92690277    0.09000000    0.07000000
   18.68444443   78.08249664    0.09000000    0.07000000
   18.68777657   83.53600311    0.09000000    0.07000000
   18.69111061   79.71340179    0.09000000    0.07000000
   18.69416618   81.05200195    0.09000000    0.07000000
   18.69749832   78.39600372    0.09000000    0.07000000
   18.69861031   80.75119781    0.09000000    0.07000000
   18.70111275   76.11280060    0.09000000    0.07000000
   18.70416832   76.27680206    0.09000000    0.07000000
   18.70750046   74.27380371    0.09000000    0.07000000
   18.71055603   76.56770325    0.09000000    0.07000000
   18.71389008   76.33480072    0.09000000    0.07000000
   18.71722221   72.00450134    0.09000000    0.07000000
   18.72333336   72.00450134    0.09000000    0.07000000
   18.72750092   73.48529816    0.09000000    0.07000000
   18.73055649   74.99939728    0.09000000    0.07000000
   18.73194504   85.18609619    0.09000000    0.07000000
   18.73444557   77.90630341    0.09000000    0.07000000
   18.73750114   79.46360016    0.09000000    0.07000000
   18.74083328   77.50589752    0.09000000    0.07000000
   18.74388885   75.67780304    0.09000000    0.07000000
   18.74722290   81.85009766    0.09000000    0.07000000
   18.75055504   75.75489807    0.09000000    0.07000000
   18.75361061   78.87930298    0.09000000    0.07000000
   18.75694466   71.18879700    0.09000000    0.07000000
   18.76027870   71.78410339    0.09000000    0.07000000
   18.76611137   71.78410339    0.09000000    0.07000000
   18.77027702   75.61730194    0.09000000    0.07000000
   18.77361107   80.36679840    0.09000000    0.07000000
   18.77666664   75.98919678    0.09000000    0.07000000
   18.78000069   78.20729828    0.09000000    0.07000000
   18.78305435   83.55509949    0.09000000    0.07000000
   18.78638840   79.72270203    0.09000000    0.07000000
   18.78972244   77.67150116    0.09000000    0.07000000
   18.79277802   75.65360260    0.09000000    0.07000000
   18.79611015   76.86340332    0.09000000    0.07000000
   18.79861069   79.33910370    0.09000000    0.07000000
   18.79972076   79.66300201    0.09000000    0.07000000
   18.80277634   81.17659760    0.09000000    0.07000000
   18.80888748   81.17659760    0.09000000    0.07000000
   18.81305504   75.47899628    0.09000000    0.07000000
   18.81638718   77.23480225    0.09000000    0.07000000
   18.81972313   77.35330200    0.09000000    0.07000000
   18.82277870   78.44979858    0.09000000    0.07000000
   18.82611275   74.83110046    0.09000000    0.07000000
   18.82944489   75.45890045    0.09000000    0.07000000
   18.83194542   75.22190094    0.09000000    0.07000000
   18.83305550   75.73120117    0.09000000    0.07000000
   18.83611107   77.73909760    0.09000000    0.07000000
   18.83944511   77.59259796    0.09000000    0.07000000
   18.84250069   77.52330017    0.09000000    0.07000000
   18.84583473   76.63999939    0.09000000    0.07000000
   18.85194397   76.63999939    0.09000000    0.07000000
   18.85611153   76.23329926    0.09000000    0.07000000
   18.85916710   76.63120270    0.09000000    0.07000000
   18.86250114   74.51480103    0.09000000    0.07000000
   18.86527824   73.82510376    0.09000000    0.07000000
   18.86611176   74.71710205    0.09000000    0.07000000
   18.86916733   81.79889679    0.09000000    0.07000000
   18.87249947   79.15879822    0.09000000    0.07000000
   18.87555504   76.43389893    0.09000000    0.07000000
   18.87888908   77.01390076    0.09000000    0.07000000
   18.88222313   76.25099945    0.09000000    0.07000000
   18.88527679   77.00720215    0.09000000    0.07000000
   18.88861084   80.51460266    0.09000000    0.07000000
   18.89472198   80.51460266    0.09000000    0.07000000
   18.89888954   75.98609924    0.09000000    0.07000000
   18.90194321   74.48220062    0.09000000    0.07000000
   18.90527725   75.47699738    0.09000000    0.07000000
   18.90861130   82.96179962    0.09000000    0.07000000
   18.91166687   79.69259644    0.09000000    0.07000000
   18.91499901   81.03469849    0.09000000    0.07000000
   18.91833305   77.27660370    0.09000000    0.07000000
   18.92138863   82.02259827    0.09000000    0.07000000
   18.92472076   81.11209869    0.09000000    0.07000000
   18.92777634   79.23249817    0.09000000    0.07000000
   18.93111038   84.28170013    0.09000000    0.07000000
   18.93194389   79.27420044    0.09000000    0.07000000
   18.95250130   79.27420044    0.09000000    0.07000000
   18.95666695   77.73100281    0.09000000    0.07000000
   18.96000099   80.24970245    0.09000000    0.07000000
   18.96333504   77.28990173    0.09000000    0.07000000
   18.96527863   77.52290344    0.09000000    0.07000000
   18.96694565   78.54830170    0.09000000    0.07000000
   18.97000122   76.36979675    0.09000000    0.07000000
   18.97333336   77.61519623    0.09000000    0.07000000
   18.97666740   76.70069885    0.09000000    0.07000000
   18.97972298   86.43810272    0.09000000    0.07000000
   18.98305511   76.84429932    0.09000000    0.07000000
   18.98611069   78.85820007    0.09000000    0.07000000
   18.98944473   77.98699951    0.09000000    0.07000000
   18.99527740   77.98699951    0.09000000    0.07000000
   18.99944496   76.14029694    0.09000000    0.07000000
   19.00277710   75.34690094    0.09000000    0.07000000
   19.00583267   77.01159668    0.09000000    0.07000000
   19.00916672   79.23690033    0.09000000    0.07000000
   19.01250076   79.26499939    0.09000000    0.07000000
   19.01555634   76.58470154    0.09000000    0.07000000
   19.01888847   74.68070221    0.09000000    0.07000000
   19.02222252   78.68520355    0.09000000    0.07000000
   19.02527809   75.66380310    0.09000000    0.07000000
   19.02861023   73.71829987    0.09000000    0.07000000
   19.03166580   75.63690186    0.09000000    0.07000000
   19.03222275   77.33450317    0.09000000    0.07000000
   19.03805542   77.33450317    0.09000000    0.07000000
   19.04222107   74.01640320    0.09000000    0.07000000
   19.04555511   75.12599945    0.09000000    0.07000000
   19.04888916   74.36399841    0.09000000    0.07000000
   19.05222130   74.02529907    0.09000000    0.07000000
   19.05555534   78.12090302    0.09000000    0.07000000
   19.05888748   77.02429962    0.09000000    0.07000000
   19.06194305   76.70179749    0.09000000    0.07000000
   19.06527710   79.93029785    0.09000000    0.07000000
   19.06583214   75.31109619    0.09000000    0.07000000
   19.06888962   74.08940125    0.09000000    0.07000000
   19.07194519   79.73989868    0.09000000    0.07000000
   19.07527924   77.09169769    0.09000000    0.07000000
   19.08111191   77.09169769    0.09000000    0.07000000
   19.08527756   77.26210022    0.09000000    0.07000000
   19.08833313   80.39700317    0.09000000    0.07000000
   19.09166718   77.62920380    0.09000000    0.07000000
   19.09472275   81.77290344    0.09000000    0.07000000
   19.09805679   80.21530151    0.09000000    0.07000000
   19.09916687   75.53060150    0.09000000    0.07000000
   19.10194397   78.43560028    0.09000000    0.07000000
   19.10499954   74.36399841    0.09000000    0.07000000
   19.10833359   77.62699890    0.09000000    0.07000000
   19.11138916   74.51899719    0.09000000    0.07000000
   19.11472321   72.40799713    0.09000000    0.07000000
   19.11805534   73.52529907    0.09000000    0.07000000
   19.12388992   73.52529907    0.09000000    0.07000000
   19.12805557   75.45970154    0.09000000    0.07000000
   19.13111115   75.58689880    0.09000000    0.07000000
   19.13249969   73.50620270    0.09000000    0.07000000
   19.13500023   80.18849945    0.09000000    0.07000000
   19.13805580   72.38400269    0.09000000    0.07000000
   19.14138794   73.80879974    0.09000000    0.07000000
   19.14444351   74.66159821    0.09000000    0.07000000
   19.14777756   79.73349762    0.09000000    0.07000000
   19.15111160   74.91470337    0.09000000    0.07000000
   19.15416718   77.15049744    0.09000000    0.07000000
   19.15749931   77.99269867    0.09000000    0.07000000
   19.16083336   72.55580139    0.09000000    0.07000000
   19.16666603   72.55580139    0.09000000    0.07000000
   19.17083359   76.64129639    0.09000000    0.07000000
   19.17416573   73.89179993    0.09000000    0.07000000
   19.17722130   71.54930115    0.09000000    0.07000000
   19.18055534   73.97319794    0.09000000    0.07000000
   19.18388748   75.21679688    0.09000000    0.07000000
   19.18694305   74.46160126    0.09000000    0.07000000
   19.19027710   75.27519989    0.09000000    0.07000000
   19.19361115   74.36689758    0.09000000    0.07000000
   19.19666672   75.52469635    0.09000000    0.07000000
   19.19916534   78.33789825    0.09000000    0.07000000
   19.20055580   76.59320068    0.09000000    0.07000000
   19.20361137   75.09480286    0.09000000    0.07000000
   19.20944595   75.09480286    0.09000000    0.07000000
   19.21361160   75.93000031    0.09000000    0.07000000
   19.21694565   75.12390137    0.09000000    0.07000000
   19.22027779   78.44730377    0.09000000    0.07000000
   19.22333336   77.84179688    0.09000000    0.07000000
   19.22666740   78.72139740    0.09000000    0.07000000
   19.22972298   76.55500031    0.09000000    0.07000000
   19.23250008   76.87439728    0.09000000    0.07000000
   19.23333359   76.57620239    0.09000000    0.07000000
   19.23666763   75.29669952    0.09000000    0.07000000
   19.23999977   79.27700043    0.09000000    0.07000000
   19.24305534   76.91510010    0.09000000    0.07000000
   19.24638939   77.00859833    0.09000000    0.07000000
   19.25222206   77.00859833    0.09000000    0.07000000
   19.25638962   73.58779907    0.09000000    0.07000000
   19.25972176   73.35310364    0.09000000    0.07000000
   19.26305580   76.71170044    0.09000000    0.07000000
   19.26583290   81.82070160    0.09000000    0.07000000
   19.26638794   75.19249725    0.09000000    0.07000000
   19.26972198   77.81680298    0.09000000    0.07000000
   19.27305603   76.52770233    0.09000000    0.07000000
   19.27611160   79.21970367    0.09000000    0.07000000
   19.27944374   79.41600037    0.09000000    0.07000000
   19.28277779   73.10030365    0.09000000    0.07000000
   19.28583336   77.07089996    0.09000000    0.07000000
   19.28916550   77.01650238    0.09000000    0.07000000
   19.29527664   77.01650238    0.09000000    0.07000000
   19.29944420   77.89379883    0.09000000    0.07000000
   19.30249977   77.41760254    0.09000000    0.07000000
   19.30583191   76.16770172    0.09000000    0.07000000
   19.30888748   79.88809967    0.09000000    0.07000000
   19.31222153   77.29769897    0.09000000    0.07000000
   19.31555557   74.77069855    0.09000000    0.07000000
   19.31888962   76.67590332    0.09000000    0.07000000
   19.32194519   77.78620148    0.09000000    0.07000000
   19.32527924   76.03790283    0.09000000    0.07000000
   19.32833481   75.71779633    0.09000000    0.07000000
   19.33166695   79.28730011    0.09000000    0.07000000
   19.33250046   80.29190063    0.09000000    0.07000000
   19.33805656   80.29190063    0.09000000    0.07000000
   19.34222221   78.97380066    0.09000000    0.07000000
   19.34555626   76.26390076    0.09000000    0.07000000
   19.34861183   76.43750000    0.09000000    0.07000000
   19.35194397   75.26329803    0.09000000    0.07000000
   19.35527802   77.54470062    0.09000000    0.07000000
   19.35833359   76.64810181    0.09000000    0.07000000
   19.36166763   75.72070313    0.09000000    0.07000000
   19.36472321   75.54109955    0.09000000    0.07000000
   19.36583328   74.06929779    0.09000000    0.07000000
   19.36861038   77.43060303    0.09000000    0.07000000
   19.37166595   75.71569824    0.09000000    0.07000000
   19.37500000   77.12860107    0.09000000    0.07000000
   19.38083267   77.12860107    0.09000000    0.07000000
   19.38500023   78.62139893    0.09000000    0.07000000
   19.38833237   80.24140167    0.09000000    0.07000000
   19.39166641   77.00640106    0.09000000    0.07000000
   19.39472198   77.39230347    0.09000000    0.07000000
   19.39805603   79.74900055    0.09000000    0.07000000
   19.39916611   74.76380157    0.09000000    0.07000000
   19.40166664   76.49600220    0.09000000    0.07000000
   19.40472221   78.52059937    0.09000000    0.07000000
   19.40805435   77.23400116    0.09000000    0.07000000
   19.41138840   76.42910004    0.09000000    0.07000000
   19.41444397   75.46060181    0.09000000    0.07000000
   19.41777802   77.26349640    0.09000000    0.07000000
   19.42388916   77.26349640    0.09000000    0.07000000
   19.42805481   74.98690033    0.09000000    0.07000000
   19.43111038   74.61430359    0.09000000    0.07000000
   19.43249893   75.94380188    0.09000000    0.07000000
   19.43499947   76.18779755    0.09000000    0.07000000
   19.43833160   75.70469666    0.09000000    0.07000000
   19.44138718   76.36180115    0.09000000    0.07000000
   19.44472122   77.28309631    0.09000000    0.07000000
   19.44777679   75.60440063    0.09000000    0.07000000
   19.45111275   74.36119843    0.09000000    0.07000000
   19.45444489   77.87999725    0.09000000    0.07000000
   19.45750046   78.39170074    0.09000000    0.07000000
   19.46083450   75.84380341    0.09000000    0.07000000
   19.46666718   75.84380341    0.09000000    0.07000000
   19.47083473   84.59339905    0.09000000    0.07000000
   19.47389030   81.17500305    0.09000000    0.07000000
   19.47722244   79.57869720    0.09000000    0.07000000
   19.48055649   76.72640228    0.09000000    0.07000000
   19.48361206   79.36779785    0.09000000    0.07000000
   19.48694420   78.75000000    0.09000000    0.07000000
   19.49027824   80.00340271    0.09000000    0.07000000
   19.49333382   80.73580170    0.09000000    0.07000000
   19.49666786   79.34459686    0.09000000    0.07000000
   19.49916649   81.00279999    0.09000000    0.07000000
   19.50055504   78.40859985    0.09000000    0.07000000
   19.50361061   78.80599976    0.09000000    0.07000000
   19.50944519   78.80599976    0.09000000    0.07000000
   19.51361084   78.35220337    0.09000000    0.07000000
   19.51694489   78.16049957    0.09000000    0.07000000
   19.52000046   75.73529816    0.09000000    0.07000000
   19.52333260   77.12400055    0.09000000    0.07000000
   19.52666664   76.03240204    0.09000000    0.07000000
   19.52972221   81.66459656    0.09000000    0.07000000
   19.53249931   74.03040314    0.09000000    0.07000000
   19.53361130   77.75830078    0.09000000    0.07000000
   19.53666687   77.46089935    0.09000000    0.07000000
   19.53999901   80.05840302    0.09000000    0.07000000
   19.54333305   75.69730377    0.09000000    0.07000000
   19.54638863   82.44239807    0.09000000    0.07000000
   19.55222130   82.44239807    0.09000000    0.07000000
   19.55638885   79.80010223    0.09000000    0.07000000
   19.55972099   78.38369751    0.09000000    0.07000000
   19.56305504   84.21199799    0.09000000    0.07000000
   19.56583214   76.13210297    0.09000000    0.07000000
   19.56666756   75.08640289    0.09000000    0.07000000
   19.56972313   80.25900269    0.09000000    0.07000000
   19.57305717   81.23220062    0.09000000    0.07000000
   19.57638931   79.05519867    0.09000000    0.07000000
   19.57944489   76.07720184    0.09000000    0.07000000
   19.58277893   77.86329651    0.09000000    0.07000000
   19.58583450   78.59010315    0.09000000    0.07000000
   19.58916664   77.65589905    0.09000000    0.07000000
   19.59527779   77.65589905    0.09000000    0.07000000
   19.59944534   76.61779785    0.09000000    0.07000000
   19.60250092   76.02749634    0.09000000    0.07000000
   19.60583305   76.06390381    0.09000000    0.07000000
   19.60916710   79.31120300    0.09000000    0.07000000
   19.61222267   76.09919739    0.09000000    0.07000000
   19.61555672   74.86509705    0.09000000    0.07000000
   19.61861038   78.08020020    0.09000000    0.07000000
   19.62194443   76.82150269    0.09000000    0.07000000
   19.62527847   76.93589783    0.09000000    0.07000000
   19.62833405   76.26699829    0.09000000    0.07000000
   19.63166618   80.01249695    0.09000000    0.07000000
   19.63249969   80.78330231    0.09000000    0.07000000
   19.63805580   80.78330231    0.09000000    0.07000000
   19.64222145   74.81839752    0.09000000    0.07000000
   19.64527702   78.45480347    0.09000000    0.07000000
   19.64861107   76.60910034    0.09000000    0.07000000
   19.65194321   74.62349701    0.09000000    0.07000000
   19.65499878   74.94840240    0.09000000    0.07000000
   19.65833282   77.70929718    0.09000000    0.07000000
   19.66166687   75.13379669    0.09000000    0.07000000
   19.66472244   75.12779999    0.09000000    0.07000000
   19.66583252   80.03780365    0.09000000    0.07000000
   19.66833305   75.32289886    0.09000000    0.07000000
   19.67138863   80.13089752    0.09000000    0.07000000
   19.67472076   79.11360168    0.09000000    0.07000000
   19.68083191   79.11360168    0.09000000    0.07000000
   19.68499947   78.75679779    0.09000000    0.07000000
   19.68833160   82.27269745    0.09000000    0.07000000
   19.69138718   78.40429688    0.09000000    0.07000000
   19.69472122   84.49960327    0.09000000    0.07000000
   19.69805527   76.90779877    0.09000000    0.07000000
   19.69916534   76.89839935    0.09000000    0.07000000
   19.70166779   83.51080322    0.09000000    0.07000000
   19.70472336   77.65709686    0.09000000    0.07000000
   19.70805550   77.07399750    0.09000000    0.07000000
   19.71138954   79.36769867    0.09000000    0.07000000
   19.71444511   72.61949921    0.09000000    0.07000000
   19.71777916   73.92970276    0.09000000    0.07000000
   19.72361183   73.92970276    0.09000000    0.07000000
   19.72777748   79.98889923    0.09000000    0.07000000
   19.73111153   78.00550079    0.09000000    0.07000000
   19.73250008   76.04260254    0.09000000    0.07000000
   19.73472214   77.40889740    0.09000000    0.07000000
   19.73777771   77.16919708    0.09000000    0.07000000
   19.74111176   72.83910370    0.09000000    0.07000000
   19.74444389   75.79029846    0.09000000    0.07000000
   19.74749947   80.34729767    0.09000000    0.07000000
   19.75083351   74.16549683    0.09000000    0.07000000
   19.75416756   76.93720245    0.09000000    0.07000000
   19.75722313   77.31900024    0.09000000    0.07000000
   19.76055527   77.00440216    0.09000000    0.07000000
   19.76666641   77.00440216    0.09000000    0.07000000
   19.77083397   81.85620117    0.09000000    0.07000000
   19.77388954   75.87770081    0.09000000    0.07000000
   19.77722168   74.74659729    0.09000000    0.07000000
   19.78027725   79.49250031    0.09000000    0.07000000
   19.78361130   81.77860260    0.09000000    0.07000000
   19.78694344   78.43840027    0.09000000    0.07000000
   19.78999901   80.54959869    0.09000000    0.07000000
   19.79333305   75.56279755    0.09000000    0.07000000
   19.79666710   77.84310150    0.09000000    0.07000000
   19.79916573   78.89949799    0.09000000    0.07000000
   19.80027771   79.38130188    0.09000000    0.07000000
   19.80333328   79.91570282    0.09000000    0.07000000
   19.80944443   79.91570282    0.09000000    0.07000000
   19.81361008   78.61129761    0.09000000    0.07000000
   19.81666756   77.05609894    0.09000000    0.07000000
   19.82000160   72.80580139    0.09000000    0.07000000
   19.82333374   77.30020142    0.09000000    0.07000000
   19.82638931   75.55310059    0.09000000    0.07000000
   19.82972336   79.75569916    0.09000000    0.07000000
   19.83250046   78.32749939    0.09000000    0.07000000
   19.83333397   76.06199646    0.09000000    0.07000000
   19.83638954   75.69550323    0.09000000    0.07000000
   19.83972359   77.87010193    0.09000000    0.07000000
   19.84305573   73.89230347    0.09000000    0.07000000
   19.84611130   78.39669800    0.09000000    0.07000000
   19.85222244   78.39669800    0.09000000    0.07000000
   19.85639000   78.98220062    0.09000000    0.07000000
   19.85972214   79.15070343    0.09000000    0.07000000
   19.86277771   82.15260315    0.09000000    0.07000000
   19.86583328   77.97370148    0.09000000    0.07000000
   19.86666679   77.06330109    0.09000000    0.07000000
   19.86972237   74.95850372    0.09000000    0.07000000
   19.87305641   74.45829773    0.09000000    0.07000000
   19.87638855   76.81289673    0.09000000    0.07000000
   19.87944412   76.05169678    0.09000000    0.07000000
   19.88277817   76.36199951    0.09000000    0.07000000
   19.88611031   77.25710297    0.09000000    0.07000000
   19.88916588   80.62560272    0.09000000    0.07000000
   19.89500046   80.62560272    0.09000000    0.07000000
   19.89916611   81.75140381    0.09000000    0.07000000
   19.90250015   79.30740356    0.09000000    0.07000000
   19.90583229   77.33519745    0.09000000    0.07000000
   19.90888786   77.92880249    0.09000000    0.07000000
   19.91222191   76.07740021    0.09000000    0.07000000
   19.91527748   79.85030365    0.09000000    0.07000000
   19.91860962   76.58529663    0.09000000    0.07000000
   19.92194366   75.28600311    0.09000000    0.07000000
   19.92499924   76.26730347    0.09000000    0.07000000
   19.92833328   76.57510376    0.09000000    0.07000000
   19.93166542   76.43640137    0.09000000    0.07000000
   19.93249893   76.95330048    0.09000000    0.07000000
   19.93805504   76.95330048    0.09000000    0.07000000
   19.94222069   82.38510132    0.09000000    0.07000000
   19.94527626   76.42449951    0.09000000    0.07000000
   19.94861031   78.79640198    0.09000000    0.07000000
   19.96611214   77.62270355    0.09000000    0.07000000
   19.96861076   76.79039764    0.09000000    0.07000000
   19.97194481   78.63359833    0.09000000    0.07000000
   19.97500038   77.97119904    0.09000000    0.07000000
   19.98111153   77.97119904    0.09000000    0.07000000
   19.98527718   79.34719849    0.09000000    0.07000000
   19.98833275   76.84249878    0.09000000    0.07000000
   19.99166679   81.81919861    0.09000000    0.07000000
   19.99472237   77.40670013    0.09000000    0.07000000
   19.99805641   75.63870239    0.09000000    0.07000000
   19.99944496   80.28209686    0.09000000    0.07000000
   20.00194359   79.31749725    0.09000000    0.07000000
   20.00499916   79.97170258    0.09000000    0.07000000
   20.00833321   77.85060120    0.09000000    0.07000000
   20.01138878   76.56300354    0.09000000    0.07000000
   20.01472282   81.36340332    0.09000000    0.07000000
   20.01805496   83.80319977    0.09000000    0.07000000
   20.02388954   83.80319977    0.09000000    0.07000000
   20.02805519   77.91339874    0.09000000    0.07000000
   20.03111076   77.78569794    0.09000000    0.07000000
   20.03277779   81.91649628    0.09000000    0.07000000
   20.03499985   81.20359802    0.09000000    0.07000000
   20.03805542   79.11519623    0.09000000    0.07000000
   20.04138756   80.01069641    0.09000000    0.07000000
   20.04444313   80.33719635    0.09000000    0.07000000
   20.04777718   80.01650238    0.09000000    0.07000000
   20.05111122   79.66600037    0.09000000    0.07000000
   20.05416679   81.44860077    0.09000000    0.07000000
   20.05749893   81.95130157    0.09000000    0.07000000
   20.06083298   77.77819824    0.09000000    0.07000000
   20.06666756   77.77819824    0.09000000    0.07000000
   20.07083511   78.80919647    0.09000000    0.07000000
   20.07416725   78.79730225    0.09000000    0.07000000
   20.07722282   81.76599884    0.09000000    0.07000000
   20.08055687   78.57219696    0.09000000    0.07000000
   20.08361244   76.86409760    0.09000000    0.07000000
   20.08694458   76.38430023    0.09000000    0.07000000
   20.09027863   77.08249664    0.09000000    0.07000000
   20.09333420   78.89880371    0.09000000    0.07000000
   20.09666824   76.28820038    0.09000000    0.07000000
   20.09944534   75.63359833    0.09000000    0.07000000
   20.10027885   73.54360199    0.09000000    0.07000000
   20.10333443   79.75589752    0.09000000    0.07000000
   20.10944557   79.75589752    0.09000000    0.07000000
   20.11361122   76.01989746    0.09000000    0.07000000
   20.11694527   76.88529968    0.09000000    0.07000000
   20.12000084   74.54180145    0.09000000    0.07000000
   20.12333298   78.48889923    0.09000000    0.07000000
   20.12666702   79.56189728    0.09000000    0.07000000
   20.12972260   84.06569672    0.09000000    0.07000000
   20.13277817   79.04010010    0.09000000    0.07000000
   20.13361168   76.83570099    0.09000000    0.07000000
   20.13666725   80.09459686    0.09000000    0.07000000
   20.13999939   76.79060364    0.09000000    0.07000000
   20.14333344   78.41449738    0.09000000    0.07000000
   20.14638901   82.97760010    0.09000000    0.07000000
   20.15250015   82.97760010    0.09000000    0.07000000
   20.15638924   76.19760132    0.09000000    0.07000000
   20.15972137   77.03260040    0.09000000    0.07000000
   20.16305542   76.86370087    0.09000000    0.07000000
   20.16611099   78.12180328    0.09000000    0.07000000
   20.16666603   79.40840149    0.09000000    0.07000000
   20.16972160   77.79550171    0.09000000    0.07000000
   20.17305565   76.34929657    0.09000000    0.07000000
   20.17611122   77.05220032    0.09000000    0.07000000
   20.17944336   82.25350189    0.09000000    0.07000000
   20.18277740   77.99310303    0.09000000    0.07000000
   20.18583298   80.58070374    0.09000000    0.07000000
   20.18916512   77.26860046    0.09000000    0.07000000
   20.19527626   77.26860046    0.09000000    0.07000000
   20.19944382   78.47139740    0.09000000    0.07000000
   20.20000076   81.08699799    0.09000000    0.07000000
   20.20305634   79.30580139    0.09000000    0.07000000
   20.20639038   85.35420227    0.09000000    0.07000000
   20.20944595   75.56150055    0.09000000    0.07000000
   20.21277809   78.41179657    0.09000000    0.07000000
   20.21611214   77.73789978    0.09000000    0.07000000
   20.21916771   77.97499847    0.09000000    0.07000000
   20.22249985   80.36039734    0.09000000    0.07000000
   20.22583389   75.11609650    0.09000000    0.07000000
   20.22888947   77.52239990    0.09000000    0.07000000
   20.23222351   76.68219757    0.09000000    0.07000000
   20.23277855   73.70680237    0.09000000    0.07000000
   20.23805618   73.70680237    0.09000000    0.07000000
   20.24222183   78.11430359    0.09000000    0.07000000
   20.24555588   76.73049927    0.09000000    0.07000000
   20.24861145   83.93129730    0.09000000    0.07000000
   20.25194359   80.77980042    0.09000000    0.07000000
   20.25499916   78.22959900    0.09000000    0.07000000
   20.25833321   80.61380005    0.09000000    0.07000000
   20.26166725   76.53430176    0.09000000    0.07000000
   20.26472282   78.22370148    0.09000000    0.07000000
   20.26611137   77.25140381    0.09000000    0.07000000
   20.26861000   76.22869873    0.09000000    0.07000000
   20.27166557   78.76239777    0.09000000    0.07000000
   20.27499962   77.80259705    0.09000000    0.07000000
   20.28083229   77.80259705    0.09000000    0.07000000
   20.28499985   79.15640259    0.09000000    0.07000000
   20.28833199   79.19699860    0.09000000    0.07000000
   20.29138756   79.95850372    0.09000000    0.07000000
   20.29472160   78.63719940    0.09000000    0.07000000
   20.29805565   76.06849670    0.09000000    0.07000000
   20.29944420   74.86370087    0.09000000    0.07000000
   20.30166626   76.48200226    0.09000000    0.07000000
   20.30472183   77.09449768    0.09000000    0.07000000
   20.30805397   85.11289978    0.09000000    0.07000000
   20.31138802   77.48699951    0.09000000    0.07000000
   20.31444359   76.21900177    0.09000000    0.07000000
   20.31777954   76.53910065    0.09000000    0.07000000
   20.32389069   76.53910065    0.09000000    0.07000000
   20.32777786   76.88829803    0.09000000    0.07000000
   20.33111191   76.98789978    0.09000000    0.07000000
   20.33277893   81.59690094    0.09000000    0.07000000
   20.33472252   76.11019897    0.09000000    0.07000000
   20.33777809   77.35669708    0.09000000    0.07000000
   20.34111214   82.10489655    0.09000000    0.07000000
   20.34444427   77.65730286    0.09000000    0.07000000
   20.34749985   81.14199829    0.09000000    0.07000000
   20.35083389   76.15969849    0.09000000    0.07000000
   20.35388947   75.56610107    0.09000000    0.07000000
   20.35722351   78.69909668    0.09000000    0.07000000
   20.36055565   80.36319733    0.09000000    0.07000000
   20.36666679   80.36319733    0.09000000    0.07000000
   20.37083435   78.16770172    0.09000000    0.07000000
   20.37388992   73.64330292    0.09000000    0.07000000
   20.37722206   76.90249634    0.09000000    0.07000000
   20.38055611   78.58329773    0.09000000    0.07000000
   20.38361168   79.38310242    0.09000000    0.07000000
   20.38694382   84.29389954    0.09000000    0.07000000
   20.39027786   79.80989838    0.09000000    0.07000000
   20.39333344   80.49140167    0.09000000    0.07000000
   20.39666748   81.16259766    0.09000000    0.07000000
   20.39944458   80.07939911    0.09000000    0.07000000
   20.40027809   82.91629791    0.09000000    0.07000000
   20.40333366   82.30930328    0.09000000    0.07000000
   20.40944481   82.30930328    0.09000000    0.07000000
   20.41361046   81.40609741    0.09000000    0.07000000
   20.41666603   82.28410339    0.09000000    0.07000000
   20.42000008   85.57730103    0.09000000    0.07000000
   20.42333221   83.30280304    0.09000000    0.07000000
   20.42638779   87.64250183    0.09000000    0.07000000
   20.42972183   80.78669739    0.09000000    0.07000000
   20.43277740   85.50440216    0.09000000    0.07000000
   20.43333244   80.57080078    0.09000000    0.07000000
   20.43638802   81.16960144    0.09000000    0.07000000
   20.43972206   85.24030304    0.09000000    0.07000000
   20.44305420   85.36430359    0.09000000    0.07000000
   20.44610977   81.84279633    0.09000000    0.07000000
   20.45222282   81.84279633    0.09000000    0.07000000
   20.45639038   80.14649963    0.09000000    0.07000000
   20.45972252   84.74549866    0.09000000    0.07000000
   20.46305656   90.44809723    0.09000000    0.07000000
   20.46611214   90.37640381    0.09000000    0.07000000
   20.46666718   84.33989716    0.09000000    0.07000000
   20.46972275   81.76840210    0.09000000    0.07000000
   20.47305679   80.87930298    0.09000000    0.07000000
   20.47611237   77.82070160    0.09000000    0.07000000
   20.47944450   79.91670227    0.09000000    0.07000000
   20.48277855   86.26519775    0.09000000    0.07000000
   20.48583412   89.22779846    0.09000000    0.07000000
   20.48916626   77.30280304    0.09000000    0.07000000
   20.49527740   77.30280304    0.09000000    0.07000000
   20.49916649   78.85070038    0.09000000    0.07000000
   20.49972153   85.97339630    0.09000000    0.07000000
   20.50305557   81.51020050    0.09000000    0.07000000
   20.50638962   79.64589691    0.09000000    0.07000000
   20.50944519   91.78869629    0.09000000    0.07000000
   20.51277733   91.71510315    0.09000000    0.07000000
   20.51611137   82.63099670    0.09000000    0.07000000
   20.51916695   86.27850342    0.09000000    0.07000000
   20.52249908   90.84159851    0.09000000    0.07000000
   20.52555466   81.89389801    0.09000000    0.07000000
   20.52888870   85.14350128    0.09000000    0.07000000
   20.53222275   80.70390320    0.09000000    0.07000000
   20.53305435   79.48210144    0.09000000    0.07000000
   20.53805542   79.48210144    0.09000000    0.07000000
   20.54222107   80.08540344    0.09000000    0.07000000
   20.54527664   78.77629852    0.09000000    0.07000000
   20.54861069   82.25090027    0.09000000    0.07000000
   20.55194283   80.37310028    0.09000000    0.07000000
   20.55499840   83.88670349    0.09000000    0.07000000
   20.55833244   79.53469849    0.09000000    0.07000000
   20.56166649   85.26039886    0.09000000    0.07000000
   20.56472206   86.08899689    0.09000000    0.07000000
   20.56638718   84.90609741    0.09000000    0.07000000
   20.56833458   80.60240173    0.09000000    0.07000000
   20.57166672   80.61039734    0.09000000    0.07000000
   20.57472229   79.48030090    0.09000000    0.07000000
   20.58083344   79.48030090    0.09000000    0.07000000
   20.58500099   84.54620361    0.09000000    0.07000000
   20.58833313   89.19920349    0.09000000    0.07000000
   20.59138870   85.72450256    0.09000000    0.07000000
   20.59472275   88.88909912    0.09000000    0.07000000
   20.59777832   82.65000153    0.09000000    0.07000000
   20.59972191   88.57340240    0.09000000    0.07000000
   20.60138893   96.41670227    0.09000000    0.07000000
   20.60472298   87.86090088    0.09000000    0.07000000
   20.60777855   88.91819763    0.09000000    0.07000000
   20.61111069   77.40039825    0.09000000    0.07000000
   20.61444473   80.43399811    0.09000000    0.07000000
   20.61750031   81.44200134    0.09000000    0.07000000
   20.62361145   81.44200134    0.09000000    0.07000000
   20.62777710   82.13040161    0.09000000    0.07000000
   20.63111115   81.92659760    0.09000000    0.07000000
   20.63333321   77.83260345    0.09000000    0.07000000
   20.63472176   82.90160370    0.09000000    0.07000000
   20.63805580   83.38819885    0.09000000    0.07000000
   20.64138794   94.56169891    0.09000000    0.07000000
   20.64444351   86.02059937    0.09000000    0.07000000
   20.64777756   82.43409729    0.09000000    0.07000000
   20.65083313   86.02690125    0.09000000    0.07000000
   20.65416718   89.38430023    0.09000000    0.07000000
   20.65749931   94.70729828    0.09000000    0.07000000
   20.66055489   86.50930023    0.09000000    0.07000000
   20.66666603   86.50930023    0.09000000    0.07000000
   20.67055511   82.10659790    0.09000000    0.07000000
   20.67388916   78.94689941    0.09000000    0.07000000
   20.67722130   82.77189636    0.09000000    0.07000000
   20.68027687   81.86239624    0.09000000    0.07000000
   20.68361092   83.16609955    0.09000000    0.07000000
   20.68666649   85.13839722    0.09000000    0.07000000
   20.68999863   80.63159943    0.09000000    0.07000000
   20.69333267   81.73020172    0.09000000    0.07000000
   20.69638824   82.59809875    0.09000000    0.07000000
   20.69972038   80.80979919    0.09000000    0.07000000
   20.70166779   81.77899933    0.09000000    0.07000000
   20.70333481   83.24340057    0.09000000    0.07000000
   20.70944595   83.24340057    0.09000000    0.07000000
   20.71361160   83.95680237    0.09000000    0.07000000
   20.71666718   82.07360077    0.09000000    0.07000000
   20.72000122   84.76959991    0.09000000    0.07000000
   20.72333336   90.47579956    0.09000000    0.07000000
   20.72638893   81.40529633    0.09000000    0.07000000
   20.72972298  102.41300201    0.09000000    0.07000000
   20.73277855   87.95649719    0.09000000    0.07000000
   20.73500061   91.22599792    0.09000000    0.07000000
   20.73638916   84.03029633    0.09000000    0.07000000
   20.73972321   81.55149841    0.09000000    0.07000000
   20.74305534   82.13420105    0.09000000    0.07000000
   20.74611092   82.03649902    0.09000000    0.07000000
   20.75222206   82.03649902    0.09000000    0.07000000
   20.75638962   75.78610229    0.09000000    0.07000000
   20.75944519   80.59989929    0.09000000    0.07000000
   20.76277733   81.90979767    0.09000000    0.07000000
   20.76611137   83.19309998    0.09000000    0.07000000
   20.76833344   77.55629730    0.09000000    0.07000000
   20.76972198   78.92500305    0.09000000    0.07000000
   20.77305603   85.03659821    0.09000000    0.07000000
   20.77611160   81.98919678    0.09000000    0.07000000
   20.77944374   78.97989655    0.09000000    0.07000000
   20.78277779   77.00340271    0.09000000    0.07000000
   20.78583336   82.64070129    0.09000000    0.07000000
   20.78916550   81.67389679    0.09000000    0.07000000
   20.79500008   81.67389679    0.09000000    0.07000000
   20.79916573   80.73750305    0.09000000    0.07000000
   20.80166626   79.90440369    0.09000000    0.07000000
   20.80277634   81.79250336    0.09000000    0.07000000
   20.80611038   87.53410339    0.09000000    0.07000000
   20.80916595   77.27780151    0.09000000    0.07000000
   20.81250000   90.40100098    0.09000000    0.07000000
   20.81583214   81.81079865    0.09000000    0.07000000
   20.81888962   84.95749664    0.09000000    0.07000000
   20.82222366   82.24240112    0.09000000    0.07000000
   20.82555580   86.48930359    0.09000000    0.07000000
   20.82861137   85.64019775    0.09000000    0.07000000
   20.83194542   80.39969635    0.09000000    0.07000000
   20.83805656   80.39969635    0.09000000    0.07000000
   20.84194565   84.57689667    0.09000000    0.07000000
   20.84527779   82.98639679    0.09000000    0.07000000
   20.84861183   81.89820099    0.09000000    0.07000000
   20.85166740   84.82379913    0.09000000    0.07000000
   20.85499954   79.22560120    0.09000000    0.07000000
   20.85833359   82.34339905    0.09000000    0.07000000
   20.86138916   80.68650055    0.09000000    0.07000000
   20.86472321   80.47389984    0.09000000    0.07000000
   20.86777878   86.54100037    0.09000000    0.07000000
   20.86888885   92.07890320    0.09000000    0.07000000
   20.87138939   77.81659698    0.09000000    0.07000000
   20.87472153   81.15869904    0.09000000    0.07000000
   20.88083267   81.15869904    0.09000000    0.07000000
   20.88500023   78.83679962    0.09000000    0.07000000
   20.88805580   80.96299744    0.09000000    0.07000000
   20.89138794   81.04419708    0.09000000    0.07000000
   20.89472198   76.99859619    0.09000000    0.07000000
   20.89777756   85.07890320    0.09000000    0.07000000
   20.90111160   81.53209686    0.09000000    0.07000000
   20.90222168   87.81210327    0.09000000    0.07000000
   20.90499878   81.76830292    0.09000000    0.07000000
   20.90805435   80.45249939    0.09000000    0.07000000
   20.91138840   81.08650208    0.09000000    0.07000000
   20.91472244   78.63220215    0.09000000    0.07000000
   20.91777802   80.38829803    0.09000000    0.07000000
   20.92361069   80.38829803    0.09000000    0.07000000
   20.92777634   78.26480103    0.09000000    0.07000000
   20.93111038   82.10720062    0.09000000    0.07000000
   20.93416595   82.78160095    0.09000000    0.07000000
   20.93583298   82.15370178    0.09000000    0.07000000
   20.93777657   79.06759644    0.09000000    0.07000000
   20.94111061   85.71450043    0.09000000    0.07000000
   20.94444275   84.76920319    0.09000000    0.07000000
   20.94749832   85.66619873    0.09000000    0.07000000
   20.95083427   79.20760345    0.09000000    0.07000000
   20.95416832   77.33670044    0.09000000    0.07000000
   20.95722389   84.14109802    0.09000000    0.07000000
   20.96055603   85.64969635    0.09000000    0.07000000
   20.96666718   85.64969635    0.09000000    0.07000000
   20.98500061   95.96640015    0.09000000    0.07000000
   20.98805618   79.53710175    0.09000000    0.07000000
   20.99138832   81.33540344    0.09000000    0.07000000
   20.99472237   79.46340179    0.09000000    0.07000000
   20.99777794   80.96179962    0.09000000    0.07000000
   21.00111198   89.44200134    0.09000000    0.07000000
   21.00444412   85.02120209    0.09000000    0.07000000
   21.00972176   85.02120209    0.09000000    0.07000000
   21.01388931   87.04039764    0.09000000    0.07000000
   21.01694489   96.07330322    0.09000000    0.07000000
   21.01805496   88.21160126    0.09000000    0.07000000
   21.02055550   87.76609802    0.09000000    0.07000000
   21.02388954   95.01969910    0.09000000    0.07000000
   21.02722168   90.10890198    0.09000000    0.07000000
   21.03027725   81.85880280    0.09000000    0.07000000
   21.03361130   89.34259796    0.09000000    0.07000000
   21.03694344   96.50170135    0.09000000    0.07000000
   21.03999901   87.50270081    0.09000000    0.07000000
   21.04333305   87.37799835    0.09000000    0.07000000
   21.04638863   88.53489685    0.09000000    0.07000000
   21.05249977   88.53489685    0.09000000    0.07000000
   21.05666542   89.94629669    0.09000000    0.07000000
   21.05972099   87.63320160    0.09000000    0.07000000
   21.06305504   89.55319977    0.09000000    0.07000000
   21.06611061   93.21080017    0.09000000    0.07000000
   21.06944466   87.06020355    0.09000000    0.07000000
   21.07277870   85.73529816    0.09000000    0.07000000
   21.07583427   85.97830200    0.09000000    0.07000000
   21.07916832   93.41130066    0.09000000    0.07000000
   21.08250046   90.02429962    0.09000000    0.07000000
   21.08472252   89.92559814    0.09000000    0.07000000
   21.08583450   91.84680176    0.09000000    0.07000000
   21.08916664   83.71620178    0.09000000    0.07000000
   21.09527779   83.71620178    0.09000000    0.07000000
   21.09944534   88.78430176    0.09000000    0.07000000
   21.10250092   87.30979919    0.09000000    0.07000000
   21.10583305   84.35700226    0.09000000    0.07000000
   21.10916710   91.66089630    0.09000000    0.07000000
   21.11222267   86.34719849    0.09000000    0.07000000
   21.11555672   85.76670074    0.09000000    0.07000000
   21.11805534   95.39969635    0.09000000    0.07000000
   21.11916733   95.33059692    0.09000000    0.07000000
   21.12249947   99.58170319    0.09000000    0.07000000
   21.12555504  102.04000092    0.09000000    0.07000000
   21.12888908   78.65270233    0.09000000    0.07000000
   21.13222313   92.47360229    0.09000000    0.07000000
   21.13805580   92.47360229    0.09000000    0.07000000
   21.14222145   88.19280243    0.09000000    0.07000000
   21.14555550   91.55190277    0.09000000    0.07000000
   21.14861107   89.39129639    0.09000000    0.07000000
   21.15138817   78.57330322    0.09000000    0.07000000
   21.15222168   90.64910126    0.09000000    0.07000000
   21.15555573   95.46690369    0.09000000    0.07000000
   21.15888786   98.97010040    0.09000000    0.07000000
   21.16194344   90.49099731    0.09000000    0.07000000
   21.16527748   90.98650360    0.09000000    0.07000000
   21.16833305   93.66979980    0.09000000    0.07000000
   21.17166519   87.71260071    0.09000000    0.07000000
   21.17499924   77.97180176    0.09000000    0.07000000
   21.18083191   77.97180176    0.09000000    0.07000000
   21.18499947   80.01180267    0.09000000    0.07000000
   21.18833160   86.46839905    0.09000000    0.07000000
   21.19166565   81.69909668    0.09000000    0.07000000
   21.19472122   79.72019958    0.09000000    0.07000000
   21.19805527   77.85140228    0.09000000    0.07000000
   21.20111275   77.42590332    0.09000000    0.07000000
   21.20444489   80.43409729    0.09000000    0.07000000
   21.20777893   87.73159790    0.09000000    0.07000000
   21.21083450   91.78829956    0.09000000    0.07000000
   21.21416664   83.49079895    0.09000000    0.07000000
   21.21750069   85.75150299    0.09000000    0.07000000
   21.21805573   85.14759827    0.09000000    0.07000000
   21.22389030   85.14759827    0.09000000    0.07000000
   21.22805595   93.32740021    0.09000000    0.07000000
   21.23111153   84.41030121    0.09000000    0.07000000
   21.23444557   82.42130280    0.09000000    0.07000000
   21.23777771   84.63950348    0.09000000    0.07000000
   21.24083328   92.86630249    0.09000000    0.07000000
   21.24416733   85.64040375    0.09000000    0.07000000
   21.24722290   82.69409943    0.09000000    0.07000000
   21.25055504   87.27010345    0.09000000    0.07000000
   21.25138855   92.32409668    0.09000000    0.07000000
   21.25416756   88.14530182    0.09000000    0.07000000
   21.25749969   92.43070221    0.09000000    0.07000000
   21.26055527   93.57409668    0.09000000    0.07000000
   21.26666641   93.57409668    0.09000000    0.07000000
   21.27083397   94.10169983    0.09000000    0.07000000
   21.27388954   92.77500153    0.09000000    0.07000000
   21.27722168   93.65570068    0.09000000    0.07000000
   21.28055573  102.59899902    0.09000000    0.07000000
   21.28361130   98.31269836    0.09000000    0.07000000
   21.28472137   94.43699646    0.09000000    0.07000000
   21.28722191   93.74120331    0.09000000    0.07000000
   21.29055595  103.43000031    0.09000000    0.07000000
   21.29361153   86.76020050    0.09000000    0.07000000
   21.29694366   97.78420258    0.09000000    0.07000000
   21.30027771  102.50099945    0.09000000    0.07000000
   21.30333328   97.55490112    0.09000000    0.07000000
   21.30944443   97.55490112    0.09000000    0.07000000
   21.31361008   98.64029694    0.09000000    0.07000000
   21.31694603  104.51999664    0.09000000    0.07000000
   21.31805611  100.23300171    0.09000000    0.07000000
   21.32027817  103.01999664    0.09000000    0.07000000
   21.32361221  109.56800079    0.09000000    0.07000000
   21.32666779  101.51699829    0.09000000    0.07000000
   21.33000183   93.68499756    0.09000000    0.07000000
   21.33333397   99.53140259    0.09000000    0.07000000
   21.33638954  105.01399994    0.09000000    0.07000000
   21.33972359  103.77100372    0.09000000    0.07000000
   21.34305573  110.84200287    0.09000000    0.07000000
   21.34611130  107.44200134    0.09000000    0.07000000
   21.35222244  107.44200134    0.09000000    0.07000000
   21.35639000  115.07299805    0.09000000    0.07000000
   21.35972214   97.14430237    0.09000000    0.07000000
   21.36305618  112.24099731    0.09000000    0.07000000
   21.36611176   84.95179749    0.09000000    0.07000000
   21.36944389   93.60449982    0.09000000    0.07000000
   21.37249947  107.42199707    0.09000000    0.07000000
   21.37583351  112.91000366    0.09000000    0.07000000
   21.37916756  114.73400116    0.09000000    0.07000000
   21.38222313  117.73000336    0.09000000    0.07000000
   21.38472176  104.87100220    0.09000000    0.07000000
   21.38583374  109.37599945    0.09000000    0.07000000
   21.38916588   95.96710205    0.09000000    0.07000000
   21.39527702   95.96710205    0.09000000    0.07000000
   21.39916611  102.91999817    0.09000000    0.07000000
   21.40250015  123.96600342    0.09000000    0.07000000
   21.40583229  107.95300293    0.09000000    0.07000000
   21.40888786  104.37000275    0.09000000    0.07000000
   21.41222191   91.59269714    0.09000000    0.07000000
   21.41555595  104.50599670    0.09000000    0.07000000
   21.41805458  111.77799988    0.09000000    0.07000000
   21.41888809  114.68199921    0.09000000    0.07000000
   21.42222214  110.51100159    0.09000000    0.07000000
   21.42527771  112.82199860    0.09000000    0.07000000
   21.42860985  101.78600311    0.09000000    0.07000000
   21.43194389  123.08200073    0.09000000    0.07000000
   21.43805504  123.08200073    0.09000000    0.07000000
   21.44222069  118.96600342    0.09000000    0.07000000
   21.44527626  116.27500153    0.09000000    0.07000000
   21.44861031  120.40200043    0.09000000    0.07000000
   21.45138931  115.04399872    0.09000000    0.07000000
   21.45222282  111.73600006    0.09000000    0.07000000
   21.45555687  130.66900635    0.09000000    0.07000000
   21.45861244  127.57399750    0.09000000    0.07000000
   21.46194458  133.60200500    0.09000000    0.07000000
   21.46527863  115.09700012    0.09000000    0.07000000
   21.46833420  135.11700439    0.09000000    0.07000000
   21.47166634  146.60800171    0.09000000    0.07000000
   21.47500038  134.03799438    0.09000000    0.07000000
   21.48083305  134.03799438    0.09000000    0.07000000
   21.48500061  141.27200317    0.09000000    0.07000000
   21.48833275  135.96899414    0.09000000    0.07000000
   21.49138832  127.00499725    0.09000000    0.07000000
   21.49472237  138.41499329    0.09000000    0.07000000
   21.49805641  139.74699402    0.09000000    0.07000000
   21.50111198  131.72999573    0.09000000    0.07000000
   21.50444412  121.53199768    0.09000000    0.07000000
   21.50777817  116.72200012    0.09000000    0.07000000
   21.51083374  131.12699890    0.09000000    0.07000000
   21.51416588  141.69599915    0.09000000    0.07000000
   21.51722145  130.56500244    0.09000000    0.07000000
   21.51805496  135.01300049    0.09000000    0.07000000
   21.52361107  135.01300049    0.09000000    0.07000000
   21.52777672  114.25399780    0.09000000    0.07000000
   21.53111076  114.14299774    0.09000000    0.07000000
   21.53416634  124.73100281    0.09000000    0.07000000
   21.53750038  131.74200439    0.09000000    0.07000000
   21.54083252  143.06799316    0.09000000    0.07000000
   21.54388809  139.47399902    0.09000000    0.07000000
   21.54722214  136.64100647    0.09000000    0.07000000
   21.55055428  126.95700073    0.09000000    0.07000000
   21.55138779  125.29399872    0.09000000    0.07000000
   21.55388832  116.41799927    0.09000000    0.07000000
   21.55722237  118.83599854    0.09000000    0.07000000
   21.56055450  137.05900574    0.09000000    0.07000000
   21.56666756  137.05900574    0.09000000    0.07000000
   21.57083511  136.58999634    0.09000000    0.07000000
   21.57389069  127.66500092    0.09000000    0.07000000
   21.57722282  118.30500031    0.09000000    0.07000000
   21.58027840  149.72399902    0.09000000    0.07000000
   21.58361244  141.49600220    0.09000000    0.07000000
   21.58472252  130.98699951    0.09000000    0.07000000
   21.58722305  139.52900696    0.09000000    0.07000000
   21.59055710  111.73799896    0.09000000    0.07000000
   21.59388924  133.42500305    0.09000000    0.07000000
   21.59694481  133.19999695    0.09000000    0.07000000
   21.60027885  119.49299622    0.09000000    0.07000000
   21.60333443  133.35000610    0.09000000    0.07000000
   21.60944557  133.35000610    0.09000000    0.07000000
   21.61361122  127.86499786    0.09000000    0.07000000
   21.61666679  119.60800171    0.09000000    0.07000000
   21.61805534  113.23100281    0.09000000    0.07000000
   21.62027740  128.29200745    0.09000000    0.07000000
   21.62361145  134.51699829    0.09000000    0.07000000
   21.62694550  140.62300110    0.09000000    0.07000000
   21.63000107  126.32399750    0.09000000    0.07000000
   21.63333321  115.35900116    0.09000000    0.07000000
   21.63638878  123.52899933    0.09000000    0.07000000
   21.63972282  124.33000183    0.09000000    0.07000000
   21.64305496  107.54599762    0.09000000    0.07000000
   21.64611053  116.92199707    0.09000000    0.07000000
   21.65222168  116.92199707    0.09000000    0.07000000
   21.65638924  111.25900269    0.09000000    0.07000000
   21.65972137  111.33200073    0.09000000    0.07000000
   21.66277695  123.72299957    0.09000000    0.07000000
   21.66611099  112.15399933    0.09000000    0.07000000
   21.66916656  101.59799957    0.09000000    0.07000000
   21.67249870  105.56999969    0.09000000    0.07000000
   21.67583275   99.06819916    0.09000000    0.07000000
   21.67888832  122.60399628    0.09000000    0.07000000
   21.68222237  121.72899628    0.09000000    0.07000000
   21.68472099  104.25399780    0.09000000    0.07000000
   21.68583298  106.67199707    0.09000000    0.07000000
   21.68916512  104.48100281    0.09000000    0.07000000
   21.69499969  104.48100281    0.09000000    0.07000000
   21.69916534  115.04199982    0.09000000    0.07000000
   21.70250130  106.08999634    0.09000000    0.07000000
   21.70555687  134.40299988    0.09000000    0.07000000
   21.70888901  114.76999664    0.09000000    0.07000000
   21.71222305  111.46099854    0.09000000    0.07000000
   21.71527863  108.17700195    0.09000000    0.07000000
   21.71805573  108.26899719    0.09000000    0.07000000
   21.71888924  114.66400146    0.09000000    0.07000000
   21.72222328   94.88400269    0.09000000    0.07000000
   21.72555542  106.14399719    0.09000000    0.07000000
   21.72861099  116.90699768    0.09000000    0.07000000
   21.73194504  113.44799805    0.09000000    0.07000000
   21.73805618  113.44799805    0.09000000    0.07000000
   21.74194527  105.15899658    0.09000000    0.07000000
   21.74527740  109.18499756    0.09000000    0.07000000
   21.74861145  111.86399841    0.09000000    0.07000000
   21.75138855  109.98000336    0.09000000    0.07000000
   21.75194359  114.88099670    0.09000000    0.07000000
   21.75527763  112.54000092    0.09000000    0.07000000
   21.75861168  113.72599792    0.09000000    0.07000000
   21.76166725  107.85700226    0.09000000    0.07000000
   21.76499939  106.48799896    0.09000000    0.07000000
   21.76805496  105.22599792    0.09000000    0.07000000
   21.77138901  108.24800110    0.09000000    0.07000000
   21.77472115  114.78900146    0.09000000    0.07000000
   21.78083229  114.78900146    0.09000000    0.07000000
   21.78499985  113.00000000    0.09000000    0.07000000
   21.78805542  115.67500305    0.09000000    0.07000000
   21.79138756  107.83699799    0.09000000    0.07000000
   21.79472160  105.34200287    0.09000000    0.07000000
   21.79777718  114.47100067    0.09000000    0.07000000
   21.80111122  101.72000122    0.09000000    0.07000000
   21.80444336  113.74900055    0.09000000    0.07000000
   21.80749893  105.67099762    0.09000000    0.07000000
   21.81083298  119.95600128    0.09000000    0.07000000
   21.81388855  111.70999908    0.09000000    0.07000000
   21.81722260  112.01599884    0.09000000    0.07000000
   21.81805611  136.64999390    0.09000000    0.07000000
   21.82361221  136.64999390    0.09000000    0.07000000
   21.82777786  122.28800201    0.09000000    0.07000000
   21.83111191  110.36499786    0.09000000    0.07000000
   21.83416748  109.32199860    0.09000000    0.07000000
   21.83750153  107.20500183    0.09000000    0.07000000
   21.84083366  101.73200226    0.09000000    0.07000000
   21.84388924  105.16200256    0.09000000    0.07000000
   21.84722328  128.18699646    0.09000000    0.07000000
   21.85055542  116.52899933    0.09000000    0.07000000
   21.85138893  108.44999695    0.09000000    0.07000000
   21.85388947  106.22499847    0.09000000    0.07000000
   21.85722351  115.94000244    0.09000000    0.07000000
   21.86055565  108.32599640    0.09000000    0.07000000
   21.86638832  108.32599640    0.09000000    0.07000000
   21.87055588  116.05300140    0.09000000    0.07000000
   21.87388992  123.77799988    0.09000000    0.07000000
   21.87694550  123.49099731    0.09000000    0.07000000
   21.88027763  116.26399994    0.09000000    0.07000000
   21.88361168  118.51699829    0.09000000    0.07000000
   21.88472176  138.06199646    0.09000000    0.07000000
   21.88694382  117.55699921    0.09000000    0.07000000
   21.89027786  128.34700012    0.09000000    0.07000000
   21.89361191  123.59100342    0.09000000    0.07000000
   21.89666748  117.37999725    0.09000000    0.07000000
   21.89999962  107.50000000    0.09000000    0.07000000
   21.90333366  122.80500031    0.09000000    0.07000000
   21.90944481  122.80500031    0.09000000    0.07000000
   21.91361046  102.33200073    0.09000000    0.07000000
   21.91666603  114.80100250    0.09000000    0.07000000
   21.91805458  121.37300110    0.09000000    0.07000000
   21.92027664  123.53800201    0.09000000    0.07000000
   21.92361069  141.00199890    0.09000000    0.07000000
   21.92694473  134.31599426    0.09000000    0.07000000
   21.93000031  125.22000122    0.09000000    0.07000000
   21.93333244  132.10000610    0.09000000    0.07000000
   21.93666649  140.60899353    0.09000000    0.07000000
   21.93972206  129.59300232    0.09000000    0.07000000
   21.94305420  134.63499451    0.09000000    0.07000000
   21.94610977  122.96700287    0.09000000    0.07000000
   21.95222282  122.96700287    0.09000000    0.07000000
   21.95639038  115.26000214    0.09000000    0.07000000
   21.95944595  118.44300079    0.09000000    0.07000000
   21.96277809  127.64600372    0.09000000    0.07000000
   21.96611214  125.35700226    0.09000000    0.07000000
   21.96916771  121.59400177    0.09000000    0.07000000
   21.97249985  125.46399689    0.09000000    0.07000000
   21.97555542  123.90399933    0.09000000    0.07000000
   21.97888947  122.58499908    0.09000000    0.07000000
   21.98222351  113.93599701    0.09000000    0.07000000
   21.98472214  126.48400116    0.09000000    0.07000000
   22.00527763  126.48400116    0.09000000    0.07000000
   22.00972176  123.76699829    0.09000000    0.07000000
   22.01277733  119.86399841    0.09000000    0.07000000
   22.01611137  115.08499908    0.09000000    0.07000000
   22.01805496  111.78399658    0.09000000    0.07000000
   22.02027702  112.44000244    0.09000000    0.07000000
   22.02388954  125.11499786    0.09000000    0.07000000
   22.02722168  126.69899750    0.09000000    0.07000000
   22.03055573  127.72499847    0.09000000    0.07000000
   22.03472137  126.74299622    0.09000000    0.07000000
   22.03833199  128.58099365    0.09000000    0.07000000
   22.04194450  131.71200562    0.09000000    0.07000000
   22.04916573  131.71200562    0.09000000    0.07000000
   22.05416679  149.35499573    0.09000000    0.07000000
   22.05833244  140.21600342    0.09000000    0.07000000
   22.06166649  133.67500305    0.09000000    0.07000000
   22.06611061  129.12399292    0.09000000    0.07000000
   22.06944466  130.89300537    0.09000000    0.07000000
   22.07250023  134.06799316    0.09000000    0.07000000
   22.07583427  132.32099915    0.09000000    0.07000000
   22.07916832  123.04399872    0.09000000    0.07000000
   22.08222389  120.12799835    0.09000000    0.07000000
   22.08472252  128.23899841    0.09000000    0.07000000
   22.08611107  118.91100311    0.09000000    0.07000000
   22.09111214  118.91100311    0.09000000    0.07000000
   22.09527779  140.44900513    0.09000000    0.07000000
   22.09861183  131.14900208    0.09000000    0.07000000
   22.10194397  133.56199646    0.09000000    0.07000000
   22.10527802  113.01999664    0.09000000    0.07000000
   22.10861206  129.28999329    0.09000000    0.07000000
   22.11194420  136.60099792    0.09000000    0.07000000
   22.11555672  145.89300537    0.09000000    0.07000000
   22.11805534  146.00700378    0.09000000    0.07000000
   22.11916733  147.10899353    0.09000000    0.07000000
   22.12249947  135.02299500    0.09000000    0.07000000
   22.12555504  125.12100220    0.09000000    0.07000000
   22.12888908  139.53799438    0.09000000    0.07000000
   22.13388824  139.53799438    0.09000000    0.07000000
   22.13833237  142.69999695    0.09000000    0.07000000
   22.14166641  145.14100647    0.09000000    0.07000000
   22.14500046  138.42700195    0.09000000    0.07000000
   22.14916611  131.42900085    0.09000000    0.07000000
   22.15138817  136.32200623    0.09000000    0.07000000
   22.15277672  131.86599731    0.09000000    0.07000000
   22.15638924  143.67500305    0.09000000    0.07000000
   22.15972137  138.92900085    0.09000000    0.07000000
   22.16305542  143.42500305    0.09000000    0.07000000
   22.16611099  127.50800323    0.09000000    0.07000000
   22.16972160  127.25000000    0.09000000    0.07000000
   22.17305565  131.88299561    0.09000000    0.07000000
   22.17722130  131.88299561    0.09000000    0.07000000
   22.18138885  139.49400330    0.09000000    0.07000000
   22.18499947  136.52900696    0.09000000    0.07000000
   22.18555450  141.47700500    0.09000000    0.07000000
   22.18888855  122.23500061    0.09000000    0.07000000
   22.19222069  136.99200439    0.09000000    0.07000000
   22.19555473  150.57000732    0.09000000    0.07000000
   22.19888878  139.12100220    0.09000000    0.07000000
   22.20222282  149.36300659    0.09000000    0.07000000
   22.20555687  160.33799744    0.09000000    0.07000000
   22.20888901  149.83099365    0.09000000    0.07000000
   22.21194458  141.67999268    0.09000000    0.07000000
   22.21527863  147.36000061    0.09000000    0.07000000
   22.22027779  147.36000061    0.09000000    0.07000000
   22.22444534  198.03599548    0.09000000    0.07000000
   22.22777748  179.19999695    0.09000000    0.07000000
   22.23083305  201.78599548    0.09000000    0.07000000
   22.23444557  285.26901245    0.09000000    0.07000000
   22.23777771  371.46398926    0.09000000    0.07000000
   22.23999977  430.12100220    0.09000000    0.07000000
   22.24111176  330.16101074    0.09000000    0.07000000
   22.24250031  143.94200134    0.09000000    0.07000000
   22.24277878  147.36000061    0.09000000    0.07000000
   22.24277878  198.03599548    0.09000000    0.07000000
   22.24305534  179.19999695    0.09000000    0.07000000
   22.24333382  201.78599548    0.09000000    0.07000000
   22.24333382  285.26901245    0.09000000    0.07000000
   22.24361229  371.46398926    0.09000000    0.07000000
   22.24388885  160.33799744    0.09000000    0.07000000
   22.24388885  149.83099365    0.09000000    0.07000000
   22.24416733  141.67999268    0.09000000    0.07000000
   22.24472237   96.84570313    0.09000000    0.07000000
   22.24805641  144.24699402    0.09000000    0.07000000
   22.25138855   -1.00000000    0.09000000    0.07000000
   22.25472260   -1.00000000    0.09000000    0.07000000
   22.25805473   -1.00000000    0.09000000    0.07000000
   22.26749992   -1.00000000    0.09000000    0.07000000
   22.27083397   -1.00000000    0.09000000    0.07000000
   22.27416611   -1.00000000    0.09000000    0.07000000
   22.27805519   -1.00000000    0.09000000    0.07000000
   22.28138924   -1.00000000    0.09000000    0.07000000
   22.28444481   -1.00000000    0.09000000    0.07000000
   22.28777695   -1.00000000    0.09000000    0.07000000
   22.29111099   -1.00000000    0.09000000    0.07000000
   22.29472160   -1.00000000    0.09000000    0.07000000
   22.29805565   -1.00000000    0.09000000    0.07000000
   22.30111122   -1.00000000    0.09000000    0.07000000
   22.31027794   -1.00000000    0.09000000    0.07000000
   22.31361008   -1.00000000    0.09000000    0.07000000
   22.31666756   -1.00000000    0.09000000    0.07000000
   22.32000160   -1.00000000    0.09000000    0.07000000
   22.32333374   -1.00000000    0.09000000    0.07000000
   22.32638931   -1.00000000    0.09000000    0.07000000
   22.32972336   -1.00000000    0.09000000    0.07000000
   22.33305550   -1.00000000    0.09000000    0.07000000
   22.33611107   -1.00000000    0.09000000    0.07000000
   22.33944511   -1.00000000    0.09000000    0.07000000
   22.34277916   -1.00000000    0.09000000    0.07000000
   22.35333443   -1.00000000    0.09000000    0.07000000
   22.35666656   -1.00000000    0.09000000    0.07000000
   22.36000061   -1.00000000    0.09000000    0.07000000
   22.36305618   -1.00000000    0.09000000    0.07000000
   22.36638832   -1.00000000    0.09000000    0.07000000
   22.36972237   -1.00000000    0.09000000    0.07000000
   22.37277794   -1.00000000    0.09000000    0.07000000
   22.37611198   -1.00000000    0.09000000    0.07000000
   22.37944412   -1.00000000    0.09000000    0.07000000
   22.38277817   -1.00000000    0.09000000    0.07000000
   22.38583374   -1.00000000    0.09000000    0.07000000
   22.39611053   -1.00000000    0.09000000    0.07000000
   22.39944458   -1.00000000    0.09000000    0.07000000
   22.40277672   -1.00000000    0.09000000    0.07000000
   22.40611076   -1.00000000    0.09000000    0.07000000
   22.40944481   -1.00000000    0.09000000    0.07000000
   22.41305542   -1.00000000    0.09000000    0.07000000
   22.41638756   -1.00000000    0.09000000    0.07000000
   22.41972160   -1.00000000    0.09000000    0.07000000
   22.42305565   -1.00000000    0.09000000    0.07000000
   22.42638779   -1.00000000    0.09000000    0.07000000
   22.42972183   -1.00000000    0.09000000    0.07000000
   22.43888855   -1.00000000    0.09000000    0.07000000
   22.44249916   -1.00000000    0.09000000    0.07000000
   22.44610977   -1.00000000    0.09000000    0.07000000
   22.44944382   -1.00000000    0.09000000    0.07000000
   22.45277786   -1.00000000    0.09000000    0.07000000
   22.45639038   -1.00000000    0.09000000    0.07000000
   22.45972252   -1.00000000    0.09000000    0.07000000
   22.46305656   -1.00000000    0.09000000    0.07000000
   22.46638870   -1.00000000    0.09000000    0.07000000
   22.46972275   -1.00000000    0.09000000    0.07000000
   22.47305679   -1.00000000    0.09000000    0.07000000
   22.48194504   -1.00000000    0.09000000    0.07000000
   22.48527718   -1.00000000    0.09000000    0.07000000
   22.48861122   -1.00000000    0.09000000    0.07000000
   22.49194527   -1.00000000    0.09000000    0.07000000
   22.49527740   -1.00000000    0.09000000    0.07000000
   22.49861145   -1.00000000    0.09000000    0.07000000
   22.50194359   -1.00000000    0.09000000    0.07000000
   22.50499916   -1.00000000    0.09000000    0.07000000
   22.50833321   -1.00000000    0.09000000    0.07000000
   22.51194382   -1.00000000    0.09000000    0.07000000
   22.51527786   -1.00000000    0.09000000    0.07000000
   22.52472115   -1.00000000    0.09000000    0.07000000
   22.52805519   -1.00000000    0.09000000    0.07000000
   22.53138924   -1.00000000    0.09000000    0.07000000
   22.53472137   -1.00000000    0.09000000    0.07000000
   22.53777695   -1.00000000    0.09000000    0.07000000
   22.54111099   -1.00000000    0.09000000    0.07000000
   22.54472160   -1.00000000    0.09000000    0.07000000
   22.54805565   -1.00000000    0.09000000    0.07000000
   22.55138779   -1.00000000    0.09000000    0.07000000
   22.55472183   -1.00000000    0.09000000    0.07000000
   22.55805397   -1.00000000    0.09000000    0.07000000
   22.56777954   -1.00000000    0.09000000    0.07000000
   22.57111168   -1.00000000    0.09000000    0.07000000
   22.57444572   -1.00000000    0.09000000    0.07000000
   22.57805634   -1.00000000    0.09000000    0.07000000
   22.58139038   -1.00000000    0.09000000    0.07000000
   22.58472252   -1.00000000    0.09000000    0.07000000
   22.58805656   -1.00000000    0.09000000    0.07000000
   22.59138870   -1.00000000    0.09000000    0.07000000
   22.59472275   -1.00000000    0.09000000    0.07000000
   22.59805679   -1.00000000    0.09000000    0.07000000
   22.60138893   -1.00000000    0.09000000    0.07000000
   22.61055565   -1.00000000    0.09000000    0.07000000
   22.61388969   -1.00000000    0.09000000    0.07000000
   22.61722183   -1.00000000    0.09000000    0.07000000
   22.62055588   -1.00000000    0.09000000    0.07000000
   22.62388992   -1.00000000    0.09000000    0.07000000
   22.62722206   -1.00000000    0.09000000    0.07000000
   22.63055611   -1.00000000    0.09000000    0.07000000
   22.63388824   -1.00000000    0.09000000    0.07000000
   22.63722229   -1.00000000    0.09000000    0.07000000
   22.64055634   -1.00000000    0.09000000    0.07000000
   22.64444351   -1.00000000    0.09000000    0.07000000
   22.65361023   -1.00000000    0.09000000    0.07000000
   22.65694427   -1.00000000    0.09000000    0.07000000
   22.66027832   -1.00000000    0.09000000    0.07000000
   22.66361046   -1.00000000    0.09000000    0.07000000
   22.66694450   -1.00000000    0.09000000    0.07000000
   22.67000008   -1.00000000    0.09000000    0.07000000
   22.67361069   -1.00000000    0.09000000    0.07000000
   22.67722130   -1.00000000    0.09000000    0.07000000
