    HOUR (UT)   FLARE FACTOR    SKY TESTER    SUN TESTER
   12.36111164   -1.00000000   -1.00000000   -1.00000000
   12.38638878  190.79499817    0.00000000    0.00000000
   12.38944435  196.62399292    0.00000000    0.00000000
   12.39277744  199.66099548    0.00000000    0.00000000
   12.39611053  194.62399292    0.00000000    0.00000000
   12.39916611  192.09599304    0.00000000    0.00000000
   12.40249920  199.02499390    0.00000000    0.00000000
   12.40666676  199.02499390    0.00000000    0.00000000
   12.41083336  191.40499878    0.00000000    0.00000000
   12.41416645  189.43200684    0.00000000    0.00000000
   12.41750050  187.76800537    0.00000000    0.00000000
   12.41944504  193.66900635    0.00000000    0.00000000
   12.42194462  193.76100159    0.00000000    0.00000000
   12.42555618  196.09199524    0.00000000    0.00000000
   12.42944431  195.26499939    0.00000000    0.00000000
   12.43333340  193.77900696    0.00000000    0.00000000
   12.43722248  191.85400391    0.00000000    0.00000000
   12.44111156  198.84399414    0.00000000    0.00000000
   12.44499969  189.83099365    0.00000000    0.00000000
   12.44999981  189.83099365    0.00000000    0.00000000
   12.45472240  181.58299255    0.00000000    0.00000000
   12.45861053  177.20700073    0.00000000    0.00000000
   12.46194458  180.07699585    0.00000000    0.00000000
   12.46527767  169.30499268    0.00000000    0.00000000
   12.46861076  174.47700500    0.00000000    0.00000000
   12.47166634  172.11900330    0.00000000    0.00000000
   12.47499943  172.28199768    0.00000000    0.00000000
   12.47805500  175.43299866    0.00000000    0.00000000
   12.48138809  175.61900330    0.00000000    0.00000000
   12.48472214  175.55599976    0.00000000    0.00000000
   12.48611164  173.53700256    0.00000000    0.00000000
   12.48833370  178.13600159    0.00000000    0.00000000
   12.49250031  178.13600159    0.00000000    0.00000000
   12.49666691  178.35400391    0.00000000    0.00000000
   12.49972248  171.69700623    0.00000000    0.00000000
   12.50305557  182.84599304    0.00000000    0.00000000
   12.50638866  165.18299866    0.00000000    0.00000000
   12.50944424  165.78199768    0.00000000    0.00000000
   12.51277733  171.92900085    0.00000000    0.00000000
   12.51611137  171.55000305    0.00000000    0.00000000
   12.51916599  167.46699524    0.00000000    0.00000000
   12.51972198  169.09199524    0.00000000    0.00000000
   12.52305508  174.63000488    0.00000000    0.00000000
   12.52611065  173.85200500    0.00000000    0.00000000
   12.52944374  173.78399658    0.00000000    0.00000000
   12.53527832  173.78399658    0.00000000    0.00000000
   12.53944492  172.66799927    0.00000000    0.00000000
   12.54277802  178.55999756    0.00000000    0.00000000
   12.54583359  167.26499939    0.00000000    0.00000000
   12.54916668  167.32600403    0.00000000    0.00000000
   12.55222225  175.32400513    0.00000000    0.00000000
   12.55305576  166.66700745    0.00000000    0.00000000
   12.55611134  178.04100037    0.00000000    0.00000000
   12.55916691  175.20399475    0.00000000    0.00000000
   12.56250000  177.84399414    0.00000000    0.00000000
   12.56555557  169.06900024    0.00000000    0.00000000
   12.56888866  174.22999573    0.00000000    0.00000000
   12.57222176  173.24600220    0.00000000    0.00000000
   12.57805538  173.24600220    0.00000000    0.00000000
   12.58222198  174.37500000    0.00000000    0.00000000
   12.58555508  172.13099670    0.00000000    0.00000000
   12.58638859  168.24899292    0.00000000    0.00000000
   12.58916664  173.08200073    0.00000000    0.00000000
   12.59222221  175.31900024    0.00000000    0.00000000
   12.59555531  168.73300171    0.00000000    0.00000000
   12.59888840  172.42300415    0.00000000    0.00000000
   12.60194492  172.27099609    0.00000000    0.00000000
   12.60527802  167.63499451    0.00000000    0.00000000
   12.60833359  158.49400330    0.00000000    0.00000000
   12.61166668  162.25399780    0.00000000    0.00000000
   12.61500072  165.07099915    0.00000000    0.00000000
   12.62111092  165.07099915    0.00000000    0.00000000
   12.62500000  164.85099792    0.00000000    0.00000000
   12.62833309  156.90299988    0.00000000    0.00000000
   12.63166714  161.41200256    0.00000000    0.00000000
   12.63472176  159.42799377    0.00000000    0.00000000
   12.63805580  152.35800171    0.00000000    0.00000000
   12.64138889  157.74400330    0.00000000    0.00000000
   12.64444447  151.23199463    0.00000000    0.00000000
   12.64777756  152.69000244    0.00000000    0.00000000
   12.65083313  160.73800659    0.00000000    0.00000000
   12.65305519  158.13499451    0.00000000    0.00000000
   12.65472221  159.79100037    0.00000000    0.00000000
   12.65777779  165.63900757    0.00000000    0.00000000
   12.66388893  165.63900757    0.00000000    0.00000000
   12.66805553  153.33299255    0.00000000    0.00000000
   12.67111111  156.07499695    0.00000000    0.00000000
   12.67444515  152.63699341    0.00000000    0.00000000
   12.67777824  155.42700195    0.00000000    0.00000000
   12.68083382  161.85200500    0.00000000    0.00000000
   12.68416691  162.08399963    0.00000000    0.00000000
   12.68638897  160.54100037    0.00000000    0.00000000
   12.68777752  162.67500305    0.00000000    0.00000000
   12.69083309  157.15699768    0.00000000    0.00000000
   12.69416714  154.77699280    0.00000000    0.00000000
   12.69750023  162.57600403    0.00000000    0.00000000
   12.70055580  157.17500305    0.00000000    0.00000000
   12.70666695  157.17500305    0.00000000    0.00000000
   12.71083355  159.00900269    0.00000000    0.00000000
   12.71416664  161.87800598    0.00000000    0.00000000
   12.71722221  156.80599976    0.00000000    0.00000000
   12.71972179  155.86900330    0.00000000    0.00000000
   12.72111034  159.18099976    0.00000000    0.00000000
   12.72416592  160.40699768    0.00000000    0.00000000
   12.72749996  158.84899902    0.00000000    0.00000000
   12.73083305  152.40600586    0.00000000    0.00000000
   12.73388958  152.65100098    0.00000000    0.00000000
   12.73722267  151.75399780    0.00000000    0.00000000
   12.74055576  156.97599792    0.00000000    0.00000000
   12.74361134  153.23699951    0.00000000    0.00000000
   12.74944496  153.23699951    0.00000000    0.00000000
   12.75361156  149.73399353    0.00000000    0.00000000
   12.75694466  159.51300049    0.00000000    0.00000000
   12.76055527  150.29499817    0.00000000    0.00000000
   12.76361084  156.05999756    0.00000000    0.00000000
   12.76694393  151.37300110    0.00000000    0.00000000
   12.76999950  147.22099304    0.00000000    0.00000000
   12.77333355  155.87100220    0.00000000    0.00000000
   12.77666664  155.82899475    0.00000000    0.00000000
   12.77972221  150.27999878    0.00000000    0.00000000
   12.78305531  142.15499878    0.00000000    0.00000000
   12.78611183  152.39399719    0.00000000    0.00000000
   12.78666687  143.30700684    0.00000000    0.00000000
   12.79250050  143.30700684    0.00000000    0.00000000
   12.79638958  143.14199829    0.00000000    0.00000000
   12.79972267  143.17199707    0.00000000    0.00000000
   12.80305576  146.56700134    0.00000000    0.00000000
   12.80611134  149.14100647    0.00000000    0.00000000
   12.80944443  145.27699280    0.00000000    0.00000000
   12.81277752  149.50500488    0.00000000    0.00000000
   12.81583309  140.90899658    0.00000000    0.00000000
   12.81916618  141.71899414    0.00000000    0.00000000
   12.81999969  151.39100647    0.00000000    0.00000000
   12.82277775  152.70700073    0.00000000    0.00000000
   12.82611084  142.38900757    0.00000000    0.00000000
   12.82916641  142.94700623    0.00000000    0.00000000
   12.83527756  142.94700623    0.00000000    0.00000000
   12.83944416  144.32200623    0.00000000    0.00000000
   12.84249973  147.01600647    0.00000000    0.00000000
   12.84583282  141.66999817    0.00000000    0.00000000
   12.84916592  139.31199646    0.00000000    0.00000000
   12.85222244  146.67999268    0.00000000    0.00000000
   12.85333347  144.30700684    0.00000000    0.00000000
   12.85583401  137.55200195    0.00000000    0.00000000
   12.85916710  137.30599976    0.00000000    0.00000000
   12.86222267  142.00799561    0.00000000    0.00000000
   12.86555576  132.99899292    0.00000000    0.00000000
   12.86861134  137.35899353    0.00000000    0.00000000
   12.87194443  136.83200073    0.00000000    0.00000000
   12.87805557  136.83200073    0.00000000    0.00000000
   12.88222218  139.50500488    0.00000000    0.00000000
   12.88555527  148.12199402    0.00000000    0.00000000
   12.88666630  143.51300049    0.00000000    0.00000000
   12.88916683  144.93600464    0.00000000    0.00000000
   12.89249992  140.35200500    0.00000000    0.00000000
   12.89555550  143.99600220    0.00000000    0.00000000
   12.89888859  143.81599426    0.00000000    0.00000000
   12.90222168  149.56599426    0.00000000    0.00000000
   12.90527725  135.23599243    0.00000000    0.00000000
   12.90861034  141.82299805    0.00000000    0.00000000
   12.91166592  143.16200256    0.00000000    0.00000000
   12.91499996  140.88699341    0.00000000    0.00000000
   12.92083359  140.88699341    0.00000000    0.00000000
   12.92500019  137.91099548    0.00000000    0.00000000
   12.92833328  146.01199341    0.00000000    0.00000000
   12.93138885  146.10200500    0.00000000    0.00000000
   12.93472195  127.89600372    0.00000000    0.00000000
   12.93805599  139.97999573    0.00000000    0.00000000
   12.94111156  136.55200195    0.00000000    0.00000000
   12.94444466  135.52900696    0.00000000    0.00000000
   12.94777775  133.25500488    0.00000000    0.00000000
   12.95083332  140.04299927    0.00000000    0.00000000
   12.95333290  131.97599792    0.00000000    0.00000000
   12.95444393  127.29599762    0.00000000    0.00000000
   12.95777798  141.19099426    0.00000000    0.00000000
   12.96388912  141.19099426    0.00000000    0.00000000
   12.96777725   98.14270020    0.00000000    0.00000000
   12.97111034  126.94100189    0.00000000    0.00000000
   12.97444439  136.26499939    0.00000000    0.00000000
   12.97749996  132.64399719    0.00000000    0.00000000
   12.98083305  129.96099854    0.00000000    0.00000000
   12.98416710  134.69999695    0.00000000    0.00000000
   12.98666668  134.68899536    0.00000000    0.00000000
   12.98777771  138.20199585    0.00000000    0.00000000
   12.99111176  134.15100098    0.00000000    0.00000000
   12.99416733  136.87600708    0.00000000    0.00000000
   12.99750042  135.40199280    0.00000000    0.00000000
   13.00083351  137.01600647    0.00000000    0.00000000
   13.00666714  137.01600647    0.00000000    0.00000000
   13.01083374  125.16400146    0.00000000    0.00000000
   13.01388931  132.54100037    0.00000000    0.00000000
   13.01722240  142.03100586    0.00000000    0.00000000
   13.02027798  136.04200745    0.00000000    0.00000000
   13.02083302  137.46200562    0.00000000    0.00000000
   13.02416611  143.26699829    0.00000000    0.00000000
   13.02722168  141.91799927    0.00000000    0.00000000
   13.03055573  142.18200684    0.00000000    0.00000000
   13.03388977  138.49899292    0.00000000    0.00000000
   13.03694534  138.13200378    0.00000000    0.00000000
   13.04027843  140.03900146    0.00000000    0.00000000
   13.04333401  142.42399597    0.00000000    0.00000000
   13.04944515  142.42399597    0.00000000    0.00000000
   13.05361176  137.80499268    0.00000000    0.00000000
   13.05694485  139.10200500    0.00000000    0.00000000
   13.06000042  136.02299500    0.00000000    0.00000000
   13.06333351  141.06300354    0.00000000    0.00000000
   13.06666660  144.51600647    0.00000000    0.00000000
   13.06972218  137.47200012    0.00000000    0.00000000
   13.07305527  140.29899597    0.00000000    0.00000000
   13.07638836  134.15899658    0.00000000    0.00000000
   13.07944393  138.30999756    0.00000000    0.00000000
   13.08277798  145.46200562    0.00000000    0.00000000
   13.08583260  132.82899475    0.00000000    0.00000000
   13.08694458  144.67700195    0.00000000    0.00000000
   13.09222221  144.67700195    0.00000000    0.00000000
   13.09638882  141.33299255    0.98000002    2.39000010
   13.09972191  141.26300049    0.98000002    2.39000010
   13.10305595  142.53999329    0.98000002    2.39000010
   13.10611153  151.48800659    0.98000002    2.39000010
   13.10944462  139.61199951    0.98000002    2.39000010
   13.11250019  137.77499390    0.98000002    2.39000010
   13.11583328  137.15400696    0.98000002    2.39000010
   13.11916637  136.98399353    0.98000002    2.39000010
   13.12027836  142.42799377    0.98000002    2.39000010
   13.12250042  146.93800354    0.98000002    2.39000010
   13.12583351  141.57699585    0.98000002    2.39000010
   13.12916660  141.15100098    0.98000002    2.39000010
   13.13527775  141.15100098    0.98000002    2.39000010
   13.13944435  139.80499268    0.98000002    2.39000010
   13.14249992  142.14100647    0.98000002    2.39000010
   13.14583302  149.42100525    0.98000002    2.39000010
   13.14888859  138.23899841    0.98000002    2.39000010
   13.15222168  136.49600220    0.98000002    2.39000010
   13.15361118  141.70100403    0.98000002    2.39000010
   13.15583324  145.96699524    0.98000002    2.39000010
   13.15916634  144.76499939    0.98000002    2.39000010
   13.16222191  139.16200256    0.98000002    2.39000010
   13.16555500  139.67900085    0.98000002    2.39000010
   13.16888905  151.56500244    0.98000002    2.39000010
   13.17194462  147.28300476    0.98000002    2.39000010
   13.17805576  147.28300476    0.98000002    2.39000010
   13.18222237  146.34100342    0.98000002    2.39000010
   13.18527794  149.30499268    0.98000002    2.39000010
   13.18694496  152.78999329    0.98000002    2.39000010
   13.18888855  141.08000183    0.98000002    2.39000010
   13.19222260  148.97399902    0.98000002    2.39000010
   13.19527817  137.31599426    0.98000002    2.39000010
   13.19861126  145.88800049    0.98000002    2.39000010
   13.20194435  143.01400757    0.98000002    2.39000010
   13.20499992  144.17300415    0.98000002    2.39000010
   13.20833302  139.45300293    0.98000002    2.39000010
   13.21166611  139.89700317    0.98000002    2.39000010
   13.21472168  149.52799988    0.98000002    2.39000010
   13.22083282  149.52799988    0.98000002    2.39000010
   13.22499943  150.90299988    0.98000002    2.39000010
   13.22833252  145.29299927    0.98000002    2.39000010
   13.23138809  141.55099487    0.98000002    2.39000010
   13.23472214  142.38800049    0.98000002    2.39000010
   13.23805618  147.03599548    0.98000002    2.39000010
   13.24111176  141.85499573    0.98000002    2.39000010
   13.24444485  145.11099243    0.98000002    2.39000010
   13.24750042  140.20599365    0.98000002    2.39000010
   13.25083351  149.58900452    0.98000002    2.39000010
   13.25361156  139.20300293    0.98000002    2.39000010
   13.25444412  145.99499512    0.98000002    2.39000010
   13.25777817  142.92500305    0.98000002    2.39000010
   13.26361084  142.92500305    0.98000002    2.39000010
   13.26777744  138.54200745    0.98000002    2.39000010
   13.27111053  137.20700073    0.98000002    2.39000010
   13.27416611  142.91200256    0.98000002    2.39000010
   13.27750015  137.56300354    0.98000002    2.39000010
   13.28083324  131.86000061    0.98000002    2.39000010
   13.28416729  139.11999512    0.98000002    2.39000010
   13.28694534  146.81300354    0.98000002    2.39000010
   13.28750038  142.44700623    0.98000002    2.39000010
   13.29083347  137.16999817    0.98000002    2.39000010
   13.29388905  136.39999390    0.98000002    2.39000010
   13.29722309  138.78500366    0.98000002    2.39000010
   13.30055618  143.02900696    0.98000002    2.39000010
   13.30666733  143.02900696    0.98000002    2.39000010
   13.31083393  136.76199341    0.98000002    2.39000010
   13.31388950  140.58799744    0.98000002    2.39000010
   13.31722260  140.42100525    0.98000002    2.39000010
   13.32027817  140.12800598    0.98000002    2.39000010
   13.32083321  143.03100586    0.98000002    2.39000010
   13.32416630  138.42199707    0.98000002    2.39000010
   13.32722187  147.17599487    0.98000002    2.39000010
   13.33055592  141.00799561    0.98000002    2.39000010
   13.33388901  147.32899475    0.98000002    2.39000010
   13.33722210  147.31900024    0.98000002    2.39000010
   13.34055519  196.90800476    0.98000002    2.39000010
   13.34361076  187.49099731    0.98000002    2.39000010
   13.34944439  187.49099731    0.98000002    2.39000010
   13.35361195  199.78999329    0.98000002    2.39000010
   13.35666752  166.33700562    0.98000002    2.39000010
   13.36000061  182.97300720    0.98000002    2.39000010
   13.36333370  183.44299316    0.98000002    2.39000010
   13.36638927  190.69900513    0.98000002    2.39000010
   13.36972237  156.76400757    0.98000002    2.39000010
   13.37277794  181.52200317    0.98000002    2.39000010
   13.37611103  217.61199951    0.98000002    2.39000010
   13.37944412  191.63999939    0.98000002    2.39000010
   13.38249969  218.85299683    0.98000002    2.39000010
   13.38583279  173.91200256    0.98000002    2.39000010
   13.38694477  189.07499695    0.98000002    2.39000010
   13.40749931  189.07499695    0.98000002    2.39000010
   13.41166592  156.24299622    0.98000002    2.39000010
   13.41499996  160.31900024    0.98000002    2.39000010
   13.41805553  159.08900452    0.98000002    2.39000010
   13.42027855  156.75700378    0.98000002    2.39000010
   13.42166710  154.41700745    0.98000002    2.39000010
   13.42500019  182.94000244    0.98000002    2.39000010
   13.42833328  153.80499268    0.98000002    2.39000010
   13.43138885  165.07400513    0.98000002    2.39000010
   13.43472195  145.74000549    0.98000002    2.39000010
   13.43805599  143.94000244    0.98000002    2.39000010
   13.44111156  150.81599426    0.98000002    2.39000010
   13.44444466  154.07800293    0.98000002    2.39000010
   13.45027733  154.07800293    0.98000002    2.39000010
   13.45444393  146.85000610    0.98000002    2.39000010
   13.45777798  138.85699463    0.98000002    2.39000010
   13.46083355  140.87699890    0.98000002    2.39000010
   13.46416664  152.93499756    0.98000002    2.39000010
   13.46749973  141.09100342    0.98000002    2.39000010
   13.47055531  147.02999878    0.98000002    2.39000010
   13.47388840  137.42100525    0.98000002    2.39000010
   13.47694397  142.61399841    0.98000002    2.39000010
   13.48027706  141.47300720    0.98000002    2.39000010
   13.48361111  147.70700073    0.98000002    2.39000010
   13.48666668  142.22099304    0.98000002    2.39000010
   13.48722267  147.67500305    0.98000002    2.39000010
   13.49305534  147.67500305    0.98000002    2.39000010
   13.49722290  133.09599304    0.98000002    2.39000010
   13.50055599  136.46000671    0.98000002    2.39000010
   13.50388908  140.24200439    0.98000002    2.39000010
   13.50694466  137.06300354    0.98000002    2.39000010
   13.51027775  135.08000183    0.98000002    2.39000010
   13.51333332  138.53999329    0.98000002    2.39000010
   13.51666641  136.70799255    0.98000002    2.39000010
   13.51999950  136.83999634    0.98000002    2.39000010
   13.52055550  134.23300171    0.98000002    2.39000010
   13.52361107  134.31799316    0.98000002    2.39000010
   13.52694416  137.05299377    0.98000002    2.39000010
   13.52999973  133.75100708    0.98000002    2.39000010
   13.53611183  133.75100708    0.98000002    2.39000010
   13.54027843  153.55599976    0.98000002    2.39000010
   13.54333401  135.19099426    0.98000002    2.39000010
   13.54666710  139.33999634    0.98000002    2.39000010
   13.54972267  134.96000671    0.98000002    2.39000010
   13.55305576  131.82299805    0.98000002    2.39000010
   13.55388927  140.55599976    0.98000002    2.39000010
   13.55666733  130.21299744    0.98000002    2.39000010
   13.56000042  132.89999390    0.98000002    2.39000010
   13.56305599  130.10200500    0.98000002    2.39000010
   13.56638908  139.05299377    0.98000002    2.39000010
   13.56944466  131.48500061    0.98000002    2.39000010
   13.57277775  135.59100342    0.98000002    2.39000010
   13.57888889  135.59100342    0.98000002    2.39000010
   13.58305550  131.64700317    0.98000002    2.39000010
   13.58638859  144.52000427    0.98000002    2.39000010
   13.58722210  137.53700256    0.98000002    2.39000010
   13.59000015  134.53500366    0.98000002    2.39000010
   13.59333324  138.41000366    0.98000002    2.39000010
   13.59638882  130.08500671    0.98000002    2.39000010
   13.59972191  135.49299622    0.98000002    2.39000010
   13.60277843  129.47399902    0.98000002    2.39000010
   13.60611153  132.62100220    0.98000002    2.39000010
   13.60944462  130.08099365    0.98000002    2.39000010
   13.61277771  133.32000732    0.98000002    2.39000010
   13.61583328  141.59800720    0.98000002    2.39000010
   13.62166691  141.59800720    0.98000002    2.39000010
   13.62583351  136.19500732    0.98000002    2.39000010
   13.62916660  135.51600647    0.98000002    2.39000010
   13.63222218  131.63000488    0.98000002    2.39000010
   13.63555527  138.88400269    0.98000002    2.39000010
   13.63888836  129.79299927    0.98000002    2.39000010
   13.64194393  140.25900269    0.98000002    2.39000010
   13.64527798  132.97799683    0.98000002    2.39000010
   13.64861107  132.98800659    0.98000002    2.39000010
   13.65166664  145.48399353    0.98000002    2.39000010
   13.65388870  136.35899353    0.98000002    2.39000010
   13.65527725  133.80599976    0.98000002    2.39000010
   13.65861034  139.19700623    0.98000002    2.39000010
   13.66444397  139.19700623    0.98000002    2.39000010
   13.66861153  128.33099365    0.98000002    2.39000010
   13.67194462  128.05900574    0.98000002    2.39000010
   13.67527771  131.36199951    0.98000002    2.39000010
   13.67833328  129.64300537    0.98000002    2.39000010
   13.68166733  134.27699280    0.98000002    2.39000010
   13.68472195  121.61499786    0.98000002    2.39000010
   13.68722248  124.64499664    0.98000002    2.39000010
   13.68861103  127.91999817    0.98000002    2.39000010
   13.69194412  125.14700317    0.98000002    2.39000010
   13.69499969  126.65699768    0.98000002    2.39000010
   13.69833374  135.83399963    0.98000002    2.39000010
   13.70166683  128.19400024    0.98000002    2.39000010
   13.70749950  128.19400024    0.98000002    2.39000010
   13.71166611  129.76499939    0.98000002    2.39000010
   13.71472168  127.04000092    0.98000002    2.39000010
   13.71805477  124.33899689    0.98000002    2.39000010
   13.72055531  129.03199768    0.98000002    2.39000010
   13.72166634  131.11000061    0.98000002    2.39000010
   13.72499943  131.86999512    0.98000002    2.39000010
   13.72805500  135.68400574    0.98000002    2.39000010
   13.73138809  126.05699921    0.98000002    2.39000010
   13.73472214  139.08900452    0.98000002    2.39000010
   13.73777771  126.90599823    0.98000002    2.39000010
   13.74111176  129.45599365    0.98000002    2.39000010
   13.74444485  129.55599976    0.98000002    2.39000010
   13.75027752  129.55599976    0.98000002    2.39000010
   13.75444412  123.71299744    0.98000002    2.39000010
   13.75749969  134.25900269    0.98000002    2.39000010
   13.76083374  124.86299896    0.98000002    2.39000010
   13.76416683  124.60399628    0.98000002    2.39000010
   13.76722240  117.36799622    0.98000002    2.39000010
   13.77055550  128.91299438    0.98000002    2.39000010
   13.77388859  123.92199707    0.98000002    2.39000010
   13.77694416  133.00599670    0.98000002    2.39000010
   13.78027725  127.68699646    0.98000002    2.39000010
   13.78333378  119.92600250    0.98000002    2.39000010
   13.78666687  119.55300140    0.98000002    2.39000010
   13.78722286  125.28199768    0.98000002    2.39000010
   13.79305553  125.28199768    0.98000002    2.39000010
   13.79722309  117.89399719    0.98000002    2.39000010
   13.80055618  123.65299988    0.98000002    2.39000010
   13.80361176  127.87799835    0.98000002    2.39000010
   13.80694485  120.19499969    0.98000002    2.39000010
   13.81027794  129.10299683    0.98000002    2.39000010
   13.81333351  126.53500366    0.98000002    2.39000010
   13.81666660  127.28099823    0.98000002    2.39000010
   13.81999969  118.60299683    0.98000002    2.39000010
   13.82055569  129.35699463    0.98000002    2.39000010
   13.82361126  127.69599915    0.98000002    2.39000010
   13.82694435  127.15499878    0.98000002    2.39000010
   13.82999992  119.49500275    0.98000002    2.39000010
   13.83583260  119.49500275    0.98000002    2.39000010
   13.84000015  118.08799744    0.98000002    2.39000010
   13.84333324  122.93399811    0.98000002    2.39000010
   13.84666634  128.53799438    0.98000002    2.39000010
   13.84972191  120.79199982    0.98000002    2.39000010
   13.85305595  124.98200226    0.98000002    2.39000010
   13.85388947  126.84899902    0.98000002    2.39000010
   13.85666752  122.80799866    0.98000002    2.39000010
   13.86000061  120.33399963    0.98000002    2.39000010
   13.86305618  118.47000122    0.98000002    2.39000010
   13.86638927  124.80100250    0.98000002    2.39000010
   13.86972237  127.51699829    0.98000002    2.39000010
   13.87277794  126.11799622    0.98000002    2.39000010
   13.87888908  126.11799622    0.98000002    2.39000010
   13.88305569  123.53399658    0.98000002    2.39000010
   13.88611126  121.42900085    0.98000002    2.39000010
   13.88722229  128.77999878    0.98000002    2.39000010
   13.88972187  122.49099731    0.98000002    2.39000010
   13.89305496  126.90699768    0.98000002    2.39000010
   13.89611053  121.50900269    0.98000002    2.39000010
   13.89944458  120.15499878    0.98000002    2.39000010
   13.90277767  122.92299652    0.98000002    2.39000010
   13.90583324  118.73200226    0.98000002    2.39000010
   13.90916634  124.53900146    0.98000002    2.39000010
   13.91222191  127.32700348    0.98000002    2.39000010
   13.91555500  123.66000366    0.98000002    2.39000010
   13.92166710  123.66000366    0.98000002    2.39000010
   13.92583370  121.70600128    0.98000002    2.39000010
   13.92888927  125.14499664    0.98000002    2.39000010
   13.93222237  123.98799896    0.98000002    2.39000010
   13.93555546  125.45500183    0.98000002    2.39000010
   13.93861103  123.44000244    0.98000002    2.39000010
   13.94194412  119.06900024    0.98000002    2.39000010
   13.94499969  126.17800140    0.98000002    2.39000010
   13.94833374  118.98799896    0.98000002    2.39000010
   13.95166683  122.71299744    0.98000002    2.39000010
   13.95388889  118.91500092    0.98000002    2.39000010
   13.95527744  121.13300323    0.98000002    2.39000010
   13.95861053  119.94400024    0.98000002    2.39000010
   13.96444416  119.94400024    0.98000002    2.39000010
   13.96861076  117.74400330    0.98000002    2.39000010
   13.97194386  120.25099945    0.98000002    2.39000010
   13.97499943  122.84200287    0.98000002    2.39000010
   13.97833252  119.30699921    0.98000002    2.39000010
   13.98166656  117.03600311    0.98000002    2.39000010
   13.98472214  122.36299896    0.98000002    2.39000010
   13.98722267  123.57199860    0.98000002    2.39000010
   13.98833370  117.21099854    0.98000002    2.39000010
   13.99166679  120.05100250    0.98000002    2.39000010
   13.99499989  114.53199768    0.98000002    2.39000010
   13.99805546  114.07399750    0.98000002    2.39000010
   14.00138855  113.57700348    0.98000002    2.39000010
   14.00722218  113.57700348    0.98000002    2.39000010
   14.01138878  119.03600311    0.98000002    2.39000010
   14.01472187  118.00000000    0.98000002    2.39000010
   14.01777744  120.25900269    0.98000002    2.39000010
   14.02083302  120.20600128    0.98000002    2.39000010
   14.02138901  110.91799927    0.98000002    2.39000010
   14.02472210  119.43699646    0.98000002    2.39000010
   14.02777767  125.03299713    0.98000002    2.39000010
   14.03111076  122.33200073    0.98000002    2.39000010
   14.03444481  122.68000031    0.98000002    2.39000010
   14.03750038  115.83899689    0.98000002    2.39000010
   14.04083347  114.94300079    0.98000002    2.39000010
   14.04416752  120.06099701    0.98000002    2.39000010
   14.05027771  120.06099701    0.98000002    2.39000010
   14.05444431  117.10700226    0.98000002    2.39000010
   14.05749989  112.42700195    0.98000002    2.39000010
   14.06083393  113.13500214    0.98000002    2.39000010
   14.06388950  116.16300201    0.98000002    2.39000010
   14.06722260  115.52600098    0.98000002    2.39000010
   14.07055569  112.47000122    0.98000002    2.39000010
   14.07361126  117.48600006    0.98000002    2.39000010
   14.07694435  117.68699646    0.98000002    2.39000010
   14.08027744  118.39099884    0.98000002    2.39000010
   14.08333302  119.65799713    0.98000002    2.39000010
   14.08666611  116.11699677    0.98000002    2.39000010
   14.08749962  118.33399963    0.98000002    2.39000010
   14.09305477  118.33399963    0.98000002    2.39000010
   14.09722233  117.73799896    0.98000002    2.39000010
   14.10055637  121.36599731    0.98000002    2.39000010
   14.10361195  117.65100098    0.98000002    2.39000010
   14.10694504  116.33100128    0.98000002    2.39000010
   14.11027813  121.16200256    0.98000002    2.39000010
   14.11333370  114.49099731    0.98000002    2.39000010
   14.11666679  114.28700256    0.98000002    2.39000010
   14.11999989  117.50299835    0.98000002    2.39000010
   14.12083340  111.07800293    0.98000002    2.39000010
   14.12333393  113.89299774    0.98000002    2.39000010
   14.12666702  121.83000183    0.98000002    2.39000010
   14.12972260  119.82499695    0.98000002    2.39000010
   14.13583279  119.82499695    0.98000002    2.39000010
   14.14000034  112.88400269    0.98000002    2.39000010
   14.14333344  114.46700287    0.98000002    2.39000010
   14.14638901  115.45099640    0.98000002    2.39000010
   14.14972210  118.04000092    0.98000002    2.39000010
   14.15277767  112.05999756    0.98000002    2.39000010
   14.15416622  111.47399902    0.98000002    2.39000010
   14.15638828  115.90499878    0.98000002    2.39000010
   14.15972137  114.24500275    0.98000002    2.39000010
   14.16305542  112.50199890    0.98000002    2.39000010
   14.16611099  119.05400085    0.98000002    2.39000010
   14.16944504  118.91699982    0.98000002    2.39000010
   14.17277813  114.81500244    0.98000002    2.39000010
   14.17861176  114.81500244    0.98000002    2.39000010
   14.18277836  110.42500305    0.98000002    2.39000010
   14.18611145  109.52100372    0.98000002    2.39000010
   14.18750000  109.26699829    0.98000002    2.39000010
   14.18972206  108.66100311    0.98000002    2.39000010
   14.19305515  119.53900146    0.98000002    2.39000010
   14.19611073  108.24500275    0.98000002    2.39000010
   14.19944477  117.00099945    0.98000002    2.39000010
   14.20277786  104.50399780    0.98000002    2.39000010
   14.20583344  111.41300201    0.98000002    2.39000010
   14.20916653  107.23500061    0.98000002    2.39000010
   14.21249962  109.27600098    0.98000002    2.39000010
   14.21555519  107.07299805    0.98000002    2.39000010
   14.22166634  107.07299805    0.98000002    2.39000010
   14.22555542  104.05200195    0.98000002    2.39000010
   14.22888851  108.77100372    0.98000002    2.39000010
   14.23222160  112.48600006    0.98000002    2.39000010
   14.23527813  111.08699799    0.98000002    2.39000010
   14.23861122  100.77799988    0.98000002    2.39000010
   14.24194431  103.16699982    0.98000002    2.39000010
   14.24499989  102.00900269    0.98000002    2.39000010
   14.24833393  102.89800262    0.98000002    2.39000010
   14.25138855  106.36299896    0.98000002    2.39000010
   14.25416660  102.03800201    0.98000002    2.39000010
   14.25500011  103.38200378    0.98000002    2.39000010
   14.25833321  111.88800049    0.98000002    2.39000010
   14.26444435  111.88800049    0.98000002    2.39000010
   14.26861095  101.01499939    0.98000002    2.39000010
   14.27166653  102.46700287    0.98000002    2.39000010
   14.27499962  103.65599823    0.98000002    2.39000010
   14.27833271  105.44000244    0.98000002    2.39000010
   14.28138828  101.05000305    0.98000002    2.39000010
   14.28472233   94.28690338    0.98000002    2.39000010
   14.28750038   98.78389740    0.98000002    2.39000010
   14.28833389   98.38420105    0.98000002    2.39000010
   14.29166698  103.48300171    0.98000002    2.39000010
   14.29500008   95.10070038    0.98000002    2.39000010
   14.29805565   99.50240326    0.98000002    2.39000010
   14.30138874   94.77500153    0.98000002    2.39000010
   14.30722237   94.77500153    0.98000002    2.39000010
   14.31138897   89.40779877    0.98000002    2.39000010
   14.31472206   95.94789886    0.98000002    2.39000010
   14.31777763   93.94190216    0.98000002    2.39000010
   14.32083321   98.90480042    0.98000002    2.39000010
   14.32138920   95.16079712    0.98000002    2.39000010
   14.32472229   96.90019989    0.98000002    2.39000010
   14.32805538  106.08899689    0.98000002    2.39000010
   14.33111095  101.41200256    0.98000002    2.39000010
   14.33444405  100.69999695    0.98000002    2.39000010
   14.33749962   97.09919739    0.98000002    2.39000010
   14.34083271   97.86060333    0.98000002    2.39000010
   14.34416676   99.35410309    0.98000002    2.39000010
   14.35000038   99.35410309    0.98000002    2.39000010
   14.35416698   97.32479858    0.98000002    2.39000010
   14.35750008   93.20600128    0.98000002    2.39000010
   14.36083412   97.96739960    0.98000002    2.39000010
   14.36388969   95.32420349    0.98000002    2.39000010
   14.36722279   99.76809692    0.98000002    2.39000010
   14.37027836   93.86740112    0.98000002    2.39000010
   14.37361145  101.70700073    0.98000002    2.39000010
   14.37694454   99.91639709    0.98000002    2.39000010
   14.38000011  101.47599792    0.98000002    2.39000010
   14.38333321  100.01799774    0.98000002    2.39000010
   14.38666630  100.64900208    0.98000002    2.39000010
   14.38749981   97.63400269    0.98000002    2.39000010
   14.39305496   97.63400269    0.98000002    2.39000010
   14.39722252   95.09159851    0.98000002    2.39000010
   14.40027714   98.35449982    0.98000002    2.39000010
   14.40361118   97.15039825    0.98000002    2.39000010
   14.42111111   93.36239624    0.98000002    2.39000010
   14.42361164   98.17890167    0.98000002    2.39000010
   14.42666721   94.42400360    0.98000002    2.39000010
   14.43000031   99.00129700    0.98000002    2.39000010
   14.43583298   99.00129700    0.98000002    2.39000010
   14.44000053  104.22200012    0.98000002    2.39000010
   14.44333363  100.91500092    0.98000002    2.39000010
   14.44666672   98.13230133    0.98000002    2.39000010
   14.44972229  103.18499756    0.98000002    2.39000010
   14.45305538  102.14399719    0.98000002    2.39000010
   14.45444393   95.25379944    0.98000002    2.39000010
   14.45666695   96.61119843    0.98000002    2.39000010
   14.46000004   96.98079681    0.98000002    2.39000010
   14.46333313   86.85449982    0.98000002    2.39000010
   14.46638870   95.17579651    0.98000002    2.39000010
   14.46972179   90.23040009    0.98000002    2.39000010
   14.47277737   86.12740326    0.98000002    2.39000010
   14.47888851   86.12740326    0.98000002    2.39000010
   14.48305511   92.98280334    0.98000002    2.39000010
   14.48611164   85.33930206    0.98000002    2.39000010
   14.48777771   89.82399750    0.98000002    2.39000010
   14.48972225   89.31649780    0.98000002    2.39000010
   14.49305534   89.68099976    0.98000002    2.39000010
   14.49638939   98.94580078    0.98000002    2.39000010
   14.49944496   92.24430084    0.98000002    2.39000010
   14.50277805  101.39199829    0.98000002    2.39000010
   14.50611115   87.36080170    0.98000002    2.39000010
   14.50916672   96.84519958    0.98000002    2.39000010
   14.51249981   91.65429688    0.98000002    2.39000010
   14.51583290   95.21459961    0.98000002    2.39000010
   14.52166653   95.21459961    0.98000002    2.39000010
   14.52583313  111.19300079    0.98000002    2.39000010
   14.52972221   98.26730347    0.98000002    2.39000010
   14.53277779  111.17400360    0.98000002    2.39000010
   14.53611183   99.81680298    0.98000002    2.39000010
   14.53944492  108.08300018    0.98000002    2.39000010
   14.54250050  100.13300323    0.98000002    2.39000010
   14.54583359  102.03199768    0.98000002    2.39000010
   14.54916668   97.97170258    0.98000002    2.39000010
   14.55222225   98.41439819    0.98000002    2.39000010
   14.55444431   90.38269806    0.98000002    2.39000010
   14.55583382   90.67089844    0.98000002    2.39000010
   14.55916691   94.03579712    0.98000002    2.39000010
   14.56444454   94.03579712    0.98000002    2.39000010
   14.56861115   89.61350250    0.98000002    2.39000010
   14.57194424   91.41750336    0.98000002    2.39000010
   14.57499981   96.53990173    0.98000002    2.39000010
   14.57833290   88.31340027    0.98000002    2.39000010
   14.58166695   92.22299957    0.98000002    2.39000010
   14.58472157   95.07820129    0.98000002    2.39000010
   14.58777714   91.26409912    0.98000002    2.39000010
   14.58861065   87.96130371    0.98000002    2.39000010
   14.59166622   93.97840118    0.98000002    2.39000010
   14.59499931   88.93499756    0.98000002    2.39000010
   14.59833336   93.36710358    0.98000002    2.39000010
   14.60138893   92.27279663    0.98000002    2.39000010
   14.60722256   92.27279663    0.98000002    2.39000010
   14.61138916   89.98600006    0.98000002    2.39000010
   14.61472225   89.10559845    0.98000002    2.39000010
   14.61805534   90.60579681    0.98000002    2.39000010
   14.62111092   97.15619659    0.98000002    2.39000010
   14.62138939   89.89289856    0.98000002    2.39000010
   14.62472248   86.96610260    0.98000002    2.39000010
   14.62805557   88.59590149    0.98000002    2.39000010
   14.63111115   90.22949982    0.98000002    2.39000010
   14.63444424   88.74819946    0.98000002    2.39000010
   14.63777733   93.17980194    0.98000002    2.39000010
   14.64083290   92.59210205    0.98000002    2.39000010
   14.64416695   91.86740112    0.98000002    2.39000010
   14.65027714   91.86740112    0.98000002    2.39000010
   14.65444374   85.83640289    0.98000002    2.39000010
   14.65472221   86.42150116    0.98000002    2.39000010
   14.65805531   88.08119965    0.98000002    2.39000010
   14.66138840   91.45729828    0.98000002    2.39000010
   14.66444397   92.55899811    0.98000002    2.39000010
   14.66777802   85.07759857    0.98000002    2.39000010
   14.67111111   91.56330109    0.98000002    2.39000010
   14.67416668   89.35579681    0.98000002    2.39000010
   14.67750072   90.10870361    0.98000002    2.39000010
   14.68083382   88.80210114    0.98000002    2.39000010
   14.68388939   90.57669830    0.98000002    2.39000010
   14.68722248   95.00749969    0.98000002    2.39000010
   14.68777752   92.59570313    0.98000002    2.39000010
   14.69305515   92.59570313    0.98000002    2.39000010
   14.69722271   87.61150360    0.98000002    2.39000010
   14.70027733   95.88860321    0.98000002    2.39000010
   14.70361137   92.63469696    0.98000002    2.39000010
   14.70694447   97.00800323    0.98000002    2.39000010
   14.71000004   87.68350220    0.98000002    2.39000010
   14.71333313   91.16519928    0.98000002    2.39000010
   14.71666622   99.79660034    0.98000002    2.39000010
   14.71972179   90.34190369    0.98000002    2.39000010
   14.72111034   91.52960205    0.98000002    2.39000010
   14.72333336   91.72319794    0.98000002    2.39000010
   14.72666645   89.06189728    0.98000002    2.39000010
   14.72999954   87.45069885    0.98000002    2.39000010
   14.73583317   87.45069885    0.98000002    2.39000010
   14.74000072   88.70680237    0.98000002    2.39000010
   14.74333382   96.44560242    0.98000002    2.39000010
   14.74638939   90.62329865    0.98000002    2.39000010
   14.74972248   88.12259674    0.98000002    2.39000010
   14.75305557   89.26950073    0.98000002    2.39000010
   14.75444412   85.68099976    0.98000002    2.39000010
   14.75666714   85.70670319    0.98000002    2.39000010
   14.75972176   91.33339691    0.98000002    2.39000010
   14.76305580   84.01779938    0.98000002    2.39000010
   14.76611137   92.18029785    0.98000002    2.39000010
   14.76972198   89.06060028    0.98000002    2.39000010
   14.77277756   89.78710175    0.98000002    2.39000010
   14.77861118   89.78710175    0.98000002    2.39000010
   14.78277779   90.53569794    0.98000002    2.39000010
   14.78611183   90.60929871    0.98000002    2.39000010
   14.78777790   87.57859802    0.98000002    2.39000010
   14.79000092   87.63710022    0.98000002    2.39000010
   14.79305553   93.53140259    0.98000002    2.39000010
   14.79638958   87.90910339    0.98000002    2.39000010
   14.79944515   85.16470337    0.98000002    2.39000010
   14.80277824   85.31179810    0.98000002    2.39000010
   14.80611134   88.63210297    0.98000002    2.39000010
   14.80916691   87.20149994    0.98000002    2.39000010
   14.81250000   85.01000214    0.98000002    2.39000010
   14.81583309   88.03739929    0.98000002    2.39000010
   14.82166672   88.03739929    0.98000002    2.39000010
   14.82583332   86.62439728    0.98000002    2.39000010
   14.82888889   89.01770020    0.98000002    2.39000010
   14.83222198   89.98229980    0.98000002    2.39000010
   14.83527756   92.30919647    0.98000002    2.39000010
   14.83861065   83.36430359    0.98000002    2.39000010
   14.84194374   89.81600189    0.98000002    2.39000010
   14.84499931   85.05519867    0.98000002    2.39000010
   14.84833336   89.14029694    0.98000002    2.39000010
   14.85166740   90.67610168    0.98000002    2.39000010
   14.85444450   88.61280060    0.98000002    2.39000010
   14.85500050   83.95659637    0.98000002    2.39000010
   14.85833359   98.90779877    0.98000002    2.39000010
   14.86444473   98.90779877    0.98000002    2.39000010
   14.86861134   94.33910370    0.98000002    2.39000010
   14.87166691   86.84169769    0.98000002    2.39000010
   14.87500000   91.26409912    0.98000002    2.39000010
   14.87833309   86.12030029    0.98000002    2.39000010
   14.88138866   88.69029999    0.98000002    2.39000010
   14.88472176   90.68699646    0.98000002    2.39000010
   14.88777733   88.28929901    0.98000002    2.39000010
   14.88805580   91.81050110    0.98000002    2.39000010
   14.89138889   84.54959869    0.98000002    2.39000010
   14.89472198   90.49060059    0.98000002    2.39000010
   14.89777756   90.82589722    0.98000002    2.39000010
   14.90111065   84.60060120    0.98000002    2.39000010
   14.90722179   84.60060120    0.98000002    2.39000010
   14.91138840   86.58390045    0.98000002    2.39000010
   14.91472149   90.46299744    0.98000002    2.39000010
   14.91777802   83.95040131    0.98000002    2.39000010
   14.92111111   87.72609711    0.98000002    2.39000010
   14.92138958   88.77690125    0.98000002    2.39000010
   14.92472267   86.07540131    0.98000002    2.39000010
   14.92805576   93.09870148    0.98000002    2.39000010
   14.93111134   90.55020142    0.98000002    2.39000010
   14.93444443   85.78479767    0.98000002    2.39000010
   14.93777752   88.10769653    0.98000002    2.39000010
   14.94083309   89.34999847    0.98000002    2.39000010
   14.94416714   82.53279877    0.98000002    2.39000010
   14.94999981   82.53279877    0.98000002    2.39000010
   14.95416641   90.52290344    0.98000002    2.39000010
   14.95472240   86.06670380    0.98000002    2.39000010
   14.95805550   86.80200195    0.98000002    2.39000010
   14.96111107   95.18209839    0.98000002    2.39000010
   14.96444416   80.82640076    0.98000002    2.39000010
   14.96777725   81.89160156    0.98000002    2.39000010
   14.97083282   84.90319824    0.98000002    2.39000010
   14.97416592   85.51309967    0.98000002    2.39000010
   14.97749996   83.03199768    0.98000002    2.39000010
   14.98055553   84.53919983    0.98000002    2.39000010
   14.98388958   85.47560120    0.98000002    2.39000010
   14.98694515   86.24710083    0.98000002    2.39000010
   14.98805618   89.34110260    0.98000002    2.39000010
   14.99305534   89.34110260    0.98000002    2.39000010
   14.99694443   83.39730072    0.98000002    2.39000010
   15.00027752   83.68099976    0.98000002    2.39000010
   15.00361156   86.60500336    0.98000002    2.39000010
   15.00666714   83.16619873    0.98000002    2.39000010
   15.01000023   82.50279999    0.98000002    2.39000010
   15.01333332   92.31839752    0.98000002    2.39000010
   15.01638889   82.49179840    0.98000002    2.39000010
   15.12250042   -1.00000000   -1.00000000   -1.00000000
   15.21388912   -1.00000000   -1.00000000   -1.00000000
   15.31222248   -1.00000000   -1.00000000   -1.00000000
   15.43277836   -1.00000000   -1.00000000   -1.00000000
   15.49388885  132.57200623    0.98000002    2.39000010
   15.49694443  129.69799805    0.98000002    2.39000010
   15.50027752  129.89599609    0.98000002    2.39000010
   15.50361156  140.36199951    0.98000002    2.39000010
   15.50666714  141.90499878    0.98000002    2.39000010
   15.51000023  127.52300262    0.98000002    2.39000010
   15.51416683  127.52300262    0.98000002    2.39000010
   15.51833344  137.19000244    0.98000002    2.39000010
   15.52138901  132.61900330    0.98000002    2.39000010
   15.52472210  131.22999573    0.98000002    2.39000010
   15.52694416  132.17900085    0.98000002    2.39000010
   15.52833271  139.82600403    0.98000002    2.39000010
   15.53166676  128.49800110    0.98000002    2.39000010
   15.53472233  127.02100372    0.98000002    2.39000010
   15.53805637  134.13099670    0.98000002    2.39000010
   15.54138947  127.54599762    0.98000002    2.39000010
   15.54444504  134.71899414    0.98000002    2.39000010
   15.54777813  136.25500488    0.98000002    2.39000010
   15.55083370  126.41899872    0.98000002    2.39000010
   15.55694485  126.41899872    0.98000002    2.39000010
   15.56111145  129.92500305    0.98000002    2.39000010
   15.56444454  126.07800293    0.98000002    2.39000010
   15.56750011  127.78900146    0.98000002    2.39000010
   15.57083321  127.85399628    0.98000002    2.39000010
   15.57416630  119.38500214    0.98000002    2.39000010
   15.57722187  121.33599854    0.98000002    2.39000010
   15.58055592  121.70999908    0.98000002    2.39000010
   15.58361053  120.81900024    0.98000002    2.39000010
   15.58694458  126.49500275    0.98000002    2.39000010
   15.59027767  130.07600403    0.98000002    2.39000010
   15.59333324  118.27700043    0.98000002    2.39000010
   15.59388828  123.21299744    0.98000002    2.39000010
   15.59972191  123.21299744    0.98000002    2.39000010
   15.60388947  133.00500488    0.98000002    2.39000010
   15.60722256  126.74700165    0.98000002    2.39000010
   15.61027813  123.27400208    0.98000002    2.39000010
   15.61361122  119.46199799    0.98000002    2.39000010
   15.61694431  120.83499908    0.98000002    2.39000010
   15.61999989  116.37599945    0.98000002    2.39000010
   15.62333393  121.52799988    0.98000002    2.39000010
   15.62666702  123.76899719    0.98000002    2.39000010
   15.62722206  120.09300232    0.98000002    2.39000010
   15.63027763  132.72000122    0.98000002    2.39000010
   15.63361073  124.05999756    0.98000002    2.39000010
   15.63666630  123.72000122    0.98000002    2.39000010
   15.64277744  123.72000122    0.98000002    2.39000010
   15.64666653  126.07099915    0.98000002    2.39000010
   15.64999962  119.11100006    0.98000002    2.39000010
   15.65333271  126.03700256    0.98000002    2.39000010
   15.65638828  123.22499847    0.98000002    2.39000010
   15.65972137  120.96099854    0.98000002    2.39000010
   15.66055489  122.68800354    0.98000002    2.39000010
   15.66333294  119.81300354    0.98000002    2.39000010
   15.66666698  119.34799957    0.98000002    2.39000010
   15.66972256  126.51999664    0.98000002    2.39000010
   15.67305565  116.63200378    0.98000002    2.39000010
   15.67638874  120.88500214    0.98000002    2.39000010
   15.67944431  125.46800232    0.98000002    2.39000010
   15.68555546  125.46800232    0.98000002    2.39000010
   15.68972206  126.07499695    0.98000002    2.39000010
   15.69277763  122.64199829    0.98000002    2.39000010
   15.69388866  119.45700073    0.98000002    2.39000010
   15.69638920  122.43399811    0.98000002    2.39000010
   15.69972229  126.30000305    0.98000002    2.39000010
   15.70277786  125.09400177    0.98000002    2.39000010
   15.70611095  121.51100159    0.98000002    2.39000010
   15.70944405  129.64100647    0.98000002    2.39000010
   15.71249962  128.68800354    0.98000002    2.39000010
   15.71583271  126.12200165    0.98000002    2.39000010
   15.71916580  121.78900146    0.98000002    2.39000010
   15.72222137  131.76100159    0.98000002    2.39000010
   15.72833252  131.76100159    0.98000002    2.39000010
   15.73249912  118.92099762    0.98000002    2.39000010
   15.73583317  130.25000000    0.98000002    2.39000010
   15.73888874  122.12899780    0.98000002    2.39000010
   15.74222279  124.16699982    0.98000002    2.39000010
   15.74527836  118.45200348    0.98000002    2.39000010
   15.74861145  125.02100372    0.98000002    2.39000010
   15.75194454  123.96700287    0.98000002    2.39000010
   15.75500011  122.18499756    0.98000002    2.39000010
   15.75833321  118.56400299    0.98000002    2.39000010
   15.76055527  121.01399994    0.98000002    2.39000010
   15.76194477  124.39299774    0.98000002    2.39000010
   15.76527786  115.81300354    0.98000002    2.39000010
   15.77111053  115.81300354    0.98000002    2.39000010
   15.77527714  127.95500183    0.98000002    2.39000010
   15.77861118  120.59899902    0.98000002    2.39000010
   15.78166676  115.99099731    0.98000002    2.39000010
   15.78500080  121.86399841    0.98000002    2.39000010
   15.78833389  123.37599945    0.98000002    2.39000010
   15.79138947  121.17800140    0.98000002    2.39000010
   15.79388905  120.85399628    0.98000002    2.39000010
   15.79500008  119.82700348    0.98000002    2.39000010
   15.79833412  124.78900146    0.98000002    2.39000010
   15.80138874  124.96900177    0.98000002    2.39000010
   15.80472279  120.56500244    0.98000002    2.39000010
   15.80777836  119.58799744    0.98000002    2.39000010
   15.81388950  119.58799744    0.98000002    2.39000010
   15.81805515  117.96299744    0.98000002    2.39000010
   15.82138920  120.86299896    0.98000002    2.39000010
   15.82472229  119.92099762    0.98000002    2.39000010
   15.82722187  124.37000275    0.98000002    2.39000010
   15.82833290  124.25299835    0.98000002    2.39000010
   15.83166695  125.69300079    0.98000002    2.39000010
   15.83472157  127.98400116    0.98000002    2.39000010
   15.83805561  116.10700226    0.98000002    2.39000010
   15.84111118  120.90899658    0.98000002    2.39000010
   15.84444427  121.41999817    0.98000002    2.39000010
   15.84777737  129.81100464    0.98000002    2.39000010
   15.85083389  121.84600067    0.98000002    2.39000010
   15.85694504  121.84600067    0.98000002    2.39000010
   15.86111164  122.33100128    0.98000002    2.39000010
   15.86416721  124.45999908    0.98000002    2.39000010
   15.86750031  121.40499878    0.98000002    2.39000010
   15.87083340  121.64299774    0.98000002    2.39000010
   15.87388897  123.70800018    0.98000002    2.39000010
   15.87722206  118.90699768    0.98000002    2.39000010
   15.88027763  120.10800171    0.98000002    2.39000010
   15.88361073  114.49199677    0.98000002    2.39000010
   15.88694477  126.77899933    0.98000002    2.39000010
   15.89000034  119.43199921    0.98000002    2.39000010
   15.89333344  121.87699890    0.98000002    2.39000010
   15.89388847  115.27899933    0.98000002    2.39000010
   15.89972210  115.27899933    0.98000002    2.39000010
   15.90388870  120.61499786    0.98000002    2.39000010
   15.90694427  121.75399780    0.98000002    2.39000010
   15.91027737  125.11000061    0.98000002    2.39000010
   15.91361046  121.34600067    0.98000002    2.39000010
   15.91666698  122.76499939    0.98000002    2.39000010
   15.92000008  118.51599884    0.98000002    2.39000010
   15.92333412  119.33399963    0.98000002    2.39000010
   15.92638874  119.57900238    0.98000002    2.39000010
   15.92722225  120.97100067    0.98000002    2.39000010
   15.93000031  119.28199768    0.98000002    2.39000010
   15.93333340  123.58100128    0.98000002    2.39000010
   15.93638897  119.15000153    0.98000002    2.39000010
   15.94250011  119.15000153    0.98000002    2.39000010
   15.94666672  117.13899994    0.98000002    2.39000010
   15.94999981  123.81500244    0.98000002    2.39000010
   15.95305538  121.79299927    0.98000002    2.39000010
   15.95638847  120.40299988    0.98000002    2.39000010
   15.95972157  119.74199677    0.98000002    2.39000010
   15.96083355  121.14700317    0.98000002    2.39000010
   15.96333313  120.22499847    0.98000002    2.39000010
   15.96666622  116.66899872    0.98000002    2.39000010
   15.96972179  117.80899811    0.98000002    2.39000010
   15.97305489  116.75399780    0.98000002    2.39000010
   15.97638798  122.44300079    0.98000002    2.39000010
   15.97944355  121.95400238    0.98000002    2.39000010
   15.98527813  121.95400238    0.98000002    2.39000010
   15.98944473  118.95800018    0.98000002    2.39000010
   15.99277782  115.02700043    0.98000002    2.39000010
   15.99388885  120.08999634    0.98000002    2.39000010
   15.99638939  120.63099670    0.98000002    2.39000010
   15.99972248  125.18499756    0.98000002    2.39000010
   16.00277710  128.40699768    0.98000002    2.39000010
   16.00611115  115.61299896    0.98000002    2.39000010
   16.00944519  118.85099792    0.98000002    2.39000010
   16.01250076  123.40599823    0.98000002    2.39000010
   16.01583290  113.96399689    0.98000002    2.39000010
   16.01888847  119.15399933    0.98000002    2.39000010
   16.02222252  123.55699921    0.98000002    2.39000010
   16.02833366  123.55699921    0.98000002    2.39000010
   16.03249931  122.86599731    0.98000002    2.39000010
   16.03555489  121.95700073    0.98000002    2.39000010
   16.03888893  125.03099823    0.98000002    2.39000010
   16.04222107  118.88999939    0.98000002    2.39000010
   16.04527664  117.69699860    0.98000002    2.39000010
   16.04861069  125.39900208    0.98000002    2.39000010
   16.05166626  124.83799744    0.98000002    2.39000010
   16.05499840  127.40200043    0.98000002    2.39000010
   16.05833244  118.55400085    0.98000002    2.39000010
   16.06083298  123.41500092    0.98000002    2.39000010
   16.06194305  121.58100128    0.98000002    2.39000010
   16.06527710  120.82900238    0.98000002    2.39000010
   16.07111168  120.82900238    0.98000002    2.39000010
   16.07527924  123.04499817    0.98000002    2.39000010
   16.07833481  124.19000244    0.98000002    2.39000010
   16.08166695  122.61000061    0.98000002    2.39000010
   16.08500099  128.95799255    0.98000002    2.39000010
   16.08805656  122.49700165    0.98000002    2.39000010
   16.09138870  124.48100281    0.98000002    2.39000010
   16.09416771  125.06099701    0.98000002    2.39000010
   16.09500122  122.38500214    0.98000002    2.39000010
   16.09833336  132.87699890    0.98000002    2.39000010
   16.10138893  122.37999725    0.98000002    2.39000010
   16.10472298  127.11399841    0.98000002    2.39000010
   16.10805511  123.12200165    0.98000002    2.39000010
   16.11388969  123.12200165    0.98000002    2.39000010
   16.11805534  123.95400238    0.98000002    2.39000010
   16.12138939  114.69400024    0.98000002    2.39000010
   16.12444496  124.23400116    0.98000002    2.39000010
   16.12750053  127.09899902    0.98000002    2.39000010
   16.12805557  121.98000336    0.98000002    2.39000010
   16.13138962  120.59100342    0.98000002    2.39000010
   16.13444519  114.10800171    0.98000002    2.39000010
   16.13777733  117.19499969    0.98000002    2.39000010
   16.14111137  119.49299622    0.98000002    2.39000010
   16.14416695  130.59899902    0.98000002    2.39000010
   16.14749908  120.65399933    0.98000002    2.39000010
   16.15055466  127.76599884    0.98000002    2.39000010
   16.15666580  127.76599884    0.98000002    2.39000010
   16.16083336  123.48100281    0.98000002    2.39000010
   16.16416550  122.62200165    0.98000002    2.39000010
   16.16722107  127.92800140    0.98000002    2.39000010
   16.17055511  121.36599731    0.98000002    2.39000010
   16.17388916  120.57900238    0.98000002    2.39000010
   16.17694473  125.26999664    0.98000002    2.39000010
   16.18027687  123.91799927    0.98000002    2.39000010
   16.18361092  116.55000305    0.98000002    2.39000010
   16.18666649  139.13099670    0.98000002    2.39000010
   16.18999863  135.21899414    0.98000002    2.39000010
   16.19305420  129.46400452    0.98000002    2.39000010
   16.19416618  136.35699463    0.98000002    2.39000010
   16.19972038  136.35699463    0.98000002    2.39000010
   16.20361137  127.67700195    0.98000002    2.39000010
   16.20694542  124.54900360    0.98000002    2.39000010
   16.21027946  129.82400513    0.98000002    2.39000010
   16.21333504  124.74299622    0.98000002    2.39000010
   16.21666718  132.10000610    0.98000002    2.39000010
   16.22000122  126.13300323    0.98000002    2.39000010
   16.22305679  131.45399475    0.98000002    2.39000010
   16.22638893  130.03100586    0.98000002    2.39000010
   16.22750092  132.70599365    0.98000002    2.39000010
   16.23000145  121.27999878    0.98000002    2.39000010
   16.23333359  124.98699951    0.98000002    2.39000010
   16.23638916  123.95099640    0.98000002    2.39000010
   16.24250031  123.95099640    0.98000002    2.39000010
   16.24666786  127.00599670    0.98000002    2.39000010
   16.24972153  131.23500061    0.98000002    2.39000010
   16.25305557  126.36699677    0.98000002    2.39000010
   16.25638962  123.73200226    0.98000002    2.39000010
   16.25944519  130.94599915    0.98000002    2.39000010
   16.26083374  127.72200012    0.98000002    2.39000010
   16.26305580  127.32199860    0.98000002    2.39000010
   16.26638794  126.84400177    0.98000002    2.39000010
   16.26944351  134.86599731    0.98000002    2.39000010
   16.27277756  122.02799988    0.98000002    2.39000010
   16.27611160  126.55799866    0.98000002    2.39000010
   16.27916718  132.89300537    0.98000002    2.39000010
   16.28527641  132.89300537    0.98000002    2.39000010
   16.28944397  132.95300293    0.98000002    2.39000010
   16.29277802  132.25799561    0.98000002    2.39000010
   16.29416656  138.46499634    0.98000002    2.39000010
   16.29611015  144.53300476    0.98000002    2.39000010
   16.29944420  148.99000549    0.98000002    2.39000010
   16.30249977  141.98599243    0.98000002    2.39000010
   16.30583191  139.77000427    0.98000002    2.39000010
   16.30916595  140.44400024    0.98000002    2.39000010
   16.31222153  135.66600037    0.98000002    2.39000010
   16.31555557  130.80299377    0.98000002    2.39000010
   16.31888962  136.58700562    0.98000002    2.39000010
   16.32194519  130.12600708    0.98000002    2.39000010
   16.32805634  130.12600708    0.98000002    2.39000010
   16.33222389  141.93499756    0.98000002    2.39000010
   16.33555603  145.84500122    0.98000002    2.39000010
   16.33889008  146.54100037    0.98000002    2.39000010
   16.34194565  140.03300476    0.98000002    2.39000010
   16.34527779  143.92199707    0.98000002    2.39000010
   16.34861183  152.36500549    0.98000002    2.39000010
   16.35166740  146.89100647    0.98000002    2.39000010
   16.35499954  145.54100037    0.98000002    2.39000010
   16.35805511  156.31599426    0.98000002    2.39000010
   16.36083412  147.69099426    0.98000002    2.39000010
   16.36166763  140.22599792    0.98000002    2.39000010
   16.36499977  143.21899414    0.98000002    2.39000010
   16.37111092  143.21899414    0.98000002    2.39000010
   16.37527847  143.40800476    0.98000002    2.39000010
   16.37833405  137.52200317    0.98000002    2.39000010
   16.38166618  147.62300110    0.98000002    2.39000010
   16.38472176  145.41000366    0.98000002    2.39000010
   16.38805580  142.72700500    0.98000002    2.39000010
   16.39138794  149.66000366    0.98000002    2.39000010
   16.39416695  162.88800049    0.98000002    2.39000010
   16.39500046  144.45300293    0.98000002    2.39000010
   16.39833260  136.72700500    0.98000002    2.39000010
   16.40166664  145.41999817    0.98000002    2.39000010
   16.40472221  145.44099426    0.98000002    2.39000010
   16.40805435  138.11099243    0.98000002    2.39000010
   16.41388893  138.11099243    0.98000002    2.39000010
   16.41805458  135.17199707    0.98000002    2.39000010
   16.42111015  152.24400330    0.98000002    2.39000010
   16.42444420  137.46200562    0.98000002    2.39000010
   16.42749977  142.62199402    0.98000002    2.39000010
   16.42805481  153.26400757    0.98000002    2.39000010
   16.43138885  149.57499695    0.98000002    2.39000010
   16.43472099  142.89300537    0.98000002    2.39000010
   16.43777657  132.96299744    0.98000002    2.39000010
   16.44111061  145.72500610    0.98000002    2.39000010
   16.44416618  151.28300476    0.98000002    2.39000010
   16.44749832  129.93200684    0.98000002    2.39000010
   16.45083427  146.33000183    0.98000002    2.39000010
   16.45666695  146.33000183    0.98000002    2.39000010
   16.46083450  173.92799377    0.98000002    2.39000010
   16.46416664  170.62199402    0.98000002    2.39000010
   16.46722221  179.97099304    0.98000002    2.39000010
   16.47055626  210.27099609    0.98000002    2.39000010
   16.47389030  234.75900269    0.98000002    2.39000010
   16.47694588  227.16099548    0.98000002    2.39000010
   16.48027802  214.92100525    0.98000002    2.39000010
   16.48361206  256.92098999    0.98000002    2.39000010
   16.48666763  211.04100037    0.98000002    2.39000010
   16.48999977  233.62800598    0.98000002    2.39000010
   16.49305534  225.27600098    0.98000002    2.39000010
   16.49416733  219.26699829    0.98000002    2.39000010
   16.51472282  219.26699829    0.98000002    2.39000010
   16.51888847  251.20300293    0.98000002    2.39000010
   16.52194405  264.00201416    0.98000002    2.39000010
   16.52527809  221.36599731    0.98000002    2.39000010
   16.52750015  256.14700317    0.98000002    2.39000010
   16.52916718  244.57200623    0.98000002    2.39000010
   16.53222275  242.88699341    0.98000002    2.39000010
   16.53555489  240.19099426    0.98000002    2.39000010
   16.53861046  195.51300049    0.98000002    2.39000010
   16.54194450  218.83700562    0.98000002    2.39000010
   16.54527664  232.31100464    0.98000002    2.39000010
   16.54833221  227.38099670    0.98000002    2.39000010
   16.55166626  238.09500122    0.98000002    2.39000010
   16.55749893  238.09500122    0.98000002    2.39000010
   16.56166649  197.52299500    0.98000002    2.39000010
   16.56472206  193.48699951    0.98000002    2.39000010
   16.56805611  216.55299377    0.98000002    2.39000010
   16.57139015  177.45300293    0.98000002    2.39000010
   16.57444572  193.31399536    0.98000002    2.39000010
   16.57777786  203.95100403    0.98000002    2.39000010
   16.58111191  210.80200195    0.98000002    2.39000010
   16.58416748  193.36799622    0.98000002    2.39000010
   16.58750153  184.66799927    0.98000002    2.39000010
   16.59055710  185.58000183    0.98000002    2.39000010
   16.59388924  182.57600403    0.98000002    2.39000010
   16.59444427  182.58599854    0.98000002    2.39000010
   16.60027885  182.58599854    0.98000002    2.39000010
   16.60444450  174.38900757    0.98000002    2.39000010
   16.60777855  193.05599976    0.98000002    2.39000010
   16.61083412  165.73500061    0.98000002    2.39000010
   16.61416626  190.51400757    0.98000002    2.39000010
   16.61750031  185.41900635    0.98000002    2.39000010
   16.62055588  202.17199707    0.98000002    2.39000010
   16.62388992  200.95300293    0.98000002    2.39000010
   16.62722206  178.82899475    0.98000002    2.39000010
   16.62777710  172.84800720    0.98000002    2.39000010
   16.63083267  178.46000671    0.98000002    2.39000010
   16.63388824  174.91299438    0.98000002    2.39000010
   16.63722229  148.85600281    0.98000002    2.39000010
   16.64305496  148.85600281    0.98000002    2.39000010
   16.64722252  161.71499634    0.98000002    2.39000010
   16.65055466  169.73199463    0.98000002    2.39000010
   16.65388870  144.56399536    0.98000002    2.39000010
   16.65694427  172.42799377    0.98000002    2.39000010
   16.66027832  190.97900391    0.98000002    2.39000010
   16.66110992  167.38699341    0.98000002    2.39000010
   16.66388893  150.34599304    0.98000002    2.39000010
   16.66694450  152.52000427    0.98000002    2.39000010
   16.67027664  159.66400146    0.98000002    2.39000010
   16.67361069  159.09800720    0.98000002    2.39000010
   16.67666626  154.68400574    0.98000002    2.39000010
   16.68000031  151.49099731    0.98000002    2.39000010
   16.68610954  151.49099731    0.98000002    2.39000010
   16.68999863  176.79699707    0.98000002    2.39000010
   16.69333267  161.88499451    0.98000002    2.39000010
   16.69444275  165.40499878    0.98000002    2.39000010
   16.69694328  163.61599731    0.98000002    2.39000010
   16.70000076  168.15800476    0.98000002    2.39000010
   16.70333481  157.34899902    0.98000002    2.39000010
   16.70666695  157.98399353    0.98000002    2.39000010
   16.70972252  167.55299377    0.98000002    2.39000010
   16.71305656  160.36399841    0.98000002    2.39000010
   16.71611214  158.60299683    0.98000002    2.39000010
   16.71944427  158.62699890    0.98000002    2.39000010
   16.72277832  149.07600403    0.98000002    2.39000010
   16.72888947  149.07600403    0.98000002    2.39000010
   16.73305511  148.46600342    0.98000002    2.39000010
   16.73611069  135.74400330    0.98000002    2.39000010
   16.73944473  162.87899780    0.98000002    2.39000010
   16.74277878  134.31399536    0.98000002    2.39000010
   16.74583435  144.80900574    0.98000002    2.39000010
   16.74916649  161.96299744    0.98000002    2.39000010
   16.75222206  149.79100037    0.98000002    2.39000010
   16.75555611  167.15100098    0.98000002    2.39000010
   16.75888824  146.53900146    0.98000002    2.39000010
   16.76111031  152.71200562    0.98000002    2.39000010
   16.76250076  142.04100037    0.98000002    2.39000010
   16.76583290  153.29600525    0.98000002    2.39000010
   16.77166557  153.29600525    0.98000002    2.39000010
   16.77583313  149.74299622    0.98000002    2.39000010
   16.77916718  152.74800110    0.98000002    2.39000010
   16.78222275  148.37500000    0.98000002    2.39000010
   16.78555489  152.27600098    0.98000002    2.39000010
   16.78861046  149.11099243    0.98000002    2.39000010
   16.79194450  137.53700256    0.98000002    2.39000010
   16.79444313  140.55599976    0.98000002    2.39000010
   16.79555511  146.65100098    0.98000002    2.39000010
   16.79861069  156.74200439    0.98000002    2.39000010
   16.80194283  139.69799805    0.98000002    2.39000010
   16.80527687  143.88000488    0.98000002    2.39000010
   16.80833244  145.59100342    0.98000002    2.39000010
   16.81444359  145.59100342    0.98000002    2.39000010
   16.81861115  151.15699768    0.98000002    2.39000010
   16.82194519  155.25000000    0.98000002    2.39000010
   16.82527924  144.33000183    0.98000002    2.39000010
   16.82777786  156.51600647    0.98000002    2.39000010
   16.82888985  150.95500183    0.98000002    2.39000010
   16.83194542  154.88200378    0.98000002    2.39000010
   16.83527756  138.64100647    0.98000002    2.39000010
   16.83861160  157.25500488    0.98000002    2.39000010
   16.84166718  151.91200256    0.98000002    2.39000010
   16.84500122  162.86799622    0.98000002    2.39000010
   16.84833336  149.84700012    0.98000002    2.39000010
   16.85138893  146.48199463    0.98000002    2.39000010
   16.85750008  146.48199463    0.98000002    2.39000010
   16.86138916  148.86900330    0.98000002    2.39000010
   16.86472321  150.14399719    0.98000002    2.39000010
   16.86805534  159.82899475    0.98000002    2.39000010
   16.87111092  153.34599304    0.98000002    2.39000010
   16.87444496  165.33700562    0.98000002    2.39000010
   16.87777710  153.57200623    0.98000002    2.39000010
   16.88083267  149.83599854    0.98000002    2.39000010
   16.88416672  152.85800171    0.98000002    2.39000010
   16.88750076  156.87100220    0.98000002    2.39000010
   16.89055634  168.61500549    0.98000002    2.39000010
   16.89388847  161.57400513    0.98000002    2.39000010
   16.89444351  144.92700195    0.98000002    2.39000010
   16.90027809  144.92700195    0.98000002    2.39000010
   16.90444374  140.80900574    0.98000002    2.39000010
   16.90749931  140.80200195    0.98000002    2.39000010
   16.91083336  145.36199951    0.98000002    2.39000010
   16.91416550  143.66099548    0.98000002    2.39000010
   16.91722107  156.33099365    0.98000002    2.39000010
   16.92055511  137.31199646    0.98000002    2.39000010
   16.92361069  147.18400574    0.98000002    2.39000010
   16.92694473  146.11500549    0.98000002    2.39000010
   16.92777634  145.79299927    0.98000002    2.39000010
   16.93055534  142.78300476    0.98000002    2.39000010
   16.93361092  133.52699280    0.98000002    2.39000010
   16.93694305  137.86399841    0.98000002    2.39000010
   16.94305420  137.86399841    0.98000002    2.39000010
   16.94722176  139.58900452    0.98000002    2.39000010
   16.95055580  140.77400208    0.98000002    2.39000010
   16.95361137  135.85699463    0.98000002    2.39000010
   16.95694542  142.75100708    0.98000002    2.39000010
   16.96000099  138.30000305    0.98000002    2.39000010
   16.96111107  135.43200684    0.98000002    2.39000010
   16.96389008  134.21899414    0.98000002    2.39000010
   16.96694565  140.29899597    0.98000002    2.39000010
   16.97027779  143.49600220    0.98000002    2.39000010
   16.97361183  148.12500000    0.98000002    2.39000010
   16.97666740  140.15800476    0.98000002    2.39000010
   16.98000145  133.94200134    0.98000002    2.39000010
   16.98611069  133.94200134    0.98000002    2.39000010
   16.99027824  146.15499878    0.98000002    2.39000010
   16.99333382  138.66499329    0.98000002    2.39000010
   16.99444389  142.81799316    0.98000002    2.39000010
   16.99722290  142.24000549    0.98000002    2.39000010
   17.00027847  134.69400024    0.98000002    2.39000010
   17.00361061  142.24699402    0.98000002    2.39000010
   17.00694466  142.02400208    0.98000002    2.39000010
   17.01000023  134.06900024    0.98000002    2.39000010
   17.01333427  136.29400635    0.98000002    2.39000010
   17.01666641  136.13499451    0.98000002    2.39000010
   17.01972198  141.16600037    0.98000002    2.39000010
   17.02305603  138.17300415    0.98000002    2.39000010
   17.02888870  138.17300415    0.98000002    2.39000010
   17.03277779  134.92500305    0.98000002    2.39000010
   17.03610992  135.12100220    0.98000002    2.39000010
   17.03944397  136.78100586    0.98000002    2.39000010
   17.04249954  139.46600342    0.98000002    2.39000010
   17.04583359  140.80099487    0.98000002    2.39000010
   17.04916573  131.50999451    0.98000002    2.39000010
   17.05222130  145.64399719    0.98000002    2.39000010
   17.05555534  148.72099304    0.98000002    2.39000010
   17.05861092  134.24099731    0.98000002    2.39000010
   17.06110954  139.08700562    0.98000002    2.39000010
   17.06250000  135.39999390    0.98000002    2.39000010
   17.06583214  138.42199707    0.98000002    2.39000010
   17.07166672  138.42199707    0.98000002    2.39000010
   17.07583427  137.26199341    0.98000002    2.39000010
   17.07888985  135.02900696    0.98000002    2.39000010
   17.08222389  145.25700378    0.98000002    2.39000010
   17.08555603  139.29699707    0.98000002    2.39000010
   17.08861160  138.76499939    0.98000002    2.39000010
   17.09194565  133.78199768    0.98000002    2.39000010
   17.09444427  143.41299438    0.98000002    2.39000010
   17.09555626  147.64500427    0.98000002    2.39000010
   17.09889030  144.23500061    0.98000002    2.39000010
   17.10194397  142.56399536    0.98000002    2.39000010
   17.10527802  143.25000000    0.98000002    2.39000010
   17.10833359  145.00500488    0.98000002    2.39000010
   17.11444473  145.00500488    0.98000002    2.39000010
   17.11861038  146.83599854    0.98000002    2.39000010
   17.12194443  150.43899536    0.98000002    2.39000010
   17.12500000  140.66900635    0.98000002    2.39000010
   17.12777710  141.34100342    0.98000002    2.39000010
   17.12861061  145.63299561    0.98000002    2.39000010
   17.13194466  133.14100647    0.98000002    2.39000010
   17.13500023  151.30200195    0.98000002    2.39000010
   17.13833237  145.75799561    0.98000002    2.39000010
   17.14166641  138.65199280    0.98000002    2.39000010
   17.14472198  141.22900391    0.98000002    2.39000010
   17.14805603  142.23300171    0.98000002    2.39000010
   17.15111160  141.91999817    0.98000002    2.39000010
   17.15722275  141.91999817    0.98000002    2.39000010
   17.16138840  141.38800049    0.98000002    2.39000010
   17.16472244  140.81799316    0.98000002    2.39000010
   17.16777802  131.66900635    0.98000002    2.39000010
   17.17111015  136.65699768    0.98000002    2.39000010
   17.17444420  137.17700195    0.98000002    2.39000010
   17.17749977  131.92199707    0.98000002    2.39000010
   17.18083191  137.33900452    0.98000002    2.39000010
   17.18416595  135.24200439    0.98000002    2.39000010
   17.18722153  135.45399475    0.98000002    2.39000010
   17.19055557  136.67300415    0.98000002    2.39000010
   17.19361115  138.47599792    0.98000002    2.39000010
   17.19444275  126.05799866    0.98000002    2.39000010
   17.20027924  126.05799866    0.98000002    2.39000010
   17.20416832  145.35400391    0.98000002    2.39000010
   17.20750046  137.32800293    0.98000002    2.39000010
   17.21083450  140.67700195    0.98000002    2.39000010
   17.21389008  149.35499573    0.98000002    2.39000010
   17.21722221  129.27600098    0.98000002    2.39000010
   17.22055626  135.20700073    0.98000002    2.39000010
   17.22361183  135.21600342    0.98000002    2.39000010
   17.22694588  133.79899597    0.98000002    2.39000010
   17.22777748  128.97200012    0.98000002    2.39000010
   17.23055649  129.60600281    0.98000002    2.39000010
   17.23388863  138.76400757    0.98000002    2.39000010
   17.23694420  133.39799500    0.98000002    2.39000010
   17.24305534  133.39799500    0.98000002    2.39000010
   17.24722290  133.49800110    0.98000002    2.39000010
   17.25027847  142.92500305    0.98000002    2.39000010
   17.25361061  147.33000183    0.98000002    2.39000010
   17.25694466  136.13999939    0.98000002    2.39000010
   17.26000023  140.18899536    0.98000002    2.39000010
   17.26111031  130.52000427    0.98000002    2.39000010
   17.26361084  133.70500183    0.98000002    2.39000010
   17.26694489  129.34899902    0.98000002    2.39000010
   17.27000046  127.99800110    0.98000002    2.39000010
   17.27333260  129.74400330    0.98000002    2.39000010
   17.27638817  127.57199860    0.98000002    2.39000010
   17.27972221  137.83700562    0.98000002    2.39000010
   17.28583336  137.83700562    0.98000002    2.39000010
   17.28999901  126.14700317    0.98000002    2.39000010
   17.29333305  122.05799866    0.98000002    2.39000010
   17.29444313  129.22000122    0.98000002    2.39000010
   17.29694366  141.09399414    0.98000002    2.39000010
   17.30027771  131.75199890    0.98000002    2.39000010
   17.30333328  133.14199829    0.98000002    2.39000010
   17.30666542  134.90499878    0.98000002    2.39000010
   17.30999947  137.71699524    0.98000002    2.39000010
   17.31305504  126.91999817    0.98000002    2.39000010
   17.31638718  130.88400269    0.98000002    2.39000010
   17.31972313  137.11399841    0.98000002    2.39000010
   17.32277870  135.19799805    0.98000002    2.39000010
   17.32861137  135.19799805    0.98000002    2.39000010
   17.33277893  128.86099243    0.98000002    2.39000010
   17.33611107  129.60400391    0.98000002    2.39000010
   17.33916664  133.69500732    0.98000002    2.39000010
   17.34250069  136.36599731    0.98000002    2.39000010
   17.34583473  132.50700378    0.98000002    2.39000010
   17.34889030  132.46099854    0.98000002    2.39000010
   17.35222244  128.04400635    0.98000002    2.39000010
   17.35555649  150.33200073    0.98000002    2.39000010
   17.35861206  137.45899963    0.98000002    2.39000010
   17.36111069  138.24499512    0.98000002    2.39000010
   17.36222267  132.68600464    0.98000002    2.39000010
   17.36555672  134.46099854    0.98000002    2.39000010
   17.37138939  134.46099854    0.98000002    2.39000010
   17.37555504  135.21000671    0.98000002    2.39000010
   17.37888908  136.13099670    0.98000002    2.39000010
   17.38222313  143.07899475    0.98000002    2.39000010
   17.38527679  134.92199707    0.98000002    2.39000010
   17.38861084  132.93499756    0.98000002    2.39000010
   17.39194489  138.04299927    0.98000002    2.39000010
   17.39444351  136.50100708    0.98000002    2.39000010
   17.39555550  136.52000427    0.98000002    2.39000010
   17.39888954  146.79499817    0.98000002    2.39000010
   17.40194321  142.91499329    0.98000002    2.39000010
   17.40527725  152.47599792    0.98000002    2.39000010
   17.40861130  140.69999695    0.98000002    2.39000010
   17.41444397  140.69999695    0.98000002    2.39000010
   17.41860962  135.41400146    0.98000002    2.39000010
   17.42166519  135.53100586    0.98000002    2.39000010
   17.42499924  140.74400330    0.98000002    2.39000010
   17.42777634  129.88099670    0.98000002    2.39000010
   17.42860985  135.04899597    0.98000002    2.39000010
   17.43194389  136.39399719    0.98000002    2.39000010
   17.43499947  128.87600708    0.98000002    2.39000010
   17.43833160  139.58999634    0.98000002    2.39000010
   17.44166565  142.92300415    0.98000002    2.39000010
   17.44472122  142.64599609    0.98000002    2.39000010
   17.44805527  145.65800476    0.98000002    2.39000010
   17.45111275  129.41000366    0.98000002    2.39000010
   17.45722389  129.41000366    0.98000002    2.39000010
   17.46138954  142.59800720    0.98000002    2.39000010
   17.46444511  138.51600647    0.98000002    2.39000010
   17.46777916  146.83000183    0.98000002    2.39000010
   17.47111130  142.40899658    0.98000002    2.39000010
   17.47416687  137.88900757    0.98000002    2.39000010
   17.47750092  159.39500427    0.98000002    2.39000010
   17.48083305  139.53199768    0.98000002    2.39000010
   17.48388863  146.97599792    0.98000002    2.39000010
   17.48722267  141.64599609    0.98000002    2.39000010
   17.49027824  144.28799438    0.98000002    2.39000010
   17.49361229  140.71800232    0.98000002    2.39000010
   17.49444389  153.33799744    0.98000002    2.39000010
   17.50000000  153.33799744    0.98000002    2.39000010
   17.50416756  134.56199646    0.98000002    2.39000010
   17.50749969  147.05200195    0.98000002    2.39000010
   17.51055527  148.43600464    0.98000002    2.39000010
   17.52805519  137.17700195    0.98000002    2.39000010
   17.53055573  141.23199463    0.98000002    2.39000010
   17.53388786  133.63999939    0.98000002    2.39000010
   17.53694344  139.67500305    0.98000002    2.39000010
   17.54305458  139.67500305    0.98000002    2.39000010
   17.54722214  130.68699646    0.98000002    2.39000010
   17.55055428  136.14999390    0.98000002    2.39000010
   17.55360985  146.68299866    0.98000002    2.39000010
   17.55694389  142.16000366    0.98000002    2.39000010
   17.55999947  139.59899902    0.98000002    2.39000010
   17.56138802  144.42999268    0.98000002    2.39000010
   17.56388855  145.77799988    0.98000002    2.39000010
   17.56722260  149.37699890    0.98000002    2.39000010
   17.57027817  138.07200623    0.98000002    2.39000010
   17.57361221  153.87300110    0.98000002    2.39000010
   17.57694626  146.22999573    0.98000002    2.39000010
   17.58000183  145.04100037    0.98000002    2.39000010
   17.58583450  145.04100037    0.98000002    2.39000010
   17.59000015  146.10000610    0.98000002    2.39000010
   17.59333420  139.46800232    0.98000002    2.39000010
   17.59472275  135.80599976    0.98000002    2.39000010
   17.59694481  139.66499329    0.98000002    2.39000010
   17.60027885  135.63200378    0.98000002    2.39000010
   17.60333443  141.95199585    0.98000002    2.39000010
   17.60666656  136.16799927    0.98000002    2.39000010
   17.60972214  141.49699402    0.98000002    2.39000010
   17.61305618  165.77000427    0.98000002    2.39000010
   17.61638832  147.60800171    0.98000002    2.39000010
   17.61944389  135.17999268    0.98000002    2.39000010
   17.62277794  142.33000183    0.98000002    2.39000010
   17.62888908  142.33000183    0.98000002    2.39000010
   17.63277817  140.35099792    0.98000002    2.39000010
   17.63611031  154.88999939    0.98000002    2.39000010
   17.63944435  138.50199890    0.98000002    2.39000010
   17.64249992  149.67700195    0.98000002    2.39000010
   17.64583397  143.86700439    0.98000002    2.39000010
   17.64916611  155.77999878    0.98000002    2.39000010
   17.65222168  139.57499695    0.98000002    2.39000010
   17.65555573  150.99899292    0.98000002    2.39000010
   17.65861130  149.95700073    0.98000002    2.39000010
   17.66138840  152.46000671    0.98000002    2.39000010
   17.66250038  160.85800171    0.98000002    2.39000010
   17.66583252  158.34899902    0.98000002    2.39000010
   17.67166519  158.34899902    0.98000002    2.39000010
   17.67583275  154.62600708    0.98000002    2.39000010
   17.67888832  143.22900391    0.98000002    2.39000010
   17.68222237  154.38900757    0.98000002    2.39000010
   17.68555450  149.11799622    0.98000002    2.39000010
   17.68861008  156.13999939    0.98000002    2.39000010
   17.69194412  137.20399475    0.98000002    2.39000010
   17.69472122  162.22099304    0.98000002    2.39000010
   17.69555473  150.53900146    0.98000002    2.39000010
   17.69888878  144.25700378    0.98000002    2.39000010
   17.70194435  155.03399658    0.98000002    2.39000010
   17.70527840  144.43099976    0.98000002    2.39000010
   17.70833397  145.92999268    0.98000002    2.39000010
   17.71444511  145.92999268    0.98000002    2.39000010
   17.71861076  137.19799805    0.98000002    2.39000010
   17.72194481  141.57499695    0.98000002    2.39000010
   17.72500038  166.46299744    0.98000002    2.39000010
   17.72805595  154.26600647    0.98000002    2.39000010
   17.72861099  144.26199341    0.98000002    2.39000010
   17.73194504  149.95100403    0.98000002    2.39000010
   17.73500061  163.09399414    0.98000002    2.39000010
   17.73833275  157.24600220    0.98000002    2.39000010
   17.74166679  161.30200195    0.98000002    2.39000010
   17.74472237  156.97500610    0.98000002    2.39000010
   17.74805641  172.94700623    0.98000002    2.39000010
   17.75138855  159.35299683    0.98000002    2.39000010
   17.75722313  159.35299683    0.98000002    2.39000010
   17.76138878  172.81100464    0.98000002    2.39000010
   17.76194382  179.68299866    0.98000002    2.39000010
   17.76527786  157.83599854    0.98000002    2.39000010
   17.76833344  185.44900513    0.98000002    2.39000010
   17.77166557  168.81799316    0.98000002    2.39000010
   17.77472115  156.76699829    0.98000002    2.39000010
   17.77805519  161.65100098    0.98000002    2.39000010
   17.78138924  162.85000610    0.98000002    2.39000010
   17.78444481  161.77499390    0.98000002    2.39000010
   17.78777695  161.62600708    0.98000002    2.39000010
   17.79111099  166.81300354    0.98000002    2.39000010
   17.79416656  154.21600342    0.98000002    2.39000010
   17.79472160  159.94799805    0.98000002    2.39000010
   17.80027771  159.94799805    0.98000002    2.39000010
   17.80416679  153.58200073    0.98000002    2.39000010
   17.80749893  149.73300171    0.98000002    2.39000010
   17.81083298  128.73699951    0.98000002    2.39000010
   17.81388855  137.84899902    0.98000002    2.39000010
   17.81722260  145.31700134    0.98000002    2.39000010
   17.82055664  165.16000366    0.98000002    2.39000010
   17.82361221  153.55099487    0.98000002    2.39000010
   17.82694626  156.10299683    0.98000002    2.39000010
   17.82805634  159.70500183    0.98000002    2.39000010
   17.83055687  154.20700073    0.98000002    2.39000010
   17.83388901  156.54400635    0.98000002    2.39000010
   17.83694458  154.03700256    0.98000002    2.39000010
   17.84305573  154.03700256    0.98000002    2.39000010
   17.84722328  152.44400024    0.98000002    2.39000010
   17.85027885  137.05999756    0.98000002    2.39000010
   17.85361099  152.52600098    0.98000002    2.39000010
   17.85694504  148.46899414    0.98000002    2.39000010
   17.86000061  140.68299866    0.98000002    2.39000010
   17.86138916  149.81300354    0.98000002    2.39000010
   17.86361122  153.39300537    0.98000002    2.39000010
   17.86694527  142.31900024    0.98000002    2.39000010
   17.87000084  156.48699951    0.98000002    2.39000010
   17.87333298  142.98199463    0.98000002    2.39000010
   17.87666702  155.66000366    0.98000002    2.39000010
   17.87972260  148.34700012    0.98000002    2.39000010
   17.88583374  148.34700012    0.98000002    2.39000010
   17.88999939  147.58000183    0.98000002    2.39000010
   17.89333344  145.29600525    0.98000002    2.39000010
   17.89472198  139.00900269    0.98000002    2.39000010
   17.89694405  135.39599609    0.98000002    2.39000010
   17.90027809  146.43600464    0.98000002    2.39000010
   17.90333366  151.94900513    0.98000002    2.39000010
   17.90666580  140.83299255    0.98000002    2.39000010
   17.90999985  155.96400452    0.98000002    2.39000010
   17.91305542  151.03500366    0.98000002    2.39000010
   17.91638756  141.61300659    0.98000002    2.39000010
   17.91944313  147.55900574    0.98000002    2.39000010
   17.92277718  146.39399719    0.98000002    2.39000010
   17.92860985  146.39399719    0.98000002    2.39000010
   17.93277740  151.87699890    0.98000002    2.39000010
   17.93610954  147.82800293    0.98000002    2.39000010
   17.93916512  146.51800537    0.98000002    2.39000010
   17.94249916  144.15699768    0.98000002    2.39000010
   17.94583321  143.25500488    0.98000002    2.39000010
   17.94888878  139.78700256    0.98000002    2.39000010
   17.95222282  150.56300354    0.98000002    2.39000010
   17.95555687  148.82499695    0.98000002    2.39000010
   17.95861244  137.24600220    0.98000002    2.39000010
   17.96138954  135.63200378    0.98000002    2.39000010
   17.96222305  135.40600586    0.98000002    2.39000010
   17.96555710  136.82400513    0.98000002    2.39000010
   17.97166634  136.82400513    0.98000002    2.39000010
   17.97555542  135.50999451    0.98000002    2.39000010
   17.97888947  148.20799255    0.98000002    2.39000010
   17.98222351  140.22099304    0.98000002    2.39000010
   17.98527718  137.24800110    0.98000002    2.39000010
   17.98861122  143.05099487    0.98000002    2.39000010
   17.99194527  141.30099487    0.98000002    2.39000010
   17.99472237  137.61799622    0.98000002    2.39000010
   17.99555588  146.82499695    0.98000002    2.39000010
   17.99888992  141.23199463    0.98000002    2.39000010
   18.00194359  137.78999329    0.98000002    2.39000010
   18.00527763  147.41200256    0.98000002    2.39000010
   18.00861168  145.66299438    0.98000002    2.39000010
   18.01444435  145.66299438    0.98000002    2.39000010
   18.01861000  145.12800598    0.98000002    2.39000010
   18.02166557  141.74800110    0.98000002    2.39000010
   18.02499962  149.87699890    0.98000002    2.39000010
   18.02805519  136.07499695    0.98000002    2.39000010
   18.02861023  144.27600098    0.98000002    2.39000010
   18.03194427  140.96400452    0.98000002    2.39000010
   18.03499985  138.88900757    0.98000002    2.39000010
   18.03833199  140.58399963    0.98000002    2.39000010
   18.04166603  141.78599548    0.98000002    2.39000010
   18.04472160  140.61500549    0.98000002    2.39000010
   18.04805565  143.54299927    0.98000002    2.39000010
   18.05111122  133.62600708    0.98000002    2.39000010
   18.05722237  133.62600708    0.98000002    2.39000010
   18.06138802  144.68699646    0.98000002    2.39000010
   18.06194305  152.12399292    0.98000002    2.39000010
   18.06527710  132.92900085    0.98000002    2.39000010
   18.06833458  138.59700012    0.98000002    2.39000010
   18.07166672  145.76199341    0.98000002    2.39000010
   18.07500076  139.25799561    0.98000002    2.39000010
   18.07805634  133.99600220    0.98000002    2.39000010
   18.08139038  133.10200500    0.98000002    2.39000010
   18.08444595  135.50700378    0.98000002    2.39000010
   18.08777809  129.21499634    0.98000002    2.39000010
   18.09111214  139.83099365    0.98000002    2.39000010
   18.09416771  143.12600708    0.98000002    2.39000010
   18.09527779  142.75900269    0.98000002    2.39000010
   18.10000038  142.75900269    0.98000002    2.39000010
   18.10416794  140.49099731    0.98000002    2.39000010
   18.10750008  136.28100586    0.98000002    2.39000010
   18.11055565  136.25900269    0.98000002    2.39000010
   18.11388969  141.82200623    0.98000002    2.39000010
   18.11722183  144.14399719    0.98000002    2.39000010
   18.12027740  148.16000366    0.98000002    2.39000010
   18.12361145  142.75900269    0.98000002    2.39000010
   18.12694550  136.50000000    0.98000002    2.39000010
   18.12861061  137.11000061    0.98000002    2.39000010
   18.13055611  139.62600708    0.98000002    2.39000010
   18.13361168  133.78399658    0.98000002    2.39000010
   18.13694382  135.11199951    0.98000002    2.39000010
   18.14305496  135.11199951    0.98000002    2.39000010
   18.14722252  140.35099792    0.98000002    2.39000010
   18.15027809  139.97200012    0.98000002    2.39000010
   18.15361023  129.29299927    0.98000002    2.39000010
   18.15666580  134.45500183    0.98000002    2.39000010
   18.15999985  142.29600525    0.98000002    2.39000010
   18.16194344  141.55200195    0.98000002    2.39000010
   18.16388893  132.33799744    0.98000002    2.39000010
   18.16694450  141.38699341    0.98000002    2.39000010
   18.17027664  139.95599365    0.98000002    2.39000010
   18.17333221  136.17999268    0.98000002    2.39000010
   18.17666626  136.12600708    0.98000002    2.39000010
   18.18000031  137.19099426    0.98000002    2.39000010
   18.18583298  137.19099426    0.98000002    2.39000010
   18.18999863  132.56399536    0.98000002    2.39000010
   18.19305420  141.65299988    0.98000002    2.39000010
   18.19527626  130.89700317    0.98000002    2.39000010
   18.19694328  141.21699524    0.98000002    2.39000010
   18.20000076  129.79699707    0.98000002    2.39000010
   18.20333481  138.08200073    0.98000002    2.39000010
   18.20639038  135.83799744    0.98000002    2.39000010
   18.20972252  135.11099243    0.98000002    2.39000010
   18.21305656  134.08599854    0.98000002    2.39000010
   18.21611214  138.19500732    0.98000002    2.39000010
   18.21944427  137.54100037    0.98000002    2.39000010
   18.22277832  123.58899689    0.98000002    2.39000010
   18.22861099  123.58899689    0.98000002    2.39000010
   18.23277855  137.13699341    0.98000002    2.39000010
   18.23611069  136.34899902    0.98000002    2.39000010
   18.23916626  132.60899353    0.98000002    2.39000010
   18.24250031  134.27600098    0.98000002    2.39000010
   18.24555588  138.58299255    0.98000002    2.39000010
   18.24888992  135.82200623    0.98000002    2.39000010
   18.25222206  138.06399536    0.98000002    2.39000010
   18.25527763  133.55700684    0.98000002    2.39000010
   18.25861168  130.35499573    0.98000002    2.39000010
   18.26194382  125.51499939    0.98000002    2.39000010
   18.26222229  135.82000732    0.98000002    2.39000010
   18.26555634  136.37199402    0.98000002    2.39000010
   18.27138901  136.37199402    0.98000002    2.39000010
   18.27555466  133.38499451    0.98000002    2.39000010
   18.27888870  127.92600250    0.98000002    2.39000010
   18.28194427  133.49600220    0.98000002    2.39000010
   18.28527641  132.16200256    0.98000002    2.39000010
   18.28861046  126.83599854    0.98000002    2.39000010
   18.29166603  133.98800659    0.98000002    2.39000010
   18.29500008  127.89099884    0.98000002    2.39000010
   18.29555511  135.14100647    0.98000002    2.39000010
   18.29861069  139.12399292    0.98000002    2.39000010
   18.30194283  123.33399963    0.98000002    2.39000010
   18.30499840  126.95700073    0.98000002    2.39000010
   18.30833244  132.91499329    0.98000002    2.39000010
   18.31416512  132.91499329    0.98000002    2.39000010
   18.31833458  130.64799500    0.98000002    2.39000010
   18.32166672  134.01800537    0.98000002    2.39000010
   18.32500076  135.38000488    0.98000002    2.39000010
   18.32805634  151.91900635    0.98000002    2.39000010
   18.32888985  141.58700562    0.98000002    2.39000010
   18.33166695  137.91200256    0.98000002    2.39000010
   18.33500099  126.17800140    0.98000002    2.39000010
   18.33805656  130.48500061    0.98000002    2.39000010
   18.34138870  136.98300171    0.98000002    2.39000010
   18.34472275  130.66299438    0.98000002    2.39000010
   18.34777832  130.25500488    0.98000002    2.39000010
   18.35111237  137.36300659    0.98000002    2.39000010
   18.35722351  137.36300659    0.98000002    2.39000010
   18.36138916  132.06700134    0.98000002    2.39000010
   18.36250114  131.81300354    0.98000002    2.39000010
   18.36472321  133.24000549    0.98000002    2.39000010
   18.36805534  137.56500244    0.98000002    2.39000010
   18.37111092  129.24899292    0.98000002    2.39000010
   18.37444496  131.82699585    0.98000002    2.39000010
   18.37777710  129.96400452    0.98000002    2.39000010
   18.38083267  148.10800171    0.98000002    2.39000010
   18.38416672  138.28300476    0.98000002    2.39000010
   18.38750076  135.49499512    0.98000002    2.39000010
   18.39055634  138.82200623    0.98000002    2.39000010
   18.39388847  135.05599976    0.98000002    2.39000010
   18.39583397  140.03999329    0.98000002    2.39000010
   18.39999962  140.03999329    0.98000002    2.39000010
   18.40416718  137.54899597    0.98000002    2.39000010
   18.40749931  131.86799622    0.98000002    2.39000010
   18.41055489  145.50700378    0.98000002    2.39000010
   18.41388893  131.58000183    0.98000002    2.39000010
   18.41722107  139.63900757    0.98000002    2.39000010
   18.42027664  140.74400330    0.98000002    2.39000010
   18.42361069  144.22700500    0.98000002    2.39000010
   18.42666626  143.72200012    0.98000002    2.39000010
   18.42916679  143.78500366    0.98000002    2.39000010
   18.43027687  144.91499329    0.98000002    2.39000010
   18.43361092  144.78999329    0.98000002    2.39000010
   18.43666649  149.02699280    0.98000002    2.39000010
   18.44277763  149.02699280    0.98000002    2.39000010
   18.44694328  186.22900391    0.98000002    2.39000010
   18.45027924  234.10699463    0.98000002    2.39000010
   18.45333481  197.21600342    0.98000002    2.39000010
   18.45666695  212.55900574    0.98000002    2.39000010
   18.46000099  198.46000671    0.98000002    2.39000010
   18.46250153  189.73100281    0.98000002    2.39000010
   18.46333504  189.40699768    0.98000002    2.39000010
   18.46666718  207.61099243    0.98000002    2.39000010
   18.46972275  225.60899353    0.98000002    2.39000010
   18.47305679  210.46099854    0.98000002    2.39000010
   18.47638893  209.62500000    0.98000002    2.39000010
   18.47944450  248.30000305    0.98000002    2.39000010
   18.48555565  248.30000305    0.98000002    2.39000010
   18.48972321  279.18200684    0.98000002    2.39000010
   18.49305534  246.42300415    0.98000002    2.39000010
   18.49583435  204.25999451    0.98000002    2.39000010
   18.49666786  213.43499756    0.98000002    2.39000010
   18.50000000  241.55799866    0.98000002    2.39000010
   18.50333405  223.24299622    0.98000002    2.39000010
   18.50638962  207.67399597    0.98000002    2.39000010
   18.50972176  235.75799561    0.98000002    2.39000010
   18.51277733  201.05900574    0.98000002    2.39000010
   18.51611137  189.21400452    0.98000002    2.39000010
   18.51944351  200.35200500    0.98000002    2.39000010
   18.52249908  187.05700684    0.98000002    2.39000010
   18.52861023  187.05700684    0.98000002    2.39000010
   18.54694366  204.36300659    0.98000002    2.39000010
   18.55027771  181.32699585    0.98000002    2.39000010
   18.55333328  184.61099243    0.98000002    2.39000010
   18.55666542  186.37699890    0.98000002    2.39000010
   18.55999947  222.73699951    0.98000002    2.39000010
   18.56305504  215.81199646    0.98000002    2.39000010
   18.56638718  179.82600403    0.98000002    2.39000010
   18.57166672  179.82600403    0.98000002    2.39000010
   18.57583427  167.17399597    0.98000002    2.39000010
   18.57888985  192.78199768    0.98000002    2.39000010
   18.58000183  177.02999878    0.98000002    2.39000010
   18.58277893  186.20399475    0.98000002    2.39000010
   18.58583450  175.84899902    0.98000002    2.39000010
   18.58916664  173.80299377    0.98000002    2.39000010
   18.59222221  170.55400085    0.98000002    2.39000010
   18.59555626  163.50999451    0.98000002    2.39000010
   18.59889030  171.28300476    0.98000002    2.39000010
   18.60194397  175.58900452    0.98000002    2.39000010
   18.60527802  178.78500366    0.98000002    2.39000010
   18.60861206  188.43400574    0.98000002    2.39000010
   18.61444473  188.43400574    0.98000002    2.39000010
   18.61861038  180.07400513    0.98000002    2.39000010
   18.62194443  154.83200073    0.98000002    2.39000010
   18.62500000  175.63600159    0.98000002    2.39000010
   18.62833405  181.22300720    0.98000002    2.39000010
   18.63138962  159.00799561    0.98000002    2.39000010
   18.63472176  161.53900146    0.98000002    2.39000010
   18.63805580  154.58999634    0.98000002    2.39000010
   18.64111137  158.55299377    0.98000002    2.39000010
   18.64444351  155.79200745    0.98000002    2.39000010
   18.64666748  148.22599792    0.98000002    2.39000010
   18.64833260  152.58900452    0.98000002    2.39000010
   18.65138817  174.50000000    0.98000002    2.39000010
   18.65722275  174.50000000    0.98000002    2.39000010
   18.66138840  148.48899841    0.98000002    2.39000010
   18.66472244  149.72500610    0.98000002    2.39000010
   18.66805458  155.19099426    0.98000002    2.39000010
   18.67111015  143.98399353    0.98000002    2.39000010
   18.67444420  159.03199768    0.98000002    2.39000010
   18.67749977  153.28900146    0.98000002    2.39000010
   18.68000031  150.08000183    0.98000002    2.39000010
   18.68138885  139.05099487    0.98000002    2.39000010
   18.68444443  145.54899597    0.98000002    2.39000010
   18.68777657  152.15600586    0.98000002    2.39000010
   18.69111061  141.99499512    0.98000002    2.39000010
   18.69416618  137.03300476    0.98000002    2.39000010
   18.70027924  137.03300476    0.98000002    2.39000010
   18.70444489  123.55400085    0.98000002    2.39000010
   18.70750046  143.63400269    0.98000002    2.39000010
   18.71083450  150.16999817    0.98000002    2.39000010
   18.71333504  143.41999817    0.98000002    2.39000010
   18.71444511  144.04899597    0.98000002    2.39000010
   18.71750069  141.16700745    0.98000002    2.39000010
   18.72083473  148.45700073    0.98000002    2.39000010
   18.72416687  146.16999817    0.98000002    2.39000010
   18.72722244  139.57299805    0.98000002    2.39000010
   18.73055649  146.78599548    0.98000002    2.39000010
   18.73361206  132.97599792    0.98000002    2.39000010
   18.73694420  136.74499512    0.98000002    2.39000010
   18.74305534  136.74499512    0.98000002    2.39000010
   18.74722290  135.23899841    0.98000002    2.39000010
   18.75027847  131.66099548    0.98000002    2.39000010
   18.75361061  126.65100098    0.98000002    2.39000010
   18.75694466  121.77300262    0.98000002    2.39000010
   18.76000023  120.75700378    0.98000002    2.39000010
   18.76333427  126.72699738    0.98000002    2.39000010
   18.76638794  121.63500214    0.98000002    2.39000010
   18.76972198  123.08699799    0.98000002    2.39000010
   18.77305603  124.55799866    0.98000002    2.39000010
   18.77611160  134.00999451    0.98000002    2.39000010
   18.77944374  124.82399750    0.98000002    2.39000010
   18.78000069  136.58000183    0.98000002    2.39000010
   18.78583336  136.58000183    0.98000002    2.39000010
   18.78999901  130.24699402    0.98000002    2.39000010
   18.79333305  129.19099426    0.98000002    2.39000010
   18.79638863  128.54499817    0.98000002    2.39000010
   18.79972076  138.46099854    0.98000002    2.39000010
   18.80305481  135.22700500    0.98000002    2.39000010
   18.80611038  135.32800293    0.98000002    2.39000010
   18.80944443  131.97500610    0.98000002    2.39000010
   18.81277657  127.04599762    0.98000002    2.39000010
   18.81333351  133.93499756    0.98000002    2.39000010
   18.81638718  135.25100708    0.98000002    2.39000010
   18.81944466  137.77900696    0.98000002    2.39000010
   18.82277870  130.12500000    0.98000002    2.39000010
   18.82861137  130.12500000    0.98000002    2.39000010
   18.83277893  126.41600037    0.98000002    2.39000010
   18.83611107  144.13099670    0.98000002    2.39000010
   18.83916664  139.37199402    0.98000002    2.39000010
   18.84250069  134.33999634    0.98000002    2.39000010
   18.84583473  148.52400208    0.98000002    2.39000010
   18.84666824  152.09599304    0.98000002    2.39000010
   18.84944534  149.94500732    0.98000002    2.39000010
   18.85250092  142.47700500    0.98000002    2.39000010
   18.85583305  143.19200134    0.98000002    2.39000010
   18.85888863  123.88300323    0.98000002    2.39000010
   18.86222267  133.82899475    0.98000002    2.39000010
   18.86555672  148.18600464    0.98000002    2.39000010
   18.87166595  148.18600464    0.98000002    2.39000010
   18.87555504  149.28500366    0.98000002    2.39000010
   18.87888908  136.35400391    0.98000002    2.39000010
   18.88000107  132.91499329    0.98000002    2.39000010
   18.88249969  140.92799377    0.98000002    2.39000010
   18.88555527  161.40499878    0.98000002    2.39000010
   18.88888931  173.10299683    0.98000002    2.39000010
   18.89222145  156.29699707    0.98000002    2.39000010
   18.89527702  173.71400452    0.98000002    2.39000010
   18.89861107  183.72099304    0.98000002    2.39000010
   18.90166664  143.67100525    0.98000002    2.39000010
   18.90527725  167.51499939    0.98000002    2.39000010
   18.90833282  177.42599487    0.98000002    2.39000010
   18.91444397  177.42599487    0.98000002    2.39000010
   18.91860962  176.25599670    0.98000002    2.39000010
   18.92166519  171.50900269    0.98000002    2.39000010
   18.92499924  153.59899902    0.98000002    2.39000010
   18.92833328  180.65600586    0.98000002    2.39000010
   18.93138885  202.75599670    0.98000002    2.39000010
   18.93472099  175.85800171    0.98000002    2.39000010
   18.93805504  198.05799866    0.98000002    2.39000010
   18.94111061  187.29100037    0.98000002    2.39000010
   18.94444275  192.58599854    0.98000002    2.39000010
   18.94666672  176.26400757    0.98000002    2.39000010
   18.94805527  178.01699829    0.98000002    2.39000010
   18.95111275  197.99000549    0.98000002    2.39000010
   18.95722389  197.99000549    0.98000002    2.39000010
   18.96138954  185.35600281    0.98000002    2.39000010
   18.96444511  164.39799500    0.98000002    2.39000010
   18.96777916  168.31599426    0.98000002    2.39000010
   18.97111130  162.07600403    0.98000002    2.39000010
   18.97416687  152.92700195    0.98000002    2.39000010
   18.97750092  149.90100098    0.98000002    2.39000010
   18.98000145  166.97099304    0.98000002    2.39000010
   18.98111153  161.34199524    0.98000002    2.39000010
   18.98416710  142.86900330    0.98000002    2.39000010
   18.98750114  147.26800537    0.98000002    2.39000010
   18.99083328  144.52600098    0.98000002    2.39000010
   18.99388885  167.05799866    0.98000002    2.39000010
   19.00000000  167.05799866    0.98000002    2.39000010
   19.00416756  140.44299316    0.98000002    2.39000010
   19.00749969  137.49099731    0.98000002    2.39000010
   19.01055527  141.44900513    0.98000002    2.39000010
   19.01333427  127.42500305    0.98000002    2.39000010
   19.01444435  137.92900085    0.98000002    2.39000010
   19.01749992  127.05500031    0.98000002    2.39000010
   19.02083397  137.08099365    0.98000002    2.39000010
   19.02416611  131.51899719    0.98000002    2.39000010
   19.02722168  143.72000122    0.98000002    2.39000010
   19.03055573  141.71800232    0.98000002    2.39000010
   19.03388786  136.91700745    0.98000002    2.39000010
   19.03694344  131.84500122    0.98000002    2.39000010
   19.04305458  131.84500122    0.98000002    2.39000010
   19.04694366  129.96800232    0.98000002    2.39000010
   19.05027771  135.46499634    0.98000002    2.39000010
   19.05360985  139.02299500    0.98000002    2.39000010
   19.05666542  140.15899658    0.98000002    2.39000010
   19.05999947  125.29000092    0.98000002    2.39000010
   19.06333351  134.94000244    0.98000002    2.39000010
   19.06638718  128.52000427    0.98000002    2.39000010
   19.06972313  138.91400146    0.98000002    2.39000010
   19.07277870  121.66400146    0.98000002    2.39000010
   19.07611275  130.09300232    0.98000002    2.39000010
   19.07944489  123.68800354    0.98000002    2.39000010
   19.08000183  127.17199707    0.98000002    2.39000010
   19.08583450  127.17199707    0.98000002    2.39000010
   19.09000015  121.28600311    0.98000002    2.39000010
   19.09305573  123.55300140    0.98000002    2.39000010
   19.09638977  133.52900696    0.98000002    2.39000010
   19.09944534  127.81800079    0.98000002    2.39000010
   19.10277748  134.98699951    0.98000002    2.39000010
   19.10611153  139.63600159    0.98000002    2.39000010
   19.10944557  133.39399719    0.98000002    2.39000010
   19.11250114  122.77600098    0.98000002    2.39000010
   19.11333466  132.70399475    0.98000002    2.39000010
   19.11638832  136.26199341    0.98000002    2.39000010
   19.11944389  127.03099823    0.98000002    2.39000010
   19.12277794  138.52200317    0.98000002    2.39000010
   19.12861061  138.52200317    0.98000002    2.39000010
   19.13277817  124.92800140    0.98000002    2.39000010
   19.13611031  125.05699921    0.98000002    2.39000010
   19.13916588  126.39700317    0.98000002    2.39000010
   19.14249992  121.61399841    0.98000002    2.39000010
   19.14555550  130.40899658    0.98000002    2.39000010
   19.14666748  124.75000000    0.98000002    2.39000010
   19.14944458  122.77700043    0.98000002    2.39000010
   19.15277672  129.63000488    0.98000002    2.39000010
   19.15583229  127.40699768    0.98000002    2.39000010
   19.15916634  119.76200104    0.98000002    2.39000010
   19.16222191  121.97699738    0.98000002    2.39000010
   19.16555595  120.08399963    0.98000002    2.39000010
   19.17138863  120.08399963    0.98000002    2.39000010
   19.17555428  117.11499786    0.98000002    2.39000010
   19.17888832  125.35199738    0.98000002    2.39000010
   19.18000031  122.62400055    0.98000002    2.39000010
   19.18249893  118.46399689    0.98000002    2.39000010
   19.18583298  127.07499695    0.98000002    2.39000010
   19.18888855  124.84600067    0.98000002    2.39000010
   19.19222069  125.78399658    0.98000002    2.39000010
   19.19555473  125.33100128    0.98000002    2.39000010
   19.19861031  132.33200073    0.98000002    2.39000010
   19.20194435  130.01199341    0.98000002    2.39000010
   19.20499992  139.71600342    0.98000002    2.39000010
   19.20833397  136.97300720    0.98000002    2.39000010
   19.21444511  136.97300720    0.98000002    2.39000010
   19.21833420  132.78999329    0.98000002    2.39000010
   19.22166634  123.75399780    0.98000002    2.39000010
   19.22500038  130.31500244    0.98000002    2.39000010
   19.22805595  123.37000275    0.98000002    2.39000010
   19.23139000  130.44200134    0.98000002    2.39000010
   19.23472214  128.94900513    0.98000002    2.39000010
   19.23777771  123.12599945    0.98000002    2.39000010
   19.24111176  134.81300354    0.98000002    2.39000010
   19.24416733  125.29199982    0.98000002    2.39000010
   19.24666786  132.16900635    0.98000002    2.39000010
   19.24805641  128.51199341    0.98000002    2.39000010
   19.25138855  127.88099670    0.98000002    2.39000010
   19.25722313  127.88099670    0.98000002    2.39000010
   19.26138878  127.08300018    0.98000002    2.39000010
   19.26444435  130.39399719    0.98000002    2.39000010
   19.26777840  130.99400330    0.98000002    2.39000010
   19.27111053  126.33699799    0.98000002    2.39000010
   19.27416611  123.22799683    0.98000002    2.39000010
   19.27750015  129.44299316    0.98000002    2.39000010
   19.28000069  124.76599884    0.98000002    2.39000010
   19.28111076  124.13500214    0.98000002    2.39000010
   19.28416634  124.91799927    0.98000002    2.39000010
   19.28750038  123.73799896    0.98000002    2.39000010
   19.29083252  130.01499939    0.98000002    2.39000010
   19.29388809  128.10200500    0.98000002    2.39000010
   19.29999924  128.10200500    0.98000002    2.39000010
   19.30416679  129.16200256    0.98000002    2.39000010
   19.30722237  127.87200165    0.98000002    2.39000010
   19.31055450  124.89099884    0.98000002    2.39000010
   19.31333351  130.96099854    0.98000002    2.39000010
   19.31416512  127.33200073    0.98000002    2.39000010
   19.31750107  127.21800232    0.98000002    2.39000010
   19.32055664  123.00900269    0.98000002    2.39000010
   19.32389069  128.14799500    0.98000002    2.39000010
   19.32694626  122.16899872    0.98000002    2.39000010
   19.33027840  129.06900024    0.98000002    2.39000010
   19.33361244  124.99900055    0.98000002    2.39000010
   19.33666801  128.18099976    0.98000002    2.39000010
   19.34277916  128.18099976    0.98000002    2.39000010
   19.34694481  123.00499725    0.98000002    2.39000010
   19.35027885  134.24200439    0.98000002    2.39000010
   19.35333443  126.99400330    0.98000002    2.39000010
   19.35666656  128.52799988    0.98000002    2.39000010
   19.36000061  125.53299713    0.98000002    2.39000010
   19.36305618  130.04899597    0.98000002    2.39000010
   19.36638832  127.91000366    0.98000002    2.39000010
   19.36972237  130.14500427    0.98000002    2.39000010
   19.37277794  129.05400085    0.98000002    2.39000010
   19.37611198  130.32600403    0.98000002    2.39000010
   19.37944412  132.51100159    0.98000002    2.39000010
   19.38000107  122.13200378    0.98000002    2.39000010
   19.38555527  122.13200378    0.98000002    2.39000010
   19.38972282  126.75099945    0.98000002    2.39000010
   19.39305496  128.99400330    0.98000002    2.39000010
   19.39638901  127.55100250    0.98000002    2.39000010
   19.39944458  127.77700043    0.98000002    2.39000010
   19.40277672  128.49899292    0.98000002    2.39000010
   19.40611076  127.35600281    0.98000002    2.39000010
   19.40916634  129.34199524    0.98000002    2.39000010
   19.41250038  132.73800659    0.98000002    2.39000010
   19.41333389  133.71899414    0.98000002    2.39000010
   19.41611099  127.72200012    0.98000002    2.39000010
   19.41944313  129.87800598    0.98000002    2.39000010
   19.42249870  129.34800720    0.98000002    2.39000010
   19.42860985  129.34800720    0.98000002    2.39000010
   19.43277740  126.11299896    0.98000002    2.39000010
   19.43583298  135.04800415    0.98000002    2.39000010
   19.43916512  126.15499878    0.98000002    2.39000010
   19.44249916  131.33099365    0.98000002    2.39000010
   19.44555473  132.09399414    0.98000002    2.39000010
   19.44666672  136.33900452    0.98000002    2.39000010
   19.44916534  126.16200256    0.98000002    2.39000010
   19.45250130  129.05200195    0.98000002    2.39000010
   19.45555687  139.12699890    0.98000002    2.39000010
   19.45888901  132.52299500    0.98000002    2.39000010
   19.46222305  136.70799255    0.98000002    2.39000010
   19.46527863  138.57400513    0.98000002    2.39000010
   19.47138977  138.57400513    0.98000002    2.39000010
   19.47555542  132.42900085    0.98000002    2.39000010
   19.47861099  133.92999268    0.98000002    2.39000010
   19.48000145  132.26100159    0.98000002    2.39000010
   19.48250008  149.35000610    0.98000002    2.39000010
   19.48583412  132.24099731    0.98000002    2.39000010
   19.48888969  129.65899658    0.98000002    2.39000010
   19.49222183  138.80400085    0.98000002    2.39000010
   19.49555588  138.71000671    0.98000002    2.39000010
   19.49861145  128.47200012    0.98000002    2.39000010
   19.50194359  146.20899963    0.98000002    2.39000010
   19.50499916  133.24800110    0.98000002    2.39000010
   19.50833321  140.08500671    0.98000002    2.39000010
   19.51416588  140.08500671    0.98000002    2.39000010
   19.51833344  130.56900024    0.98000002    2.39000010
   19.52166557  125.66600037    0.98000002    2.39000010
   19.52472115  128.87899780    0.98000002    2.39000010
   19.52805519  128.14599609    0.98000002    2.39000010
   19.53138924  127.00399780    0.98000002    2.39000010
   19.53444481  119.60800171    0.98000002    2.39000010
   19.53777695  127.21600342    0.98000002    2.39000010
   19.54111099  122.53900146    0.98000002    2.39000010
   19.54416656  128.51300049    0.98000002    2.39000010
   19.54666710  125.92600250    0.98000002    2.39000010
   19.56750107  125.92600250    0.98000002    2.39000010
   19.57139015  131.72700500    0.98000002    2.39000010
   19.57472229  129.31599426    0.98000002    2.39000010
   19.57805634  124.19499969    0.98000002    2.39000010
   19.58000183  123.31099701    0.98000002    2.39000010
   19.58166695  126.64399719    0.98000002    2.39000010
   19.58500099  133.02400208    0.98000002    2.39000010
   19.58805656  127.55200195    0.98000002    2.39000010
   19.59138870  125.24600220    0.98000002    2.39000010
   19.59472275  124.10800171    0.98000002    2.39000010
   19.59777832  134.34899902    0.98000002    2.39000010
   19.60111237  131.88900757    0.98000002    2.39000010
   19.60416794  131.01800537    0.98000002    2.39000010
   19.61000061  131.01800537    0.98000002    2.39000010
   19.61416626  124.07700348    0.98000002    2.39000010
   19.61750031  136.02299500    0.98000002    2.39000010
   19.62083435  127.16600037    0.98000002    2.39000010
   19.62388992  130.01800537    0.98000002    2.39000010
   19.62722206  128.42599487    0.98000002    2.39000010
   19.63027763  128.21899414    0.98000002    2.39000010
   19.63361168  125.15799713    0.98000002    2.39000010
   19.63694382  125.66300201    0.98000002    2.39000010
   19.63999939  123.56800079    0.98000002    2.39000010
   19.64333344  126.75599670    0.98000002    2.39000010
   19.64666748  125.87599945    0.98000002    2.39000010
   19.64722252  122.17600250    0.98000002    2.39000010
   19.65305519  122.17600250    0.98000002    2.39000010
   19.65722275  127.32900238    0.98000002    2.39000010
   19.66027832  131.77000427    0.98000002    2.39000010
   19.66361046  136.12399292    0.98000002    2.39000010
   19.66666603  133.41000366    0.98000002    2.39000010
   19.67000008  139.35400391    0.98000002    2.39000010
   19.67333221  139.26600647    0.98000002    2.39000010
   19.67638779  127.04199982    0.98000002    2.39000010
   19.67972183  140.04200745    0.98000002    2.39000010
   19.68055534  132.11199951    0.98000002    2.39000010
   19.68333244  129.42100525    0.98000002    2.39000010
   19.68666649  135.17799377    0.98000002    2.39000010
   19.68972206  133.61000061    0.98000002    2.39000010
   19.69583321  133.61000061    0.98000002    2.39000010
   19.70000076  130.97999573    0.98000002    2.39000010
   19.70305634  129.42399597    0.98000002    2.39000010
   19.70639038  143.69700623    0.98000002    2.39000010
   19.70972252  138.70199585    0.98000002    2.39000010
   19.71277809  135.96299744    0.98000002    2.39000010
   19.71389008  129.67599487    0.98000002    2.39000010
   19.71638870  130.47399902    0.98000002    2.39000010
   19.71972275  139.83799744    0.98000002    2.39000010
   19.72277832  130.07899475    0.98000002    2.39000010
   19.72611237  141.51899719    0.98000002    2.39000010
   19.72944450  138.95599365    0.98000002    2.39000010
   19.73250008  134.11999512    0.98000002    2.39000010
   19.73861122  134.11999512    0.98000002    2.39000010
   19.74277878  145.09300232    0.98000002    2.39000010
   19.74611092  140.56399536    0.98000002    2.39000010
   19.74722290  138.29100037    0.98000002    2.39000010
   19.74972153  147.30099487    0.98000002    2.39000010
   19.75305557  143.76300049    0.98000002    2.39000010
   19.75611115  149.08200073    0.98000002    2.39000010
   19.75944519  139.34800720    0.98000002    2.39000010
   19.76277733  127.71700287    0.98000002    2.39000010
   19.76583290  137.55099487    0.98000002    2.39000010
   19.76916695  138.19999695    0.98000002    2.39000010
   19.77249908  144.67900085    0.98000002    2.39000010
   19.77555466  147.13800049    0.98000002    2.39000010
   19.78138924  147.13800049    0.98000002    2.39000010
   19.78555489  145.06399536    0.98000002    2.39000010
   19.78888893  155.57200623    0.98000002    2.39000010
   19.79222107  145.44099426    0.98000002    2.39000010
   19.79527664  131.72500610    0.98000002    2.39000010
   19.79861069  116.18000031    0.98000002    2.39000010
   19.80166626  132.12899780    0.98000002    2.39000010
   19.80499840  155.11599731    0.98000002    2.39000010
   19.80833244  163.12899780    0.98000002    2.39000010
   19.81138802  166.27400208    0.98000002    2.39000010
   19.81388855  189.74099731    0.98000002    2.39000010
   19.81499863  180.12300110    0.98000002    2.39000010
   19.81833458  218.01499939    0.98000002    2.39000010
   19.82444572  218.01499939    0.98000002    2.39000010
   19.82861137   -1.00000000    0.98000002    2.39000010
   19.83166695   -1.00000000    0.98000002    2.39000010
   19.83500099   -1.00000000    0.98000002    2.39000010
   19.83805656   -1.00000000    0.98000002    2.39000010
   19.84138870   -1.00000000    0.98000002    2.39000010
   19.84472275   -1.00000000    0.98000002    2.39000010
