    HOUR (UT)   FLARE FACTOR    SKY TESTER    SUN TESTER
   11.43888855   -1.00000000   -1.00000000   -1.00000000
   11.50611115   92.08679962    4.90999985    2.09999990
   11.50916672   89.34680176    4.90999985    2.11999989
   11.51249981   98.63269806    4.90999985    2.09999990
   11.51583290   97.83380127    4.90999985    2.13000011
   11.51888847   93.15570068    4.90999985    2.13000011
   11.52222157   98.56559753    4.90999985    2.11999989
   11.52638817   98.56559753    4.90999985    2.13000011
   11.53055573   90.07900238    4.90999985    2.13000011
   11.53361130   93.18509674    4.90999985    2.13000011
   11.53694534   90.05899811    4.90999985    2.15000010
   11.53944492  103.07099915    4.90999985    2.15000010
   11.54055595   92.20960236    4.90999985    2.13000011
   11.54388905   98.26969910    4.90999985    2.15000010
   11.54694462   92.15139771    4.90999985    2.17000008
   11.55027771   86.52420044    4.90999985    2.17000008
   11.55361176   99.94380188    4.90999985    2.17000008
   11.55666733   93.82399750    4.90999985    2.17000008
   11.56083393   93.82399750    4.90999985    2.17000008
   11.56500053   95.66069794    4.90999985    2.19000006
   11.56833363   89.68969727    4.90999985    2.19000006
   11.57138920   92.86689758    4.90999985    2.19000006
   11.57277775   93.35600281    4.90999985    2.19000006
   11.57499981   98.85990143    4.90999985    2.19000006
   11.57833290   89.20899963    4.90999985    2.19000006
   11.58166695   88.78780365    4.90999985    2.19000006
   11.58472157   86.78220367    4.90999985    2.19000006
   11.58805561   89.17189789    4.90999985    2.21000004
   11.59111118   98.17590332    4.90999985    2.21000004
   11.59527779   98.17590332    4.90999985    2.19000006
   11.59944439   94.55879974    4.90999985    2.19000006
   11.60277843   96.84490204    4.90999985    2.21000004
   11.60611153   96.54660034    4.90999985    2.19000006
   11.60638905   98.28900146    4.90999985    2.19000006
   11.60972214  105.89900208    4.90999985    2.21000004
   11.61305618   93.02660370    4.90999985    2.21000004
   11.61611176   94.34359741    4.90999985    2.21000004
   11.61944485   90.40149689    4.90999985    2.21000004
   11.62250042   90.11430359    4.90999985    2.21000004
   11.62583351  100.84700012    4.90999985    2.23000002
   11.63000011  100.84700012    4.90999985    2.21000004
   11.63416672   95.04830170    4.90999985    2.21000004
   11.63722229   96.17489624    4.90999985    2.21000004
   11.63944435   95.87909698    4.90999985    2.21000004
   11.64083290   95.61530304    4.90999985    2.21000004
   11.64416695   93.20619965    4.90999985    2.21000004
   11.64750004   91.91799927    4.90999985    2.23000002
   11.65055561   92.66549683    4.90999985    2.21000004
   11.65388870   89.48619843    4.90999985    2.21000004
   11.65722179   89.44409943    4.90999985    2.23000002
   11.66027737   92.05509949    4.90999985    2.21000004
   11.66444397   92.05509949    4.90999985    2.21000004
   11.66861153   93.61009979    4.90999985    2.23000002
   11.67194462   89.78299713    4.90999985    2.23000002
   11.67277813   89.65029907    4.90999985    2.23000002
   11.67527771   92.77050018    4.90999985    2.23000002
   11.67861176   87.79820251    4.90999985    2.23000002
   11.68194485   87.60130310    4.90999985    2.23000002
   11.68500042   96.31600189    4.90999985    2.23000002
   11.68833351   96.14209747    4.90999985    2.23000002
   11.69166660   91.59049988    4.90999985    2.23000002
   11.69472218   95.02749634    4.90999985    2.23000002
   11.69916630   95.02749634    4.90999985    2.23000002
   11.70305538   92.26129913    4.90999985    2.25000000
   11.70611095   93.75890350    4.90999985    2.25000000
   11.70666695   84.97409821    4.90999985    2.25000000
   11.71000004   91.54730225    4.90999985    2.26999998
   11.71333313   88.52380371    4.90999985    2.26999998
   11.71638870   90.82180023    4.90999985    2.26999998
   11.71972179   90.15789795    4.90999985    2.28999996
   11.72277737   92.76460266    4.90999985    2.28999996
   11.72611046   97.48169708    4.90999985    2.28999996
   11.72944355   89.13099670    4.90999985    2.30999994
   11.73361111   89.13099670    4.90999985    2.28999996
   11.73777771   94.56069946    4.90999985    2.30999994
   11.73944473   93.18029785    4.90999985    2.28999996
   11.74138927   85.61499786    4.90999985    2.32999992
   11.74444485   90.12920380    4.90999985    2.30999994
   11.74777794   86.14350128    4.90999985    2.32999992
   11.75111103   86.96389771    4.90999985    2.30999994
   11.75416660   91.90720367    4.90999985    2.32999992
   11.75749969   93.82219696    4.90999985    2.32999992
   11.76055527   90.21119690    4.90999985    2.32999992
   11.76388931   92.87899780    4.90999985    2.32999992
   11.76805496   92.87899780    4.90999985    2.34999990
   11.77222157   86.68329620    4.90999985    2.34999990
   11.77277756   90.70480347    4.90999985    2.34999990
   11.77555561  101.08100128    4.90999985    2.34999990
   11.77888870   94.94129944    4.90999985    2.34999990
   11.78222179   91.21890259    4.90999985    2.34999990
   11.78527832   90.58000183    4.90999985    2.36999989
   11.78861141   86.99369812    4.90999985    2.36999989
   11.79194450   85.65969849    4.90999985    2.39000010
   11.79500008   89.03549957    4.90999985    2.39000010
   11.79833412   88.65080261    4.90999985    2.39000010
   11.80249977   88.65080261    4.90999985    2.36999989
   11.80666733   88.32089996    4.90999985    2.39000010
   11.81000042   86.97309875    4.90999985    2.36999989
   11.81305599   92.26709747    4.90999985    2.36999989
   11.81638908   88.81250000    4.90999985    2.36999989
   11.81972218   84.02010345    4.90999985    2.39000010
   11.82277775   83.36990356    4.90999985    2.36999989
   11.82611084   93.12699890    4.90999985    2.36999989
   11.82916641   90.25319672    4.90999985    2.36999989
   11.83249950   87.16690063    4.90999985    2.36999989
   11.83694458   87.16690063    4.90999985    2.36999989
   11.84111118   85.87169647    4.90999985    2.34999990
   11.84444427   87.56240082    4.90999985    2.34999990
   11.84777737   90.20089722    4.90999985    2.36999989
   11.85083389   89.20690155    4.90999985    2.34999990
   11.85416698   96.59279633    4.90999985    2.34999990
   11.85722256   90.02780151    4.90999985    2.34999990
   11.86055565   91.44629669    4.90999985    2.34999990
   11.86388969   92.90260315    4.90999985    2.36999989
   11.86694431   86.16400146    4.90999985    2.36999989
   11.87166691   86.16400146    4.90999985    2.36999989
   11.87583351   87.36990356    4.90999985    2.36999989
   11.87888908   90.88469696    4.90999985    2.39000010
   11.88222218   86.55359650    4.90999985    2.39000010
   11.88527775   87.32240295    4.90999985    2.40000010
   11.88861084   92.22280121    4.90999985    2.40000010
   11.89194393   84.92389679    4.90999985    2.40000010
   11.89499950   89.27459717    4.90999985    2.40000010
   11.89833355   88.84570313    4.90999985    2.44000006
   11.90166664   92.77390289    4.90999985    2.44000006
   11.90611076   92.77390289    4.90999985    2.44000006
   11.91027737   83.37760162    4.90999985    2.44000006
   11.91333294   88.58709717    4.90999985    2.44000006
   11.91666698   86.16449738    4.90999985    2.44000006
   11.92000008   86.39910126    4.51000023    2.44000006
   11.92305565   91.00550079    4.00000000    2.44000006
   11.92638874   88.26830292    3.46000004    2.44000006
   11.92972279   92.01940155    3.16000009    2.44000006
   11.93277836   97.68240356    2.94000006    2.42000008
   11.93611145   92.80359650    2.78999996    2.44000006
   11.94055557   92.80359650    2.64000010    2.44000006
   11.94472218   96.21970367    2.57999992    2.42000008
   11.94805527   90.21970367    2.57999992    2.44000006
   11.95111084   88.59649658    2.51999998    2.44000006
   11.95444393   85.53160095    2.44000006    2.46000004
   11.95777798   92.35639954    2.39000010    2.44000006
   11.96083355   89.25949860    2.30999994    2.44000006
   11.96416664   90.89880371    2.25000000    2.44000006
   11.96722221   84.20169830    2.17000008    2.44000006
   11.97055531   84.49359894    2.11999989    2.42000008
   11.97499943   84.49359894    2.05999994    2.36999989
   11.97916603   84.08329773    1.98000002    2.26999998
   11.98249912   88.14320374    1.91999996    2.19000006
   11.98555565   88.71880341    1.91999996    2.19000006
   11.98888874   90.02510071    1.89999998    2.17000008
   11.99222279   86.39080048    1.86000001    2.07999992
   11.99527836   93.34739685    1.85000002    2.01999998
   11.99861145   82.38120270    1.78999996    1.80999994
   12.00194454   86.44380188    1.73000002    1.63000000
   12.00500011   93.33419800    1.71000004    1.48000002
   12.00972176   93.33419800    1.64999998    1.23000002
   12.01361084   95.81600189    1.61000001    1.05999994
   12.01694393   84.90489960    1.58000004    0.92000002
   12.02027798   86.44699860    1.55999994    0.80000001
   12.02333355   85.92400360    1.51999998    0.70999998
   12.02666664   93.32839966    1.48000002    0.67000002
   12.02999973   92.01480103    1.46000004    0.61000001
   12.03333378   94.09210205    1.44000006    0.61000001
   12.03666687   87.13999939    1.41999996    0.61000001
   12.03972244   84.05229950    1.38000000    0.61000001
   12.04444504   84.05229950    1.36000001    0.63000000
   12.04888916   90.57330322    1.33000004    0.67000002
   12.05222225   87.51809692    1.28999996    0.69000000
   12.05555534   87.84480286    1.26999998    0.70999998
   12.05888939  100.21700287    1.26999998    0.70999998
   12.06194496   85.60260010    1.23000002    0.73000002
   12.06527805   87.42449951    1.21000004    0.73000002
   12.06861115   88.97399902    1.19000006    0.75000000
   12.07194424   93.64089966    1.16999996    0.75000000
   12.07888889   93.64089966    1.13000000    0.73000002
   12.08305550   89.14749908    1.11000001    0.73000002
   12.08611107   88.66269684    1.09000003    0.73000002
   12.08944416   90.30280304    1.07000005    0.73000002
   12.09249973   89.12210083    1.07000005    0.73000002
   12.09583282   93.22799683    1.05999994    0.73000002
   12.09916592   86.00289917    1.03999996    0.70999998
   12.10222244   86.33039856    1.01999998    0.73000002
   12.10555553   91.56590271    1.00000000    0.73000002
   12.10888958   88.59549713    1.00000000    0.70999998
   12.11333370   88.59549713    0.98000002    0.70999998
   12.11750031   86.87590027    0.95999998    0.70999998
   12.12083340   90.20649719    0.95999998    0.70999998
   12.12416649   82.51640320    0.94000000    0.70999998
   12.12750053   86.51689911    0.92000002    0.70999998
   12.13083363   87.01029968    0.92000002    0.70999998
   12.13388920   89.45970154    0.89999998    0.70999998
   12.13722229   86.52210236    0.88000000    0.70999998
   12.14083290   88.04309845    0.88000000    0.70999998
   12.14777756   88.04309845    0.86000001    0.69000000
   12.15194416   90.91230011    0.83999997    0.67000002
   12.15527725   91.52469635    0.83999997    0.67000002
   12.15861034   92.49590302    0.81999999    0.64999998
   12.16166592   93.39219666    0.80000001    0.64999998
   12.16499996   91.11540222    0.80000001    0.64999998
   12.16833401   90.97979736    0.80000001    0.64999998
   12.17305565   86.18350220    0.79000002    0.63000000
   12.17638874   94.10990143    0.79000002    0.63000000
   12.18388939   94.10990143    0.76999998    0.58999997
   12.18833351   92.45909882    0.76999998    0.58999997
   12.19166660   87.48529816    0.75000000    0.58999997
   12.19499969   88.18000031    0.75000000    0.56999999
   12.19833374   91.13950348    0.73000002    0.56999999
   12.20166683   85.58370209    0.70999998    0.55000001
   12.20499992   91.55090332    0.70999998    0.55000001
   12.20833302   86.03679657    0.70999998    0.55000001
   12.21166611   86.12190247    0.69000000    0.55000001
   12.21694374   86.12190247    0.67000002    0.52999997
   12.22111034   90.27940369    0.69000000    0.52999997
   12.22444439   92.29290009    0.67000002    0.51999998
   12.22777748   91.00599670    0.67000002    0.51999998
   12.23111057   83.57039642    0.64999998    0.50000000
   12.23472214   88.29709625    0.64999998    0.51999998
   12.23861122   89.16490173    0.64999998    0.50000000
   12.24222279   94.32929993    0.63000000    0.50000000
   12.24555588   87.05280304    0.63000000    0.47999999
   12.25138855   87.05280304    0.63000000    0.47999999
   12.25555515   93.90630341    0.61000001    0.47999999
   12.25888920   91.41709900    0.58999997    0.47999999
   12.26249981   95.74960327    0.61000001    0.47999999
   12.26583290   89.50319672    0.58999997    0.47999999
   12.26916599   91.82569885    0.58999997    0.46000001
   12.27250004   86.28170013    0.56999999    0.46000001
   12.27583313   86.88009644    0.56999999    0.47999999
   12.27916622   86.48950195    0.56999999    0.46000001
   12.28583336   86.48950195    0.55000001    0.46000001
   12.29000092   88.20680237    0.55000001    0.46000001
   12.29333401   91.26270294    0.55000001    0.46000001
   12.29666710   87.13600159    0.52999997    0.46000001
   12.30000019   87.03929901    0.52999997    0.46000001
   12.30361176   88.73149872    0.52999997    0.46000001
   12.30666733   86.85320282    0.52999997    0.46000001
   12.31000042   81.41100311    0.51999998    0.46000001
   12.31333351   85.52670288    0.51999998    0.46000001
   12.31666660   84.11460114    0.52999997    0.46000001
   12.32111073   84.11460114    0.51999998    0.44000000
   12.32555580   85.01439667    0.51999998    0.44000000
   12.32861137   85.83789825    0.51999998    0.44000000
   12.33194447   82.85379791    0.50000000    0.44000000
   12.33527756   87.84889984    0.50000000    0.41999999
   12.33861065   85.53730011    0.50000000    0.41999999
   12.34166622   85.74949646    0.51999998    0.41999999
   12.34499931   93.36470032    0.50000000    0.41999999
   12.34833336   91.00440216    0.50000000    0.41999999
   12.35138893   93.56439972    0.50000000    0.41999999
   12.35555553   93.56439972    0.47999999    0.40000001
   12.35972214   96.55030060    0.47999999    0.41999999
   12.36305618   90.77649689    0.47999999    0.40000001
   12.36611176   86.16130066    0.47999999    0.40000001
   12.36944485   90.60659790    0.47999999    0.40000001
   12.37277794   90.59919739    0.47999999    0.38000000
   12.37611103   93.75499725    0.47999999    0.38000000
   12.37944412   93.04699707    0.46000001    0.38000000
   12.38277817   84.17420197    0.46000001    0.40000001
   12.38666630   89.13369751    0.46000001    0.38000000
   12.39083290   89.13369751    0.46000001    0.38000000
   12.39499950   86.75769806    0.44000000    0.38000000
   12.39833355   91.60449982    0.46000001    0.36000001
   12.40138817   91.14360046    0.44000000    0.36000001
   12.40472221   90.20320129    0.44000000    0.36000001
   12.40805531   88.09130096    0.44000000    0.36000001
   12.41111088   92.12259674    0.44000000    0.36000001
   12.41444397   94.73500061    0.44000000    0.36000001
   12.41777802   90.64119720    0.41999999    0.34000000
   12.42111111   91.11299896    0.41999999    0.34000000
   12.42555618   91.11299896    0.41999999    0.34000000
   12.43000031   90.05789948    0.41999999    0.31999999
   12.43305588   92.93430328    0.41999999    0.31999999
   12.43638897   90.78800201    0.41999999    0.31999999
   12.43972206   92.07569885    0.40000001    0.31999999
   12.44305515   87.77539825    0.40000001    0.31999999
   12.44611073   96.42400360    0.40000001    0.30000001
   12.44944477   94.77590179    0.40000001    0.30000001
   12.45277786   93.40290070    0.38000000    0.31999999
   12.45611095   89.49700165    0.38000000    0.30000001
   12.46027756   89.49700165    0.38000000    0.30000001
   12.46444416   92.44329834    0.38000000    0.28000000
   12.46777725   94.13990021    0.38000000    0.28000000
   12.47111034   92.89630127    0.38000000    0.28000000
   12.47444439   89.10299683    0.36000001    0.28000000
   12.47777748   90.73490143    0.36000001    0.25999999
   12.48111057   90.93060303    0.36000001    0.25999999
   12.48444462   91.93060303    0.36000001    0.25999999
   12.48750019   92.99590302    0.36000001    0.25999999
   12.49083328   94.28749847    0.36000001    0.25999999
   12.49527836   94.28749847    0.36000001    0.25000000
   12.49944496   94.38339996    0.36000001    0.25000000
   12.50249958   88.27159882    0.34000000    0.25000000
   12.50583363   83.59660339    0.34000000    0.25000000
   12.52555561   90.95680237    0.34000000    0.23000000
   12.52972221   90.95680237    0.34000000    0.20999999
   12.53388977   95.62699890    0.34000000    0.20999999
   12.53694534   97.36000061    0.31999999    0.20999999
   12.54027843   95.02469635    0.34000000    0.20999999
   12.54333401   97.60140228    0.31999999    0.19000000
   12.54666710   94.87439728    0.31999999    0.19000000
   12.55000019   90.57510376    0.31999999    0.19000000
   12.55333328   96.18460083    0.31999999    0.19000000
   12.55666733   94.85189819    0.31999999    0.19000000
   12.56000042  101.73799896    0.31999999    0.19000000
   12.56416702  101.73799896    0.31999999    0.17000000
   12.56833363  100.33599854    0.31999999    0.17000000
   12.57166672   94.17939758    0.31999999    0.17000000
   12.57555580   99.99210358    0.31999999    0.17000000
   12.57888889   94.77140045    0.30000001    0.15000001
   12.58222198   94.79789734    0.30000001    0.15000001
   12.58527756   93.48709869    0.30000001    0.15000001
   12.58861065   90.97699738    0.31999999    0.15000001
   12.59249973   97.86599731    0.30000001    0.15000001
   12.59888840   97.86599731    0.30000001    0.13000000
   12.60305595   96.69409943    0.30000001    0.13000000
   12.60750008  101.81099701    0.30000001    0.13000000
   12.61222267   89.95529938    0.28000000    0.11000000
   12.61722279   92.45230103    0.30000001    0.11000000
   12.62194443  101.19899750    0.28000000    0.11000000
   12.62694454  100.81700134    0.28000000    0.09000000
   12.63388920  100.81700134    0.28000000    0.09000000
   12.63888836  100.87699890    0.28000000    0.09000000
   12.64222240   98.38120270    0.28000000    0.07000000
   12.64555550   98.63390350    0.28000000    0.07000000
   12.64861107   99.49269867    0.28000000    0.07000000
   12.65222168   98.83200073    0.28000000    0.07000000
   12.65611076   96.97920227    0.25999999    0.07000000
   12.65944386   90.18319702    0.28000000    0.07000000
   12.66277695  102.57700348    0.25999999    0.07000000
   12.66805553  102.57700348    0.25999999    0.07000000
   12.67333412   94.48390198    0.25999999    0.05000000
   12.67666721  103.60199738    0.25999999    0.07000000
   12.68000031   95.70860291    0.25999999    0.07000000
   12.68305588  104.54900360    0.25999999    0.05000000
   12.68638897  101.20800018    0.25999999    0.05000000
   12.68972206   97.84220123    0.25999999    0.05000000
   12.69305515   92.38310242    0.25999999    0.05000000
   12.69638920  105.39199829    0.25999999    0.05000000
   12.70222187  105.39199829    0.25999999    0.05000000
   12.70638847  100.13600159    0.25999999    0.05000000
   12.70972157   97.32219696    0.25999999    0.03000000
   12.71305561   94.14689636    0.25999999    0.03000000
   12.71638870   96.31289673    0.25999999    0.03000000
   12.71972179   96.49960327    0.25999999    0.03000000
   12.72277737  102.68199921    0.25999999    0.03000000
   12.72611046   95.34320068    0.25000000    0.05000000
   12.72944355   94.69509888    0.25000000    0.05000000
   12.73277760   96.14479828    0.25999999    0.05000000
   12.73694515   96.14479828    0.25000000    0.03000000
   12.74111176  105.48400116    0.25000000    0.03000000
   12.74444485   96.28389740    0.25000000    0.03000000
   12.74777794   99.69960022    0.25000000    0.03000000
   12.75111103   96.17790222    0.25000000    0.03000000
   12.75555515   97.67649841    0.25000000    0.03000000
   12.75888920   95.63829803    0.25000000    0.03000000
   12.76194477   95.77500153    0.25000000    0.03000000
   12.76583290   97.08550262    0.25000000    0.03000000
   12.77222157   97.08550262    0.25000000    0.03000000
   12.77694416   96.80989838    0.25000000    0.01000000
   12.78055573   95.85150146    0.25000000    0.01000000
   12.78416729   99.03469849    0.25000000    0.01000000
   12.78805637   97.15039825    0.25000000    0.01000000
   12.79166698   92.91500092    0.25000000    0.01000000
   12.79527855   95.05509949    0.25000000    0.01000000
   12.79916668   93.06639862    0.25000000    0.01000000
   12.80611134   93.06639862    0.25000000    0.01000000
   12.81027794   98.97339630    0.25000000    0.01000000
   12.81361103   99.19139862    0.23000000    0.01000000
   12.81694412   92.70510101    0.25000000    0.01000000
   12.82027817  103.07099915    0.25000000    0.01000000
   12.82361126   99.98079681    0.25000000    0.01000000
   12.82694435   94.54599762    0.25000000    0.01000000
   12.83027744   95.27510071    0.23000000    0.01000000
   12.83361053  100.00800323    0.25000000    0.01000000
   12.83694458   95.64240265    0.25000000    0.01000000
   12.84138870   95.64240265    0.25000000    0.01000000
   12.84666634   97.99230194    0.23000000    0.01000000
   12.85111141   89.60289764    0.25000000    0.01000000
   12.85583401   98.79509735    0.25000000    0.01000000
   12.86055565   91.52290344    0.25000000    0.01000000
   12.86500072   99.91049957    0.25000000    0.01000000
   12.86972237   96.58429718    2.78999996    2.66000009
   12.87777805   96.58429718    2.78999996    2.64000010
   12.88444424   99.16349792    2.76999998    2.66000009
   12.88972187  106.47100067    2.75000000    2.66000009
   12.89416695   99.15940094    2.75000000    2.66000009
   12.89888859   99.44110107    2.73000002    2.66000009
   12.90277767   99.27200317    2.73000002    2.66000009
   12.90722179  102.28399658    2.73000002    2.66000009
   12.91194439  102.28399658    2.73000002    2.66000009
   12.91666698   98.36039734    2.73000002    2.66000009
   12.92111111  101.13600159    2.73000002    2.66000009
   12.92444515   95.30339813    2.71000004    2.66000009
   12.92777824  102.78500366    2.71000004    2.66000009
   12.93083382   98.58270264    2.71000004    2.66000009
   12.93444443   97.64009857    2.69000006    2.66000009
   12.93750000   99.26820374    2.69000006    2.67000008
   12.94111156  100.89399719    2.69000006    2.67000008
   12.94583321  100.89399719    2.71000004    2.67000008
   12.95027733  105.24900055    2.69000006    2.66000009
   12.95361137  100.52100372    2.69000006    2.66000009
   12.95694447   96.80380249    2.69000006    2.67000008
   12.96027756  101.59999847    2.69000006    2.67000008
   12.96361065  102.09799957    2.66000009    2.67000008
   12.96694374  102.28900146    2.66000009    2.67000008
   12.97027779   92.07219696    2.66000009    2.67000008
   12.97361088   96.85579681    2.66000009    2.67000008
   12.98055553   96.85579681    2.61999989    2.67000008
   12.98472214  106.61900330    2.61999989    2.69000006
   12.98805618  107.64099884    2.64000010    2.67000008
   12.99138927  103.40499878    2.67000008    2.67000008
   12.99444485  102.27100372    2.73000002    2.69000006
   12.99777794  105.99700165    2.82999992    2.69000006
   13.00111103  107.03800201    2.96000004    2.69000006
   13.00444412  107.33300018    3.21000004    2.69000006
   13.00749969  103.69699860    3.46000004    2.69000006
   13.01083374   98.82689667    3.76999998    2.71000004
   13.01555538   98.82689667    4.36999989    2.71000004
   13.01972198  100.72499847    4.88999987    2.71000004
   13.02305508  100.01799774    4.90999985    2.71000004
   13.02611065  103.83000183    4.90999985    2.71000004
   13.02944374  101.55599976    4.90999985    2.71000004
   13.03277779   94.23100281    4.90999985    2.73000002
   13.03583336   98.68350220    4.90999985    2.73000002
   13.03916740  109.45899963    4.90999985    2.73000002
   13.04222298  102.27500153    4.90999985    2.73000002
   13.04555607  105.56600189    4.90999985    2.73000002
   13.04972267  105.56600189    4.90999985    2.73000002
   13.05416679  107.75299835    4.90999985    2.73000002
   13.05722237  105.23899841    4.90999985    2.73000002
   13.06055546  100.96800232    4.90999985    2.75000000
   13.06416702  101.59600067    4.90999985    2.75000000
   13.06750011  103.87000275    4.90999985    2.75000000
   13.07083321  102.80000305    4.90999985    2.76999998
   13.07416630  101.89299774    4.90999985    2.75000000
   13.07750034  104.24500275    4.90999985    2.76999998
   13.08472157  104.24500275    4.90999985    2.78999996
   13.08916664  103.61900330    4.90999985    2.78999996
   13.09249973  103.35600281    4.90999985    2.80999994
   13.09583282  105.92700195    4.90999985    2.78999996
   13.09916592  100.59600067    4.90999985    2.80999994
   13.10277843   99.91200256    4.90999985    2.80999994
   13.10611153  102.76499939    4.90999985    2.80999994
   13.10944462   98.90689850    4.90999985    2.80999994
   13.11277771  110.19699860    4.90999985    2.80999994
   13.11944485  110.19699860    4.90999985    2.80999994
   13.12388897   99.00379944    4.90999985    2.80999994
   13.12722206  105.58699799    4.90999985    2.78999996
   13.13055611   98.92040253    4.90999985    2.78999996
   13.13388920  100.19499969    4.90999985    2.78999996
   13.13749981   96.86990356    4.90999985    2.78999996
   13.14111137  100.67800140    4.90999985    2.76999998
   13.14444447  101.34700012    4.90999985    2.76999998
   13.14777756  100.34500122    4.90999985    2.76999998
   13.15388870  100.34500122    4.90999985    2.76999998
   13.15916634  105.29399872    4.90999985    2.78999996
   13.16277695  106.48300171    4.90999985    2.76999998
   13.16666698  104.57900238    4.90999985    2.78999996
   13.17055607  102.92400360    4.90999985    2.78999996
   13.17416668  103.68199921    4.90999985    2.80999994
   13.17805576  101.13700104    4.90999985    2.80999994
   13.18194485   98.33460236    4.90999985    2.82999992
   13.18888855   98.33460236    4.90999985    2.82999992
   13.19388866  100.34200287    4.90999985    2.82999992
   13.19750023  104.61499786    4.90999985    2.84999990
   13.20138836  101.80699921    4.78000021    2.84999990
   13.20527744  102.33899689    3.72000003    2.86999989
   13.20916653   99.95459747    2.80999994    2.84999990
   13.21277714   96.31069946    2.15000010    2.84999990
   13.21638870   97.37719727    1.71000004    2.84999990
   13.22361088   97.37719727    1.36000001    2.84999990
   13.22861099  102.38800049    1.28999996    2.86999989
   13.23222160  109.86199951    1.25000000    2.84999990
   13.23583317  108.13600159    1.19000006    2.84999990
   13.23944473  102.17500305    1.13000000    2.82999992
   13.24305534  105.01899719    1.09000003    2.82999992
   13.24666691  104.52100372    1.05999994    2.80999994
   13.25027752  104.69799805    1.03999996    2.80999994
   13.25833321  104.69799805    0.95999998    2.78999996
   13.26361084  109.58899689    0.92000002    2.69000006
   13.26722240  101.31800079    0.89999998    2.64000010
   13.27083302  103.18099976    0.89999998    2.59999990
   13.27472210   98.04479980    0.88000000    2.53999996
   13.27861118   99.47869873    0.86000001    2.42000008
   13.28249931  102.90299988    0.81999999    2.21000004
   13.28611183  104.62500000    0.80000001    2.03999996
   13.29277802  104.62500000    0.76999998    1.69000006
   13.29750061  107.17299652    0.75000000    1.41999996
   13.30111122  106.70300293    0.75000000    1.23000002
   13.30444431  110.72200012    0.75000000    1.03999996
   13.30805588  106.61699677    0.70999998    0.89999998
   13.31138897  100.32399750    0.70999998    0.80000001
   13.31527805  106.64099884    0.70999998    0.73000002
   13.31916618  105.90299988    0.67000002    0.69000000
   13.32305527  102.47100067    0.67000002    0.67000002
   13.32972240  102.47100067    0.64999998    0.70999998
   13.33527756  105.70500183    0.63000000    0.70999998
   13.33944416   85.63849640    0.69000000    0.69000000
   13.34277725  107.13800049    0.75000000    0.79000002
   13.34666634  106.78700256    0.64999998    0.80000001
   13.35055637  107.56099701    0.63000000    0.80000001
   13.35500050  116.51100159    0.61000001    0.81999999
   13.36250019  116.51100159    0.58999997    0.81999999
   13.36777782  105.04599762    0.56999999    0.81999999
   13.37166691  100.62100220    0.55000001    0.81999999
   13.37555599  107.45999908    0.55000001    0.80000001
   13.37944412  113.92600250    0.52999997    0.80000001
   13.38333321  108.98999786    0.51999998    0.80000001
   13.38722229  110.30999756    0.50000000    0.79000002
   13.39138889  109.69100189    0.50000000    0.79000002
   13.39861107  109.69100189    0.46000001    0.79000002
   13.40555477  104.07299805    0.44000000    0.79000002
   13.40888882  115.22200012    0.44000000    0.79000002
   13.41361046   97.62280273    0.41999999    0.79000002
   13.41833401  103.15599823    0.41999999    0.76999998
   13.42194462  105.05799866    0.40000001    0.76999998
   13.42527771  105.58599854    0.40000001    0.76999998
   13.43361092  105.58599854    0.38000000    0.76999998
   13.44055557  106.25700378    0.36000001    0.75000000
   13.44750023  112.29100037    0.36000001    0.73000002
   13.45444393  112.45700073    0.36000001    0.70999998
   13.46194458  113.27799988    0.36000001    0.69000000
   13.47499943  113.27799988    0.34000000    0.64999998
   13.48055553  115.44799805    0.34000000    0.63000000
   13.48416710  113.87799835    0.31999999    0.63000000
   13.48750019  112.26499939    0.34000000    0.63000000
   13.49083328  117.54599762    0.31999999    0.61000001
   13.49416733  111.50599670    0.31999999    0.61000001
   13.50138855  111.50599670    0.31999999    0.58999997
   13.50555515  118.16799927    0.30000001    0.58999997
   13.50888920  112.48999786    0.30000001    0.56999999
   13.51222229  108.48200226    0.30000001    0.56999999
   13.51555538  108.23100281    0.30000001    0.55000001
   13.51888847  116.06900024    0.30000001    0.55000001
   13.52222157  115.23699951    0.30000001    0.55000001
   13.52527714  112.63300323    0.30000001    0.55000001
   13.52861118  104.65399933    0.28000000    0.55000001
   13.55000019  104.65399933    0.25999999    0.51999998
   13.55444431  111.71399689    0.25999999    0.51999998
   13.55777836  113.39800262    0.25999999    0.51999998
   13.56111145  120.78900146    0.25999999    0.51999998
   13.56444454  112.90399933    0.25999999    0.51999998
   13.56777763  113.06700134    0.25999999    0.50000000
   13.57111073  109.16999817    0.25999999    0.51999998
   13.57416630  116.12599945    0.25000000    0.51999998
   13.57750034  111.03500366    0.25000000    0.50000000
   13.58416653  111.03500366    0.25000000    0.50000000
   13.58833313  119.74600220    0.25000000    0.50000000
   13.59166622  112.14499664    0.25000000    0.50000000
   13.59499931  117.93699646    0.25000000    0.50000000
   13.59805489  113.83000183    0.25000000    0.50000000
   13.60138893  116.34500122    0.25000000    0.50000000
   13.60444450  122.58200073    0.23000000    0.50000000
   13.60777855  120.81999969    0.23000000    0.50000000
   13.61111164  117.53299713    0.23000000    0.47999999
   13.61416721  119.61900330    0.23000000    0.47999999
   13.61833382  119.61900330    0.23000000    0.47999999
   13.62250042  115.30599976    0.23000000    0.47999999
   13.62583351  120.33100128    0.20999999    0.47999999
   13.62888908  117.29000092    0.23000000    0.46000001
   13.63222218  112.48999786    0.23000000    0.46000001
   13.63555527  120.87200165    0.20999999    0.46000001
   13.63861084  115.19699860    0.20999999    0.46000001
   13.64194393  122.91100311    0.20999999    0.46000001
   13.64527798  112.61199951    0.23000000    0.44000000
   13.64833355  110.74099731    0.20999999    0.44000000
   13.65305519  110.74099731    0.20999999    0.44000000
   13.65722179  114.57499695    0.20999999    0.41999999
   13.66027737  108.12200165    0.23000000    0.41999999
   13.66361046  106.35399628    0.20999999    0.41999999
   13.66666698  116.85500336    0.20999999    0.41999999
   13.67000008  106.23200226    0.23000000    0.41999999
   13.67333412  117.27600098    0.23000000    0.41999999
   13.67638874  108.30699921    0.20999999    0.41999999
   13.67972279  111.06500244    0.23000000    0.40000001
   13.68305588  118.26699829    0.20999999    0.40000001
   13.68750000  118.26699829    0.20999999    0.40000001
   13.69166660  113.83699799    0.23000000    0.40000001
   13.69472218  117.04599762    0.20999999    0.38000000
   13.69805527  115.58000183    0.20999999    0.38000000
   13.70138836  113.78399658    0.20999999    0.38000000
   13.70444393  118.11599731    0.20999999    0.38000000
   13.70777798  114.65100098    0.19000000    0.38000000
   13.71111107  117.05200195    0.20999999    0.38000000
   13.71416664  116.77100372    0.19000000    0.36000001
   13.71749973  120.44100189    0.19000000    0.36000001
   13.72194386  120.44100189    0.19000000    0.36000001
   13.72611046  116.13600159    0.19000000    0.34000000
   13.72944355  108.92400360    0.19000000    0.34000000
   13.73249912  111.42099762    0.19000000    0.34000000
   13.73583317  114.08100128    0.19000000    0.34000000
   13.73888874  111.83799744    0.19000000    0.34000000
   13.74222279  112.08699799    0.19000000    0.31999999
   13.74555588  115.36599731    0.19000000    0.31999999
   13.74861145  105.10199738    0.19000000    0.31999999
   13.75194454  111.46800232    0.19000000    0.31999999
   13.75638866  111.46800232    0.17000000    0.30000001
   13.76055527  112.13899994    0.17000000    0.30000001
   13.76388931  107.59200287    0.17000000    0.30000001
   13.76694393  111.46199799    0.17000000    0.30000001
   13.77027798  109.07399750    0.17000000    0.28000000
   13.77361107  113.95899963    0.17000000    0.28000000
   13.77666664  111.15399933    0.17000000    0.28000000
   13.77999973  119.33499908    0.17000000    0.28000000
   13.78333378  110.73899841    0.17000000    0.25999999
   13.78638935  107.10600281    0.17000000    0.25999999
   13.79111195  107.10600281    0.17000000    0.25999999
   13.79500008  111.31700134    0.17000000    0.25999999
   13.79833412  114.97499847    0.17000000    0.25000000
   13.80166721  109.38700104    0.17000000    0.25000000
   13.80472279  113.19499969    0.17000000    0.25000000
   13.80805588  110.76499939    0.17000000    0.25000000
   13.81138897  110.27400208    0.17000000    0.25000000
   13.81444454  110.48300171    0.17000000    0.23000000
   13.81777763  123.23100281    0.17000000    0.23000000
   13.82083321  109.80999756    0.17000000    0.23000000
   13.82555580  109.80999756    0.15000001    0.23000000
   13.82972240  115.36399841    0.15000001    0.23000000
   13.83305550  106.32199860    0.15000001    0.20999999
   13.83611107  110.21900177    0.15000001    0.20999999
   13.83944416  115.71900177    0.15000001    0.20999999
   13.84249973  115.72200012    0.15000001    0.20999999
   13.84583282  120.06700134    0.15000001    0.19000000
   13.84916592  115.76799774    0.15000001    0.19000000
   13.85222244  108.94300079    0.15000001    0.20999999
   13.85555553  110.57299805    0.15000001    0.19000000
   13.86000061  110.57299805    0.13000000    0.19000000
   13.86416721  113.29299927    0.13000000    0.17000000
   13.86750031  123.48200226    0.13000000    0.17000000
   13.87055588  116.73400116    0.15000001    0.17000000
   13.87388897  115.09300232    0.13000000    0.17000000
   13.87694454  114.01799774    0.13000000    0.17000000
   13.88027763  120.68099976    0.13000000    0.15000001
   13.88361073  115.31099701    0.13000000    0.15000001
   13.88666630  111.15299988    0.13000000    0.15000001
   13.89000034  117.00099945    0.13000000    0.15000001
   13.89444447  117.00099945    0.11000000    0.13000000
   13.89861107  106.61799622    0.11000000    0.13000000
   13.90194416  103.84600067    0.11000000    0.13000000
   13.90499973  102.31800079    0.13000000    0.13000000
   13.90833282   99.96099854    0.11000000    0.11000000
   13.91166592  117.49400330    0.13000000    0.11000000
   13.91472149  106.44999695    0.11000000    0.11000000
   13.91805553  106.25299835    0.11000000    0.11000000
   13.92111111  104.86199951    0.11000000    0.09000000
   13.92444515  110.76999664    0.11000000    0.09000000
   13.92888927  110.76999664    0.13000000    0.09000000
   13.93305588  112.15399933    0.11000000    0.09000000
   13.93638897  114.30999756    0.11000000    0.09000000
   13.93944454  113.23799896    0.11000000    0.07000000
   13.94277763  111.25399780    0.11000000    0.07000000
   13.94611073  107.85299683    0.11000000    0.07000000
   13.94916630  120.00000000    0.11000000    0.07000000
   13.95249939  117.01799774    0.11000000    0.07000000
   13.95583344  119.72000122    0.11000000    0.07000000
   13.95888901  106.97200012    0.11000000    0.07000000
   13.96361065  106.97200012    0.11000000    0.07000000
   13.96749973  112.13800049    0.11000000    0.07000000
   13.97083282  114.17800140    0.11000000    0.05000000
   13.97416592  115.63500214    0.11000000    0.05000000
   13.97722149  116.31500244    0.11000000    0.05000000
   13.98055553  114.23300171    0.11000000    0.05000000
   13.98388958  116.23400116    0.11000000    0.05000000
   13.98694515  113.78600311    0.11000000    0.05000000
   13.99027824  112.70300293    0.11000000    0.05000000
   13.99361134  100.93099976    0.11000000    0.05000000
   13.99805546  100.93099976    0.11000000    0.05000000
   14.00222206  112.22699738    0.11000000    0.05000000
   14.00527763  115.22399902    0.09000000    0.03000000
   14.00861073  115.42800140    0.11000000    0.03000000
   14.01194477  115.81900024    0.11000000    0.03000000
   14.01500034  114.75199890    0.11000000    0.05000000
   14.01833344  113.02999878    0.11000000    0.03000000
   14.02166653  111.98100281    0.11000000    0.03000000
   14.02472210  106.13400269    0.11000000    0.03000000
   14.02805519  117.45800018    0.11000000    0.03000000
   14.03249931  117.45800018    0.11000000    0.03000000
   14.03666687  112.04399872    0.09000000    0.03000000
   14.04000092  117.42500305    0.09000000    0.03000000
   14.04305553  106.43900299    0.09000000    0.03000000
   14.04638958  113.43099976    0.09000000    0.03000000
   14.04972267  110.82399750    0.09000000    0.03000000
   14.05277824  114.43000031    0.11000000    0.03000000
   14.05611134  103.74299622    0.11000000    0.03000000
   14.05916691  105.12200165    0.09000000    0.03000000
   14.06250000  102.62300110    0.09000000    0.03000000
   14.06694412  102.62300110    0.09000000    0.01000000
   14.07111073  107.04000092    0.09000000    0.01000000
   14.07444477  115.69400024    0.09000000    0.01000000
   14.07777786  106.70099640    0.09000000    0.01000000
   14.08083344  106.93499756    0.09000000    0.01000000
   14.08416653  112.88300323    0.09000000    0.01000000
   14.08749962  100.04499817    0.09000000    0.01000000
   14.09055519  103.91699982    0.09000000    0.01000000
   14.09388828  100.03900146    0.09000000    0.01000000
   14.09694386  111.04299927    0.09000000    0.01000000
   14.10166740  111.04299927    0.09000000    0.01000000
   14.10555553  114.87699890    0.09000000    0.01000000
   14.10888958  118.52600098    0.09000000    0.01000000
   14.11222267  110.29100037    0.09000000    0.01000000
   14.11527824  107.19799805    0.09000000    0.01000000
   14.11861134  106.07499695    0.09000000    0.01000000
   14.12194443  114.44400024    0.09000000    0.01000000
   14.12500000  106.35099792    0.09000000    0.01000000
   14.12833309  109.22599792    0.09000000    0.01000000
   14.13138866  108.04900360    0.09000000    0.01000000
   14.13611126  108.04900360    0.09000000    0.01000000
   14.14027786  110.03399658    0.09000000    0.01000000
   14.14333344  112.97299957    0.09000000    0.01000000
   14.14666653  112.88099670    0.09000000    0.01000000
   14.14999962  108.79599762    0.07000000    0.01000000
   14.15305519  112.66000366    0.07000000    0.01000000
   14.15638828  104.59600067    0.07000000    0.01000000
   14.15944386  109.45300293    0.07000000    0.01000000
   14.16277695  110.30799866    0.07000000    0.01000000
   14.16611099  116.42600250    0.07000000    0.01000000
   14.17055607  116.42600250    0.09000000    0.01000000
   14.17472267  113.20999908    0.09000000    0.01000000
   14.17805576  109.99600220    0.09000000    0.01000000
   14.18111134  109.64800262    0.09000000    0.01000000
   14.18444443  107.81999969    0.09000000    0.01000000
   14.18750000  103.05100250    0.09000000    0.01000000
   14.19083309  103.50499725    0.09000000    0.01000000
   14.19416714  112.41200256    0.09000000    0.01000000
   14.19722271  102.62300110    0.09000000    0.01000000
   14.20055580  110.67600250    0.09000000    0.01000000
   14.20499992  110.67600250    0.09000000    0.01000000
   14.20916653  105.94100189    0.09000000    0.01000000
   14.21249962  102.67299652    0.09000000    0.01000000
   14.21555519  113.04199982    0.09000000    0.01000000
   14.21888828  107.31800079    0.09000000    0.01000000
   14.22222137  114.13400269    0.09000000    0.01000000
   14.22527695  109.04399872    0.09000000    0.01000000
   14.22861099  107.77200317    0.09000000    0.01000000
   14.23194408  113.47399902    0.09000000    0.01000000
   14.23500061  109.51300049    0.09000000    0.01000000
   14.23944473  109.51300049    0.09000000    0.01000000
   14.24361134  106.32199860    0.09000000    0.01000000
   14.24694443  111.55400085    0.09000000    0.01000000
   14.25027752  107.43499756    0.09000000    0.01000000
   14.25333309  110.12999725    0.09000000    0.01000000
   14.25666714  108.48500061    0.09000000    0.01000000
   14.26000023  102.83200073    0.09000000    0.01000000
   14.26305580  101.52400208    0.09000000    0.01000000
   14.26638889  104.67299652    0.09000000    0.01000000
   14.26972198   99.88400269    0.09000000    0.01000000
   14.27416611   99.88400269    0.09000000    0.01000000
   14.27833271  103.85600281    0.09000000    0.01000000
   14.28138828  103.32499695    0.09000000    0.01000000
   14.28472233  105.16500092    0.09000000    0.01000000
   14.28805637  105.88300323    0.09000000    0.01000000
   14.29111195  103.47799683    0.09000000    0.01000000
   14.29444504  100.93900299    0.09000000    0.01000000
   14.29750061  100.74800110    0.09000000    0.01000000
   14.30083370  115.62699890    0.09000000    0.01000000
   14.30416679  109.90100098    0.09000000    0.01000000
   14.30861092  109.90100098    0.09000000    0.01000000
   14.31277752  103.30200195    0.09000000    0.01000000
   14.31583309  107.58300018    0.09000000    0.01000000
   14.31916618  100.62500000    0.09000000    0.01000000
   14.32250023  106.43699646    0.09000000    0.01000000
   14.32555580  108.89399719    0.09000000    0.01000000
   14.32888889  110.64399719    0.09000000    0.01000000
   14.33222198  108.00199890    0.09000000    0.01000000
   14.33527756  109.88099670    0.09000000    0.01000000
   14.33861065  111.92900085    0.09000000    0.01000000
   14.34305477  111.92900085    0.09000000    0.01000000
   14.34722233  111.99199677    0.09000000    0.01000000
   14.35055637  105.97799683    0.09000000    0.01000000
   14.35361195  109.37999725    0.09000000    0.01000000
   14.35694504  113.85700226    0.09000000    0.01000000
   14.36027813  110.94499969    0.09000000    0.01000000
   14.36333370  112.97599792    0.09000000    0.01000000
   14.36666679  110.48600006    0.09000000    0.01000000
   14.36972237  105.22000122    0.09000000    0.01000000
   14.37305546  105.20400238    0.09000000    0.01000000
   14.37750053  105.20400238    0.09000000    0.01000000
   14.38166714  105.21399689    0.09000000    0.01000000
   14.38500023  108.91899872    0.09000000    0.01000000
   14.38833332  108.91899872    0.09000000    0.01000000
   14.39138889  105.97200012    0.09000000    0.01000000
   14.39472198  113.41200256    0.09000000    0.01000000
   14.39777756  116.31999969    0.09000000    0.01000000
   14.40111065  107.98999786    0.09000000    0.01000000
   14.40444374  112.57099915    0.09000000    0.01000000
   14.40749931  111.29499817    0.09000000    0.01000000
   14.41222191  111.29499817    0.09000000    0.01000000
   14.41638851  109.66200256    0.09000000    0.01000000
   14.41944504  105.72599792    0.09000000    0.01000000
   14.42277813  116.09600067    0.09000000    0.01000000
   14.42583370  103.13800049    0.09000000    0.01000000
   14.42916679   89.01930237    0.09000000    0.01000000
   14.43249989  109.03500366    0.09000000    0.01000000
   14.43555546  104.71800232    0.09000000    0.01000000
   14.43888855  109.59600067    0.09000000    0.01000000
   14.44222260  113.86799622    0.09000000    0.01000000
   14.44666672  113.86799622    0.09000000    0.01000000
   14.45083332  107.70099640    0.09000000    0.01000000
   14.45388889  106.56700134    0.09000000    0.01000000
   14.45722198  113.46099854    0.09000000    0.01000000
   14.46055508  103.79100037    0.09000000    0.01000000
   14.46361065  105.04499817    0.09000000    0.01000000
   14.46694374  115.09600067    0.09000000    0.01000000
   14.46999931  121.01200104    0.09000000    0.01000000
   14.47333336  110.62000275    0.09000000    0.01000000
   14.47666645  113.95500183    0.09000000    0.01000000
   14.48111057  113.95500183    0.09000000    0.01000000
   14.48527813  112.12599945    0.09000000    0.01000000
   14.48861122  120.52500153    0.09000000    0.01000000
   14.49166679  115.45899963    0.09000000    0.01000000
   14.49499989  109.90899658    0.09000000    0.01000000
   14.49805546  116.12799835    0.09000000    0.01000000
   14.50138855  102.70099640    0.09000000    0.01000000
   14.50472260  108.47499847    0.09000000    0.01000000
   14.50777817  114.69200134    0.09000000    0.01000000
   14.51111126  108.73200226    0.09000000    0.01000000
   14.51555538  108.73200226    0.09000000    0.01000000
   14.51972198  121.22699738    0.09000000    0.01000000
   14.52305508  113.81700134    0.09000000    0.01000000
   14.52611065  110.04799652    0.09000000    0.01000000
   14.52944374  112.40499878    0.09000000    0.01000000
   14.53277779  115.71399689    0.09000000    0.01000000
   14.53583336  110.14600372    0.09000000    0.01000000
   14.53916740  116.70999908    0.09000000    0.01000000
   14.54250050  109.99600220    0.09000000    0.01000000
   14.54555607  111.47100067    0.09000000    0.01000000
   14.56611156  111.47100067    0.09000000    0.01000000
   14.57027817  119.83000183    0.09000000    0.01000000
   14.57361126  123.01000214    0.09000000    0.01000000
   14.57694435  107.27799988    0.09000000    0.01000000
   14.57999992  109.38700104    0.09000000    0.01000000
   14.58333302  112.66300201    0.09000000    0.01000000
   14.58666611  116.05000305    0.09000000    0.01000000
   14.58972168  108.85900116    0.09000000    0.01000000
   14.59305477  111.37799835    0.09000000    0.01000000
   14.59638882  114.85099792    0.09000000    0.01000000
   14.60055637  114.85099792    0.09000000    0.01000000
   14.60472298  109.82499695    0.09000000    0.01000000
   14.60805607  107.17099762    0.09000000    0.01000000
   14.61111164  115.43099976    0.09000000    0.01000000
   14.61444473  111.45800018    0.09000000    0.01000000
   14.61777782  112.17500305    0.09000000    0.01000000
   14.62083340  110.94899750    0.09000000    0.01000000
   14.62416649  106.65699768    0.09000000    0.01000000
   14.62750053  122.99800110    0.09000000    0.01000000
   14.63055611  112.24400330    0.09000000    0.01000000
   14.63500023  112.24400330    0.09000000    0.01000000
   14.63916683  122.54799652    0.09000000    0.01000000
   14.64249992  107.38700104    0.09000000    0.01000000
   14.64583302  110.26899719    0.09000000    0.01000000
   14.64888859  113.10800171    0.09000000    0.01000000
   14.65222168  112.57800293    0.09000000    0.01000000
   14.65527725  110.05100250    0.09000000    0.01000000
   14.65861034  113.58499908    0.09000000    0.01000000
   14.66194439  111.31300354    0.09000000    0.01000000
   14.66499996  110.31099701    0.09000000    0.01000000
   14.66972256  110.31099701    0.09000000    0.01000000
   14.67388916   93.89710236    0.09000000    0.01000000
   14.67694473  118.43599701    0.09000000    0.01000000
   14.68027782  119.22299957    0.09000000    0.01000000
   14.68333340  108.33100128    0.09000000    0.01000000
   14.68666649  116.30100250    0.09000000    0.01000000
   14.69000053  117.79299927    0.09000000    0.01000000
   14.69305515  117.34100342    0.09000000    0.01000000
   14.69638920  120.07800293    0.09000000    0.01000000
   14.69972229  116.93499756    0.09000000    0.01000000
   14.70416641  116.93499756    0.09000000    0.01000000
   14.70833302  112.54199982    0.09000000    0.01000000
   14.71138859  111.55200195    0.09000000    0.01000000
   14.71472168  115.62300110    0.09000000    0.01000000
   14.71805477  109.32800293    0.09000000    0.01000000
   14.72111034  111.66300201    0.09000000    0.01000000
   14.72444439  102.41400146    0.09000000    0.01000000
   14.72749996  103.82599640    0.09000000    0.01000000
   14.73083305  109.03500366    0.09000000    0.01000000
   14.73416710  108.70700073    0.09000000    0.01000000
   14.73861122  108.70700073    0.09000000    0.01000000
   14.74277782  107.48899841    0.09000000    0.01000000
   14.74611092  116.25000000    0.09000000    0.01000000
   14.74916649   92.83350372    0.09000000    0.01000000
   14.75249958  111.60399628    0.09000000    0.01000000
   14.75555515  109.17099762    0.09000000    0.01000000
   14.75888920  107.26699829    0.09000000    0.01000000
   14.76222229  104.48000336    0.09000000    0.01000000
   14.76527786  107.31900024    0.09000000    0.01000000
   14.76861095  102.07199860    0.09000000    0.01000000
   14.77305508  102.07199860    0.09000000    0.01000000
   14.77722168  110.58999634    0.09000000    0.01000000
   14.78055573  108.01499939    0.09000000    0.01000000
   14.78361130  105.33899689    0.09000000    0.01000000
   14.78694534  105.60399628    0.09000000    0.01000000
   14.79027843  111.38999939    0.09000000    0.01000000
   14.79333401  105.69499969    0.09000000    0.01000000
   14.79666710  105.51100159    0.09000000    0.01000000
   14.80000019  107.73699951    0.09000000    0.01000000
   14.80305576  110.45899963    0.09000000    0.01000000
   14.80777836  110.45899963    0.09000000    0.01000000
   14.81166649  101.20999908    0.09000000    0.01000000
   14.81500053  104.87599945    0.09000000    0.01000000
   14.81833363  108.29699707    0.09000000    0.01000000
   14.82138920  107.88800049    0.09000000    0.01000000
   14.82472229  109.02600098    0.09000000    0.01000000
   14.82805538  110.56500244    0.09000000    0.01000000
   14.83111095  112.57499695    0.09000000    0.01000000
   14.83444405  113.82900238    0.09000000    0.01000000
   14.83777714  112.38899994    0.09000000    0.01000000
   14.84222221  112.38899994    0.09000000    0.01000000
   14.84638882  103.98500061    0.09000000    0.01000000
   14.84944439  112.40299988    0.09000000    0.01000000
   14.85277843  105.07599640    0.09000000    0.01000000
   14.85611153  114.05300140    0.09000000    0.01000000
   14.85916710  106.23600006    0.09000000    0.01000000
   14.86250019  105.66799927    0.09000000    0.01000000
   14.86583328  105.52799988    0.09000000    0.01000000
   14.86888885  103.05100250    0.09000000    0.01000000
   14.87222195  106.10700226    0.09000000    0.01000000
   14.87666702  106.10700226    0.09000000    0.01000000
   14.88083363  108.24099731    0.09000000    0.01000000
   14.88388920  101.52300262    0.09000000    0.01000000
   14.88722229  103.16000366    0.09000000    0.01000000
   14.89055538   98.06109619    0.09000000    0.01000000
   14.89361095  104.57099915    0.09000000    0.01000000
   14.89694405  108.89499664    0.09000000    0.01000000
   14.90027714  112.98899841    0.09000000    0.01000000
   14.90333271  109.60900116    0.09000000    0.01000000
   14.90666676  106.46399689    0.09000000    0.01000000
   14.91111088  106.46399689    0.09000000    0.01000000
   14.91527748  101.60500336    0.09000000    0.01000000
   14.91861153  103.29599762    0.09000000    0.01000000
   14.92166710  100.43399811    0.09000000    0.01000000
   14.92500019  114.45099640    0.09000000    0.01000000
   14.92833328  100.95099640    0.09000000    0.01000000
   14.93138885  100.32199860    0.09000000    0.01000000
   14.93472195  110.97100067    0.09000000    0.01000000
   14.93777752   98.91989899    0.09000000    0.01000000
   14.94111156   98.00370026    0.09000000    0.01000000
   14.94583321   98.00370026    0.09000000    0.01000000
   14.94972229  104.35099792    0.09000000    0.01000000
   14.95305538  103.09600067    0.09000000    0.01000000
   14.95638847  100.01100159    0.09000000    0.01000000
   14.95944405   97.87439728    0.09000000    0.01000000
   14.96277714  100.73100281    0.09000000    0.01000000
   14.96583271   99.38410187    0.09000000    0.01000000
   14.96916580  103.67099762    0.09000000    0.01000000
   14.97249985  105.75499725    0.09000000    0.01000000
   14.97555542  100.13600159    0.09000000    0.01000000
   14.98027706  100.13600159    0.09000000    0.01000000
   14.98444462  106.63200378    0.09000000    0.01000000
   14.98750019   96.19020081    0.09000000    0.01000000
   14.99083328  112.65599823    0.09000000    0.01000000
   14.99388885   99.37660217    0.09000000    0.01000000
   14.99722290  107.23999786    0.09000000    0.01000000
   15.00055599  102.32399750    0.09000000    0.01000000
   15.00361156  102.60199738    0.09000000    0.01000000
   15.00694466  101.94999695    0.09000000    0.01000000
   15.01027775   97.42520142    0.09000000    0.01000000
   15.01472187   97.42520142    0.09000000    0.01000000
   15.01888847   95.96080017    0.09000000    0.01000000
   15.02194405  108.33999634    0.09000000    0.01000000
   15.02527714  105.38800049    0.09000000    0.01000000
   15.02861118  103.80500031    0.09000000    0.01000000
   15.03166676  102.55100250    0.09000000    0.01000000
   15.03500080  105.54199982    0.09000000    0.01000000
   15.03833389  113.38200378    0.09000000    0.01000000
   15.04138947  102.57700348    0.09000000    0.01000000
   15.04472256  103.26799774    0.09000000    0.01000000
   15.04916668  103.26799774    0.09000000    0.01000000
   15.05333328  113.38700104    0.09000000    0.01000000
   15.05666733  104.02999878    0.09000000    0.01000000
   15.05972195  108.79399872    0.09000000    0.01000000
   15.06305599  119.19799805    0.09000000    0.01000000
   15.06611156  100.79100037    0.09000000    0.01000000
   15.06944466   99.78780365    0.09000000    0.01000000
   15.07277775   98.01750183    0.09000000    0.01000000
   15.07583332  104.02200317    0.09000000    0.01000000
   15.07916641  103.36100006    0.09000000    0.01000000
   15.08361053  103.36100006    0.09000000    0.01000000
   15.08777714  101.70099640    0.09000000    0.01000000
   15.09111118  110.00399780    0.09000000    0.01000000
   15.09416676   96.64620209    0.09000000    0.01000000
   15.09749985   94.14720154    0.09000000    0.01000000
   15.10083389  110.87799835    0.09000000    0.01000000
   15.10388947  103.32099915    0.09000000    0.01000000
   15.10722256  103.25700378    0.09000000    0.01000000
   15.11055565  103.22799683    0.09000000    0.01000000
   15.11361122   95.77320099    0.09000000    0.01000000
   15.11833382   95.77320099    0.09000000    0.01000000
   15.12222195   99.39469910    0.09000000    0.01000000
   15.12555599  101.37500000    0.09000000    0.01000000
   15.12888908   98.34449768    0.09000000    0.01000000
   15.13194466  101.96800232    0.09000000    0.01000000
   15.13527775   99.67769623    0.09000000    0.01000000
   15.13861084  102.21399689    0.09000000    0.01000000
   15.14166641   97.72229767    0.09000000    0.01000000
   15.14499950   95.45490265    0.09000000    0.01000000
   15.14805508  102.80300140    0.09000000    0.01000000
   15.15277767  102.80300140    0.09000000    0.01000000
   15.15694427  102.48200226    0.09000000    0.01000000
   15.15999985  106.42500305    0.09000000    0.01000000
   15.16333294  107.24600220    0.09000000    0.01000000
   15.16666698  106.78800201    0.09000000    0.01000000
   15.16972256  107.84600067    0.09000000    0.01000000
   15.17305565  103.79399872    0.09000000    0.01000000
   15.17611122  106.01300049    0.09000000    0.01000000
   15.17944431  103.45800018    0.09000000    0.01000000
   15.18277836  102.33200073    0.09000000    0.01000000
   15.18722248  102.33200073    0.09000000    0.01000000
   15.19138908  108.66699982    0.09000000    0.01000000
   15.19472218  104.93900299    0.09000000    0.01000000
   15.19777775  108.86799622    0.09000000    0.01000000
   15.20111084  106.27799988    0.09000000    0.01000000
   15.20416641  103.41799927    0.09000000    0.01000000
   15.20749950  106.76499939    0.09000000    0.01000000
   15.21083355  106.44499969    0.09000000    0.01000000
   15.21388912  110.72399902    0.09000000    0.01000000
   15.21722221  104.72200012    0.09000000    0.01000000
   15.22166634  104.72200012    0.09000000    0.01000000
   15.22583294  100.93599701    0.09000000    0.01000000
   15.22916603   97.85649872    0.09000000    0.01000000
   15.23249912  104.83200073    0.09000000    0.01000000
   15.23555565   98.39009857    0.09000000    0.01000000
   15.23888874   99.22810364    0.09000000    0.01000000
   15.24194431  101.06500244    0.09000000    0.01000000
   15.24527836   98.76039886    0.09000000    0.01000000
   15.24861145  106.95400238    0.09000000    0.01000000
   15.25166702  104.41600037    0.09000000    0.01000000
   15.25638866  104.41600037    0.09000000    0.01000000
   15.26027775  101.33999634    0.09000000    0.01000000
   15.26361084  100.96499634    0.09000000    0.01000000
   15.26694393  104.57299805    0.09000000    0.01000000
   15.26999950  106.48799896    0.09000000    0.01000000
   15.27333355   98.39070129    0.09000000    0.01000000
   15.27638817   98.82540131    0.09000000    0.01000000
   15.27972221  102.07800293    0.09000000    0.01000000
   15.28305531   98.46450043    0.09000000    0.01000000
   15.28611183  103.43000031    0.09000000    0.01000000
   15.29083347  103.43000031    0.09000000    0.01000000
   15.29500008   95.20279694    0.09000000    0.01000000
   15.29805565  102.18399811    0.09000000    0.01000000
   15.30138874  100.27600098    0.09000000    0.01000000
   15.30444431  110.51399994    0.09000000    0.01000000
   15.30777836   96.46050262    0.09000000    0.01000000
   15.31111145  107.39900208    0.09000000    0.01000000
   15.31416702  102.56099701    0.09000000    0.01000000
   15.31750011  108.61399841    0.09000000    0.01000000
   15.32083321  109.48899841    0.09000000    0.01000000
   15.32527733  109.48899841    0.09000000    0.01000000
   15.32944393   99.78959656    0.09000000    0.01000000
   15.33249950   98.26010132    0.09000000    0.01000000
   15.33583260   95.99269867    0.09000000    0.01000000
   15.33916664  100.46499634    0.09000000    0.01000000
   15.34222221  103.44899750    0.09000000    0.01000000
   15.34555531  110.04199982    0.09000000    0.01000000
   15.34888840  114.78900146    0.09000000    0.01000000
   15.35194492  109.26599884    0.09000000    0.01000000
   15.35527802  109.90000153    0.09000000    0.01000000
   15.35972214  109.90000153    0.09000000    0.01000000
   15.36388969  103.85500336    0.09000000    0.01000000
   15.36722279  108.59799957    0.09000000    0.01000000
   15.37027836  100.91500092    0.09000000    0.01000000
   15.37361145  104.93199921    0.09000000    0.01000000
   15.37694454  100.80000305    0.09000000    0.01000000
   15.38000011  105.91600037    0.09000000    0.01000000
   15.38333321  103.12699890    0.09000000    0.01000000
   15.38666630  108.48200226    0.09000000    0.01000000
   15.38972187  100.94000244    0.09000000    0.01000000
   15.39416695  100.94000244    0.09000000    0.01000000
   15.39833355  103.99400330    0.09000000    0.01000000
   15.40166664   99.45590210    0.09000000    0.01000000
   15.40499973   97.37660217    0.09000000    0.01000000
   15.40805531  102.28900146    0.09000000    0.01000000
   15.41138840   94.80419922    0.09000000    0.01000000
   15.41444397  100.51799774    0.09000000    0.01000000
   15.41777802  111.68599701    0.09000000    0.01000000
   15.42111111  105.62100220    0.09000000    0.01000000
   15.42416668  107.81800079    0.09000000    0.01000000
   15.42888927  107.81800079    0.09000000    0.01000000
   15.43305588   94.30660248    0.09000000    0.01000000
   15.43611145   98.45970154    0.09000000    0.01000000
   15.43944454   93.80000305    0.09000000    0.01000000
   15.44250011   94.62860107    0.09000000    0.01000000
   15.44583321  101.92900085    0.09000000    0.01000000
   15.44916630   97.53800201    0.09000000    0.01000000
   15.45222187   99.45919800    0.09000000    0.01000000
   15.45555496  104.10700226    0.09000000    0.01000000
   15.45888901  105.86399841    0.09000000    0.01000000
   15.46333313  105.86399841    0.09000000    0.01000000
   15.46749973  102.08499908    0.09000000    0.01000000
   15.47055531  110.84600067    0.09000000    0.01000000
   15.47388840  107.78800201    0.09000000    0.01000000
   15.47722149  104.87599945    0.09000000    0.01000000
   15.48027706  105.43099976    0.09000000    0.01000000
   15.48361111  101.18800354    0.09000000    0.01000000
   15.48666668   98.49859619    0.09000000    0.01000000
   15.49000072   99.48110199    0.09000000    0.01000000
   15.49333382   97.49680328    0.09000000    0.01000000
   15.49777794   97.49680328    0.09000000    0.01000000
   15.50194454  106.51000214    0.09000000    0.01000000
   15.50527763  102.50900269    0.09000000    0.01000000
   15.50833321  108.29100037    0.09000000    0.01000000
   15.51166630   99.77390289    0.09000000    0.01000000
   15.51472187  108.23000336    0.09000000    0.01000000
   15.51805496  106.89499664    0.09000000    0.01000000
   15.52138901   96.31659698    0.09000000    0.01000000
   15.52444458  104.45899963    0.09000000    0.01000000
   15.52777767  104.00199890    0.09000000    0.01000000
   15.53222179  104.00199890    0.09000000    0.01000000
   15.53638935   96.54669952    0.09000000    0.01000000
   15.53972244  108.16400146    0.09000000    0.01000000
   15.54277802   99.62439728    0.09000000    0.01000000
   15.54611111  102.41200256    0.09000000    0.01000000
   15.54944515  101.44499969    0.09000000    0.01000000
   15.55249977  104.81999969    0.09000000    0.01000000
   15.55583382  106.77400208    0.09000000    0.01000000
   15.55916691   99.95069885    0.09000000    0.01000000
   15.56222248  103.34799957    0.09000000    0.01000000
   15.58305550  103.34799957    0.09000000    0.01000000
   15.58694458  100.39600372    0.09000000    0.01000000
   15.59027767  108.80899811    0.09000000    0.01000000
   15.59361076   97.90650177    0.09000000    0.01000000
   15.59666634   99.60199738    0.09000000    0.01000000
   15.60000038  108.17500305    0.09000000    0.01000000
   15.60333347  108.43499756    0.09000000    0.01000000
   15.60638905  102.66699982    0.09000000    0.01000000
   15.60972214  111.56999969    0.09000000    0.01000000
   15.61277771  111.75299835    0.09000000    0.01000000
   15.61722279  111.75299835    0.09000000    0.01000000
   15.62138939   98.98590088    0.09000000    0.01000000
   15.62472248  103.44200134    0.09000000    0.01000000
   15.62805557  107.92500305    0.09000000    0.01000000
   15.63111115  108.46499634    0.09000000    0.01000000
   15.72861099   -1.00000000   -1.00000000   -1.00000000
   15.89166641   -1.00000000   -1.00000000   -1.00000000
   16.06944466   -1.00000000   -1.00000000   -1.00000000
   16.09722328   67.68849945    0.88000000    2.94000006
   16.10055542   97.90820313    0.88000000    2.94000006
   16.10388947   96.33010101    0.88000000    2.94000006
   16.10694504  103.90000153    0.88000000    2.94000006
   16.11027908   98.72760010    0.88000000    2.94000006
   16.11333466  102.02799988    0.88000000    2.94000006
   16.11750031  102.02799988    0.88000000    2.94000006
   16.12166595  100.01200104    0.86000001    2.94000006
   16.12500000  104.78299713    0.88000000    2.94000006
   16.12805557   98.70259857    0.88000000    2.94000006
   16.13055611  103.16400146    0.88000000    2.94000006
   16.13194466   98.36889648    0.88000000    2.94000006
   16.13500023   96.90309906    0.92000002    2.93000007
   16.13833237   94.79669952    0.92000002    2.94000006
   16.14166641   97.25610352    0.89999998    2.94000006
   16.14472198   97.51809692    0.92000002    2.94000006
   16.14805603   98.01830292    0.89999998    2.94000006
   16.15222168   98.01830292    0.89999998    2.94000006
   16.15638924   94.00509644    0.89999998    2.94000006
   16.15944481   95.52089691    0.89999998    2.94000006
   16.16277695   99.23799896    0.86000001    2.94000006
   16.16388893  100.40499878    0.86000001    2.94000006
   16.16638756   99.70989990    0.86000001    2.94000006
   16.16944313   99.89469910    0.83999997    2.96000004
   16.17277718   99.81629944    0.83999997    2.94000006
   16.17611122  102.13899994    0.83999997    2.96000004
   16.17916679   96.63619995    0.83999997    2.96000004
   16.18249893  103.87300110    0.83999997    2.94000006
   16.18666649  103.87300110    0.81999999    2.98000002
   16.19083214  102.11900330    0.81999999    2.96000004
   16.19388771  102.87500000    0.83999997    2.96000004
   16.19722176  108.32700348    0.81999999    2.94000006
   16.19777679  103.62899780    0.81999999    2.94000006
   16.20083427  100.01100159    0.83999997    2.94000006
   16.20416832  101.95600128    0.83999997    2.94000006
   16.20750046  100.05400085    0.83999997    2.94000006
   16.21055603  100.78900146    0.83999997    2.96000004
   16.21389008  102.81600189    0.83999997    2.94000006
   16.21722221  100.70800018    0.83999997    2.94000006
   16.22111130  100.70800018    0.83999997    2.94000006
   16.22527885  101.44899750    0.83999997    2.96000004
   16.22861099  104.97399902    0.83999997    2.96000004
   16.23055649  108.32199860    0.83999997    2.94000006
   16.23222351   99.61319733    0.86000001    2.94000006
   16.23527718  100.46399689    0.83999997    2.94000006
   16.23861122  105.55200195    0.88000000    2.94000006
   16.24194527  104.14900208    0.94000000    2.96000004
   16.24500084  100.23400116    1.16999996    2.94000006
   16.24833298  103.01100159    1.76999998    2.96000004
   16.25166702  105.17299652    1.83000004    2.96000004
   16.25583267  105.17299652    2.64000010    2.96000004
   16.26000023  109.97200012    2.89000010    2.96000004
   16.26305580   96.43029785    4.28999996    2.96000004
   16.26388931  104.23000336    4.57999992    2.98000002
   16.26666641  100.65399933    4.80999994    2.98000002
   16.27000046  107.68499756    4.90999985    2.96000004
   16.27305603  104.80999756    4.90999985    2.96000004
   16.27638817  110.83000183    4.90999985    2.96000004
   16.27972221  107.06400299    4.90999985    2.96000004
   16.28277779  102.70500183    4.90999985    2.96000004
   16.28610992  107.34100342    4.90999985    2.96000004
   16.29027748  107.34100342    4.90999985    2.94000006
   16.29444313  103.26799774    4.90999985    2.94000006
   16.29722214  101.48300171    4.90999985    2.96000004
   16.29805565  103.80799866    4.90999985    2.96000004
   16.30138779  112.43499756    4.90999985    2.94000006
   16.30444336  111.06900024    4.90999985    2.94000006
   16.30777740  110.92199707    4.90999985    2.96000004
   16.31083298  110.08499908    4.90999985    2.96000004
   16.31416512  118.38999939    4.90999985    2.96000004
   16.31750107  108.61199951    4.90999985    2.98000002
   16.32055664  107.31900024    4.90999985    2.98000002
   16.32472229  107.31900024    4.90999985    3.01999998
   16.32888985  101.92500305    4.90999985    3.01999998
   16.33055687  102.75800323    4.90999985    3.01999998
   16.33250046  115.17900085    4.90999985    3.01999998
   16.33583450  113.31300354    4.90999985    3.01999998
   16.33889008  113.54299927    4.90999985    3.01999998
   16.34222221  102.70300293    4.90999985    3.03999996
   16.34527779  112.87999725    4.90999985    3.03999996
   16.34861183  114.06600189    4.90999985    3.05999994
   16.35194397  110.77500153    4.90999985    3.05999994
   16.35499954   96.58560181    4.90999985    3.03999996
   16.35916710   96.58560181    4.90999985    3.05999994
   16.36333466  104.87899780    4.90999985    3.03999996
   16.36388969   98.83550262    4.90999985    3.05999994
   16.36694527  113.17299652    4.90999985    3.03999996
   16.37027740  113.55200195    4.90999985    3.01999998
   16.37333298  113.13200378    4.90999985    3.01999998
   16.37666702  113.83100128    4.90999985    3.00000000
   16.37972260  110.32800293    4.90999985    3.00000000
   16.38305473  104.38200378    4.90999985    3.00000000
   16.38638878  101.56500244    4.90999985    2.98000002
   16.38944435  110.19200134    4.90999985    2.98000002
   16.39388847  110.19200134    4.90999985    2.98000002
   16.39805603  108.97499847    4.90999985    3.00000000
   16.40111160  110.01399994    4.90999985    3.00000000
   16.40444374  102.12799835    4.90999985    3.00000000
   16.40749931  107.30500031    4.90999985    3.00000000
   16.41083336  102.09600067    4.90999985    3.01999998
   16.41416550  111.83300018    4.90999985    3.03999996
   16.41722107  102.44300079    4.90999985    3.03999996
   16.42055511  103.31099701    4.90999985    3.05999994
   16.42388916  107.65200043    4.90999985    3.07999992
   16.42833328  107.65200043    4.90999985    3.09999990
   16.43249893  102.75499725    4.90999985    3.09999990
   16.43555450  104.78399658    4.90999985    3.09999990
   16.43888855  107.48500061    4.90999985    3.09999990
   16.44222069  111.54000092    4.90999985    3.07999992
   16.44527626  109.83300018    4.90999985    3.07999992
   16.44861031  112.81099701    4.90999985    3.09999990
   16.45194435  110.26499939    4.90999985    3.07999992
   16.45499992  110.50099945    4.90999985    3.09999990
   16.45833397  105.32700348    4.90999985    3.09999990
   16.46277809  105.32700348    4.90999985    3.09999990
   16.46694565  121.13800049    4.90999985    3.09999990
   16.47027779  109.92700195    4.90999985    3.09999990
   16.47333336  121.97100067    4.90999985    3.07999992
   16.47666740  108.47100067    4.90999985    3.09999990
   16.47972298  117.71099854    4.90999985    3.09999990
   16.48305511  100.98699951    4.90999985    3.09999990
   16.48638916  106.47200012    4.90999985    3.07999992
   16.48944473  103.46099854    4.90999985    3.07999992
   16.49277878  114.68099976    4.90999985    3.07999992
   16.49722290  114.68099976    4.90999985    3.07999992
   16.50138855  110.63300323    4.90999985    3.09999990
   16.50472260  104.84300232    4.90999985    3.09999990
   16.50777817  104.94200134    4.90999985    3.07999992
   16.51111031  105.52100372    4.90999985    3.07999992
   16.51444435  103.48500061    4.90999985    3.07999992
   16.51749992  105.93699646    4.90999985    3.07999992
   16.52083397  103.91300201    4.90999985    3.09999990
   16.52416611   99.66349792    4.90999985    3.09999990
   16.52722168  107.13999939    4.90999985    3.09999990
   16.53194427  107.13999939    4.30999994    3.09999990
   16.53583336  109.31099701    3.20000005    3.07999992
   16.53916550  109.95899963    2.80999994    3.07999992
   16.54249954  109.52700043    1.73000002    3.07999992
   16.54555511  104.36799622    1.30999994    3.07999992
   16.54888916  108.87799835    1.13000000    3.07999992
   16.55222130  105.85099792    0.67000002    3.07999992
   16.55527687  110.30100250    0.52999997    3.07999992
   16.55861092  114.57800293    0.50000000    3.07999992
   16.56166649  112.37500000    0.44000000    3.07999992
   16.56638718  112.37500000    0.40000001    3.07999992
   16.57055664  102.95700073    0.40000001    3.07999992
   16.57361221  113.57900238    0.40000001    3.07999992
   16.57694626  114.51899719    0.38000000    3.07999992
   16.58027840  102.93199921    0.36000001    3.07999992
   16.58333397  104.50299835    0.36000001    3.07999992
   16.58666801  104.49099731    0.36000001    3.03999996
   16.58972359  110.22399902    0.36000001    3.00000000
   16.59305573  114.52700043    0.36000001    2.96000004
   16.59638977  108.40000153    0.34000000    2.84999990
   16.60083389  108.40000153    0.34000000    2.67000008
   16.60499954  103.72200012    0.34000000    2.57999992
   16.60833359  107.52500153    0.34000000    2.53999996
   16.61138916  100.47499847    0.34000000    2.44000006
   16.61472321  108.96900177    0.34000000    2.23000002
   16.61777878  101.61699677    0.31999999    2.05999994
   16.62111092  107.81500244    0.31999999    1.83000004
   16.62444496   97.26270294    0.31999999    1.78999996
   16.62750053   98.11170197    0.30000001    1.41999996
   16.63083267   99.19920349    0.28000000    1.25000000
   16.63527679   99.19920349    0.28000000    1.03999996
   16.63944435   97.99770355    0.28000000    0.83999997
   16.64277840  106.52700043    0.28000000    0.81999999
   16.64583397  105.54599762    0.28000000    0.73000002
   16.64916611  106.84999847    0.28000000    0.70999998
   16.65250015  101.83100128    0.30000001    0.70999998
   16.65555573  104.21099854    0.30000001    0.73000002
   16.65888786  104.20099640    0.25999999    0.75000000
   16.66194344  100.24199677    0.25999999    0.79000002
   16.66527748  105.24600220    0.25000000    0.80000001
   16.66972160  105.24600220    0.25000000    0.81999999
   16.67388916  107.21099854    0.23000000    0.86000001
   16.67722130  105.22200012    0.23000000    0.86000001
   16.68055534  102.73300171    0.20999999    0.88000000
   16.68361092  105.48000336    0.20999999    0.88000000
   16.68694305   97.94650269    0.20999999    0.88000000
   16.68999863   99.82450104    0.20999999    0.88000000
   16.69333267  100.91699982    0.19000000    0.86000001
   16.69666672  100.90200043    0.20999999    0.86000001
   16.69972038  102.92099762    0.19000000    0.86000001
   16.70444489  102.92099762    0.19000000    0.86000001
   16.70861244  102.50599670    0.19000000    0.83999997
   16.71166801  105.68099976    0.19000000    0.83999997
   16.71500015  103.58000183    0.19000000    0.83999997
   16.71805573   98.35220337    0.19000000    0.81999999
   16.72138977   98.70860291    0.19000000    0.81999999
   16.72472191   94.37599945    0.17000000    0.81999999
   16.72777748   93.89910126    0.17000000    0.81999999
   16.73111153  100.26999664    0.17000000    0.81999999
   16.73444557   99.09839630    0.15000001    0.80000001
   16.73888969   99.09839630    0.15000001    0.81999999
   16.74305534   96.90160370    0.15000001    0.80000001
   16.74611092   98.88189697    0.17000000    0.80000001
   16.74944496  101.15799713    0.15000001    0.80000001
   16.75277710  101.32099915    0.15000001    0.79000002
   16.75583267   95.61170197    0.13000000    0.79000002
   16.75916672  106.31900024    0.13000000    0.79000002
   16.76250076  112.79100037    0.13000000    0.79000002
   16.76555634  103.48799896    0.13000000    0.79000002
   16.76888847   97.07460022    0.13000000    0.79000002
   16.77333260   97.07460022    0.11000000    0.76999998
   16.77750015  104.26200104    0.11000000    0.75000000
   16.78083229  108.17299652    0.11000000    0.75000000
   16.78388786  111.25700378    0.11000000    0.73000002
   16.78722191  106.99600220    0.11000000    0.73000002
   16.79055595  107.21499634    0.11000000    0.73000002
   16.79361153  106.26300049    0.11000000    0.70999998
   16.79694366  106.40000153    0.11000000    0.70999998
   16.80027771  109.12300110    0.09000000    0.69000000
   16.80333328  110.07299805    0.09000000    0.69000000
   16.80777740  110.07299805    0.09000000    0.69000000
   16.81194305  106.12599945    0.09000000    0.67000002
   16.81527710  106.32099915    0.09000000    0.67000002
   16.81861115  104.20300293    0.09000000    0.64999998
   16.82166672  106.30599976    0.09000000    0.64999998
   16.82500076  108.67900085    0.09000000    0.63000000
   16.82805634  106.70999908    0.09000000    0.63000000
   16.83139038  103.71399689    0.09000000    0.61000001
   16.83472252  103.85900116    0.09000000    0.61000001
   16.83777809  103.88500214    0.09000000    0.61000001
   16.84250069  103.88500214    0.09000000    0.58999997
   16.84638977  102.24099731    0.09000000    0.58999997
   16.84972191  101.32099915    0.09000000    0.58999997
   16.85305595  102.42299652    0.09000000    0.56999999
   16.85611153  104.76699829    0.09000000    0.56999999
   16.85944557  110.82599640    0.07000000    0.55000001
   16.86277771  109.94000244    0.07000000    0.55000001
   16.86583328  106.31199646    0.07000000    0.55000001
   16.86916733  102.20500183    0.07000000    0.55000001
   16.87222290  102.49700165    0.09000000    0.55000001
   16.87694550  102.49700165    0.07000000    0.52999997
   16.88111115  108.37500000    0.07000000    0.55000001
   16.88416672   98.73040009    0.07000000    0.55000001
   16.88750076  104.19200134    0.05000000    0.55000001
   16.89083290  103.81099701    0.07000000    0.55000001
   16.89388847   97.50689697    0.05000000    0.52999997
   16.89722252  115.07599640    0.05000000    0.52999997
   16.90027809  105.30000305    0.05000000    0.52999997
   16.90361023  105.03299713    0.05000000    0.52999997
   16.90694427  108.65899658    0.05000000    0.52999997
   16.91138840  108.65899658    0.05000000    0.52999997
   16.91555595  108.80799866    0.05000000    0.52999997
   16.91888809  109.11599731    0.07000000    0.52999997
   16.92194366  104.24199677    0.07000000    0.52999997
   16.92527771  113.37400055    0.05000000    0.52999997
   16.92833328  107.87100220    0.07000000    0.52999997
   16.93166542  110.82299805    0.05000000    0.51999998
   16.93499947  109.86699677    0.05000000    0.51999998
   16.93805504  109.51000214    0.05000000    0.51999998
   16.94138718  109.19100189    0.05000000    0.50000000
   16.94583321  109.19100189    0.05000000    0.50000000
   16.95000076  104.97799683    0.05000000    0.50000000
   16.95333481  100.98500061    0.05000000    0.50000000
   16.95639038  103.63099670    0.07000000    0.50000000
   16.95972252  104.48500061    0.07000000    0.50000000
   16.96305656  109.40299988    0.05000000    0.47999999
   16.96611214  103.41400146    0.05000000    0.47999999
   16.96944427  110.15000153    0.05000000    0.47999999
   16.97277832  107.30999756    0.05000000    0.47999999
   16.97583389  110.58200073    0.05000000    0.46000001
   16.98055649  110.58200073    0.05000000    0.46000001
   16.98444557  100.88899994    0.05000000    0.46000001
   16.98777771  108.51300049    0.05000000    0.46000001
   16.99111176  107.60399628    0.07000000    0.46000001
   16.99416733  105.34100342    0.05000000    0.44000000
   16.99749947  102.41200256    0.05000000    0.44000000
   17.00083351  102.42500305    0.05000000    0.44000000
   17.00388908  108.70700073    0.05000000    0.44000000
   17.00722313  103.36000061    0.05000000    0.44000000
   17.01027870   98.62650299    0.05000000    0.41999999
   17.01499939   98.62650299    0.05000000    0.44000000
   17.01916695  103.57199860    0.05000000    0.41999999
   17.02222252  105.32599640    0.05000000    0.41999999
   17.02555466  108.58000183    0.05000000    0.41999999
   17.02861023  110.33000183    0.05000000    0.40000001
   17.03194427  105.09100342    0.05000000    0.40000001
   17.03527641  109.98200226    0.05000000    0.40000001
   17.03833199  113.47599792    0.03000000    0.38000000
   17.04166603  109.16500092    0.05000000    0.38000000
   17.04500008  107.08799744    0.05000000    0.38000000
   17.04944420  107.08799744    0.05000000    0.38000000
   17.05360985  106.09999847    0.05000000    0.38000000
   17.05666542  110.88400269    0.03000000    0.36000001
   17.05999947  103.87599945    0.03000000    0.36000001
   17.06333351  112.99500275    0.03000000    0.36000001
   17.06638718  106.82299805    0.05000000    0.36000001
   17.06972313  108.35500336    0.05000000    0.36000001
   17.07305717  117.08399963    0.03000000    0.34000000
   17.07611275  114.02999878    0.03000000    0.34000000
   17.07944489  109.67400360    0.05000000    0.34000000
   17.08388901  109.67400360    0.05000000    0.31999999
   17.08805656  107.64900208    0.05000000    0.31999999
   17.09138870  102.50800323    0.05000000    0.31999999
   17.09444427  104.75900269    0.05000000    0.31999999
   17.09777832  102.18000031    0.05000000    0.31999999
   17.11861038  102.18000031    0.03000000    0.28000000
   17.12277794  109.21800232    0.03000000    0.25999999
   17.12611198  105.30300140    0.03000000    0.25999999
   17.12916756  108.99900055    0.03000000    0.25999999
   17.13249969  108.00399780    0.05000000    0.25999999
   17.13583374  108.53500366    0.03000000    0.25999999
   17.13888931  105.52200317    0.03000000    0.25000000
   17.14222145  106.86900330    0.03000000    0.25000000
   17.14527702  104.43699646    0.03000000    0.25000000
   17.14861107  102.15599823    0.03000000    0.25000000
   17.15305519  102.15599823    0.03000000    0.23000000
   17.15722275  106.43399811    0.05000000    0.23000000
   17.16055489   97.66660309    0.03000000    0.23000000
   17.16361046  105.09999847    0.03000000    0.23000000
   17.16694450   91.12319946    0.05000000    0.23000000
   17.17000008  106.37400055    0.03000000    0.20999999
   17.17333221  102.69100189    0.03000000    0.20999999
   17.17666626  102.72100067    0.03000000    0.20999999
   17.17972183  101.65799713    0.03000000    0.20999999
   17.18305397  103.44599915    0.05000000    0.19000000
   17.18750000  103.44599915    0.05000000    0.19000000
   17.19166565  108.10700226    0.05000000    0.19000000
   17.19499969   99.05590057    0.03000000    0.19000000
   17.19805527  102.19699860    0.05000000    0.19000000
   17.20138931  101.77899933    0.05000000    0.17000000
   17.20472336  104.90100098    0.03000000    0.17000000
   17.20777893  106.30500031    0.03000000    0.17000000
   17.21111107  100.40399933    0.05000000    0.15000001
   17.21416664  103.74299622    0.05000000    0.15000001
   17.21750069  104.74099731    0.05000000    0.15000001
   17.22194481  104.74099731    0.05000000    0.15000001
   17.22611237  105.87100220    0.05000000    0.13000000
   17.22944450  107.31500244    0.03000000    0.13000000
   17.23277855  106.75599670    0.05000000    0.13000000
   17.23583412  111.47399902    0.03000000    0.11000000
   17.23916626  106.87200165    0.03000000    0.13000000
   17.24222183  107.38899994    0.05000000    0.11000000
   17.24555588  107.28600311    0.03000000    0.11000000
   17.24888992  104.66400146    0.05000000    0.11000000
   17.25194359  114.53299713    0.05000000    0.09000000
   17.25666618  114.53299713    0.03000000    0.09000000
   17.26083374  107.52799988    0.03000000    0.09000000
   17.26388931  103.60900116    0.05000000    0.09000000
   17.26722145  107.51499939    0.03000000    0.09000000
   17.27027702  100.34300232    0.05000000    0.07000000
   17.27361107   99.47989655    0.05000000    0.09000000
   17.27694511  102.54900360    0.05000000    0.07000000
   17.28000069  106.28600311    0.05000000    0.09000000
   17.28333282  100.93699646    0.05000000    0.07000000
   17.28666687   99.30110168    0.03000000    0.07000000
   17.29111099   99.30110168    0.03000000    0.07000000
   17.29527664   97.05750275    0.05000000    0.07000000
   17.29833221  110.43399811    0.03000000    0.07000000
   17.30166626  109.61399841    0.03000000    0.05000000
   17.30499840  103.95999908    0.03000000    0.05000000
   17.30805397   96.57740021    0.03000000    0.05000000
   17.31138802  101.02899933    0.03000000    0.05000000
   17.31472206  100.14600372    0.03000000    0.05000000
   17.31777954  105.13899994    0.03000000    0.05000000
   17.32111168   98.84130096    0.03000000    0.05000000
   17.32555580   98.84130096    0.03000000    0.05000000
   17.32972336  105.39499664    0.03000000    0.05000000
   17.33305550  102.11599731    0.03000000    0.05000000
   17.33611107  107.50700378    0.03000000    0.03000000
   17.33944511  104.89099884    0.03000000    0.03000000
   17.34277916  103.50700378    0.05000000    0.05000000
   17.34583473  102.15100098    0.03000000    0.05000000
   17.34916687   97.37719727    0.03000000    0.05000000
   17.35222244  109.01100159    0.03000000    0.03000000
   17.35555649  112.84100342    0.05000000    0.05000000
   17.36000061  112.84100342    0.03000000    0.03000000
   17.36416626  113.89600372    0.03000000    0.03000000
   17.36750031  103.40799713    0.03000000    0.03000000
   17.37083435  101.85600281    0.03000000    0.03000000
   17.37388992  108.44300079    0.03000000    0.03000000
   17.37722206  107.60199738    0.03000000    0.03000000
   17.38027763   99.94689941    0.03000000    0.03000000
   17.38361168  109.58799744    0.03000000    0.03000000
   17.38694382  104.55999756    0.03000000    0.03000000
   17.38999939  102.89900208    0.03000000    0.03000000
   17.39472198  102.89900208    0.03000000    0.01000000
   17.39861107  105.88300323    0.03000000    0.01000000
   17.40194321  104.75499725    0.03000000    0.01000000
   17.40527725  105.91699982    0.03000000    0.01000000
   17.40972137  108.42199707    0.03000000    0.01000000
   17.41277695  108.22100067    0.03000000    0.01000000
   17.41611099  108.54000092    0.03000000    0.01000000
   17.41916656  104.93099976    0.03000000    0.01000000
   17.42249870  105.64499664    0.03000000    0.01000000
   17.42916679  105.64499664    0.03000000    0.01000000
   17.43333244  104.92099762    0.03000000    0.01000000
   17.43638802  112.34700012    0.03000000    0.01000000
   17.43972206  109.47699738    0.03000000    0.01000000
   17.44305420  113.48899841    0.03000000    0.01000000
   17.44610977  103.06400299    0.03000000    0.01000000
   17.44944382  109.33499908    0.03000000    0.01000000
   17.45250130  116.89800262    0.03000000    0.01000000
   17.45583344  111.12999725    0.03000000    0.01000000
   17.45916748  113.02300262    0.03000000    0.01000000
   17.46361160  113.02300262    0.03000000    0.01000000
   17.46777916  123.35500336    0.03000000    0.01000000
   17.47111130  114.45500183    0.03000000    0.01000000
   17.47416687  112.30200195    0.03000000    0.01000000
   17.47750092  112.42299652    0.03000000    0.01000000
   17.48055649  114.21499634    0.03000000    0.01000000
   17.48388863  114.73400116    0.01000000    0.01000000
   17.48722267  109.00399780    0.01000000    0.01000000
   17.49027824  111.21900177    0.03000000    0.01000000
   17.49361229  111.50700378    0.01000000    0.01000000
   17.49805641  111.50700378    0.01000000    0.01000000
   17.50222206  105.72299957    0.01000000    0.01000000
   17.50555611  111.59600067    0.03000000    0.01000000
   17.50861168  109.98999786    0.03000000    0.01000000
   17.51194382  107.12799835    0.03000000    0.01000000
   17.51527786   98.36239624    0.01000000    0.01000000
   17.51833344  107.04900360    0.01000000    0.01000000
   17.52166557  106.58499908    0.01000000    0.01000000
   17.52499962  107.94100189    0.01000000    0.01000000
   17.52805519  106.28099823    0.03000000    0.01000000
   17.53277779  106.28099823    0.01000000    0.01000000
   17.53666687  115.72200012    0.01000000    0.01000000
   17.53999901  110.98799896    0.01000000    0.01000000
   17.54333305  113.83000183    0.01000000    0.01000000
   17.54638863  107.94899750    0.01000000    0.01000000
   17.54972076  114.26200104    0.01000000    0.01000000
   17.55305481  113.64900208    0.01000000    0.01000000
   17.55611038  108.96299744    0.01000000    0.01000000
   17.55944443  112.15799713    0.01000000    0.01000000
   17.56250000  107.70099640    0.01000000    0.01000000
   17.56722260  107.70099640    0.01000000    0.01000000
   17.57139015  107.53600311    0.01000000    0.01000000
   17.57444572  112.07700348    0.01000000    0.01000000
   17.57777786  101.61699677    0.01000000    0.01000000
   17.58111191  114.44000244    0.01000000    0.01000000
   17.58416748  106.91500092    0.01000000    0.01000000
   17.58750153  109.80100250    0.01000000    0.01000000
   17.59055710  103.04699707    0.01000000    0.01000000
   17.59388924  110.18800354    0.01000000    0.01000000
   17.59722328  105.93099976    0.01000000    0.01000000
   17.60166740  105.93099976    0.01000000    0.01000000
   17.60583305   99.93219757    0.01000000    0.01000000
   17.60888863  106.56500244    0.01000000    0.01000000
   17.61222267  107.87999725    0.01000000    0.01000000
   17.61555672  103.55699921    0.01000000    0.01000000
   17.61861038  101.83300018    0.01000000    0.01000000
   17.62194443  102.33899689    0.01000000    0.01000000
   17.62527847  103.49700165    0.01000000    0.01000000
   17.62833405  104.38899994    0.01000000    0.01000000
   17.63166618   97.99800110    0.01000000    0.01000000
   17.63611031   97.99800110    0.01000000    0.01000000
   17.64027786  100.54599762    0.01000000    0.01000000
   17.64361191   97.38890076    0.01000000    0.01000000
   17.64666748   93.09739685    0.01000000    0.01000000
   17.64999962  100.29000092    0.01000000    0.01000000
   17.65333366  107.69200134    0.01000000    0.01000000
   17.65638924  104.23100281    0.01000000    0.01000000
   17.65972137   98.84279633    0.01000000    0.01000000
   17.66305542  108.81999969    0.01000000    0.01000000
   17.66611099  107.17099762    0.01000000    0.01000000
   17.67055511  107.17099762    0.01000000    0.01000000
   17.67472076  104.62500000    0.01000000    0.01000000
   17.67805481  112.43800354    0.01000000    0.01000000
   17.68138885  110.29799652    0.01000000    0.01000000
   17.68444443  109.85800171    0.01000000    0.01000000
   17.68777657  112.95800018    0.01000000    0.01000000
   17.69083214  112.79399872    0.01000000    0.01000000
   17.69416618  119.66000366    0.01000000    0.01000000
   17.69749832  134.71600342    0.01000000    0.01000000
   17.70055580  145.98500061    0.01000000    0.01000000
   17.70527840  145.98500061    0.01000000    0.01000000
   17.70944595  185.49299622    0.01000000    0.01000000
   17.71250153  212.07400513    0.01000000    0.01000000
   17.71583366  254.91799927    0.01000000    0.01000000
   17.71888924  334.90899658    0.01000000    0.01000000
   17.72111130  371.31799316    0.01000000    0.01000000
   17.72222328  311.79800415    0.01000000    0.01000000
   17.72361183  226.92500305    0.01000000    0.01000000
   17.72389030  212.07400513    0.01000000    0.01000000
   17.72389030  254.91799927    0.01000000    0.01000000
   17.72389030  334.90899658    0.01000000    0.01000000
   17.72416687  112.95800018    0.01000000    0.01000000
   17.72416687  112.79399872    0.01000000    0.01000000
   17.72416687  119.66000366    0.01000000    0.01000000
   17.72444534  134.71600342    0.01000000    0.01000000
   17.72444534  145.98500061    0.01000000    0.01000000
   17.72444534  185.49299622    0.01000000    0.01000000
   17.72500038  132.27699280    0.01000000    0.01000000
   17.72833443   65.51809692    0.01000000    0.01000000
   17.73166656   23.57019997    0.01000000    0.01000000
   17.73472214   -1.00000000    0.01000000    0.01000000
   17.73805618   -1.00000000    0.01000000    0.01000000
   17.74444389   -1.00000000    0.01000000    0.01000000
   17.74861145   -1.00000000    0.01000000    0.01000000
   17.75194359   -1.00000000    0.01000000    0.01000000
   17.75499916   -1.00000000    0.01000000    0.01000000
   17.75888824   -1.00000000    0.01000000    0.01000000
   17.76194382   -1.00000000    0.01000000    0.01000000
   17.76527786   -1.00000000    0.01000000    0.01000000
   17.76861000   -1.00000000    0.01000000    0.01000000
   17.77166557   -1.00000000    0.01000000    0.01000000
   17.77499962   -1.00000000    0.01000000    0.01000000
   17.78305435   -1.00000000    0.01000000    0.01000000
   17.78638840   -1.00000000    0.01000000    0.01000000
   17.78944397   -1.00000000    0.01000000    0.01000000
   17.79305458   -1.00000000    0.01000000    0.01000000
   17.79638863   -1.00000000    0.01000000    0.01000000
   17.79972076   -1.00000000    0.01000000    0.01000000
   17.80277634   -1.00000000    0.01000000    0.01000000
   17.80611038   -1.00000000    0.01000000    0.01000000
   17.80944443   -1.00000000    0.01000000    0.01000000
   17.81750107   -1.00000000    0.01000000    0.01000000
   17.82083511   -1.00000000    0.01000000    0.01000000
   17.82416725   -1.00000000    0.01000000    0.01000000
   17.82750130   -1.00000000    0.01000000    0.01000000
   17.83083344   -1.00000000    0.01000000    0.01000000
   17.83388901   -1.00000000    0.01000000    0.01000000
   17.83722305   -1.00000000    0.01000000    0.01000000
   17.84027863   -1.00000000    0.01000000    0.01000000
   17.84361267   -1.00000000    0.01000000    0.01000000
   17.85222244   -1.00000000    0.01000000    0.01000000
   17.85527802   -1.00000000    0.01000000    0.01000000
   17.85888863   -1.00000000    0.01000000    0.01000000
   17.86194420   -1.00000000    0.01000000    0.01000000
   17.86527824   -1.00000000    0.01000000    0.01000000
   17.86861038   -1.00000000    0.01000000    0.01000000
   17.87166595   -1.00000000    0.01000000    0.01000000
   17.87500000   -1.00000000    0.01000000    0.01000000
   17.87833405   -1.00000000    0.01000000    0.01000000
   17.88666725   -1.00000000    0.01000000    0.01000000
   17.88972282   -1.00000000    0.01000000    0.01000000
   17.89333344   -1.00000000    0.01000000    0.01000000
   17.89666748   -1.00000000    0.01000000    0.01000000
   17.99527740  100.70300293    0.01000000    0.01000000
   17.99833298  105.44899750    0.01000000    0.01000000
   18.00166702  100.00299835    0.01000000    0.01000000
   18.00499916  114.97299957    0.01000000    0.01000000
   18.00805473   99.73380280    0.01000000    0.01000000
   18.01138878  105.58300018    0.01000000    0.01000000
   18.01555634  105.58300018    0.01000000    0.01000000
   18.01972198  107.42600250    0.01000000    0.01000000
   18.02277756  110.65899658    0.01000000    0.01000000
   18.02611160  110.59999847    0.01000000    0.01000000
   18.02861023  111.95500183    0.01000000    0.01000000
   18.02972221  113.70600128    0.01000000    0.01000000
   18.03305435  111.96900177    0.01000000    0.01000000
   18.03638840  111.90499878    0.01000000    0.01000000
   18.03944397  110.07199860    0.01000000    0.01000000
   18.04277802  103.23699951    0.01000000    0.01000000
   18.04611015  105.67600250    0.01000000    0.01000000
   18.04999924  105.67600250    0.01000000    0.01000000
   18.05416679  106.89499664    0.01000000    0.01000000
   18.05749893  101.87799835    0.01000000    0.01000000
   18.06083298  107.21700287    0.01000000    0.01000000
   18.06194305  107.94499969    0.01000000    0.01000000
   18.06444359  103.44999695    0.01000000    0.01000000
   18.06750107  118.09500122    0.01000000    0.01000000
   18.07083511  108.65799713    0.01000000    0.01000000
   18.07389069  113.20099640    0.01000000    0.01000000
   18.07722282  109.64900208    0.01000000    0.01000000
   18.08055687  110.15799713    0.01000000    0.01000000
   18.08472252  110.15799713    0.01000000    0.01000000
   18.08889008  112.49099731    0.01000000    0.01000000
   18.09194565  115.75499725    0.01000000    0.01000000
   18.09527779  112.53900146    0.01000000    0.01000000
   18.09583473  108.91600037    0.01000000    0.01000000
   18.09889030  106.68699646    0.01000000    0.01000000
   18.10222244  108.84200287    0.01000000    0.01000000
   18.10527802  108.97399902    0.01000000    0.01000000
   18.10861206  112.13300323    0.01000000    0.01000000
   18.11194420  108.27600098    0.01000000    0.01000000
   18.11499977  110.70099640    0.01000000    0.01000000
   18.11916733  110.70099640    0.01000000    0.01000000
   18.12333298  118.96700287    0.01000000    0.01000000
   18.12666702  115.07199860    0.01000000    0.01000000
   18.12861061  108.64099884    0.01000000    0.01000000
   18.13027763  112.09200287    0.01000000    0.01000000
   18.13333321  114.78800201    0.01000000    0.01000000
   18.13666725  104.81199646    0.01000000    0.01000000
   18.13999939  119.36100006    0.01000000    0.01000000
   18.14305496  109.08200073    0.01000000    0.01000000
   18.14638901  107.47100067    0.01000000    0.01000000
   18.14944458  114.87400055    0.01000000    0.01000000
   18.15361023  114.87400055    0.01000000    0.01000000
   18.15777779  114.91600037    0.01000000    0.01000000
   18.16110992  113.12799835    0.01000000    0.01000000
   18.16194344  112.46199799    0.01000000    0.01000000
   18.16472244  104.89499664    0.01000000    0.01000000
   18.16777802  112.42800140    0.01000000    0.01000000
   18.17111015  108.35099792    0.01000000    0.01000000
   18.17444420  103.40899658    0.01000000    0.01000000
   18.17749977  109.01899719    0.01000000    0.01000000
   18.18083191  104.39800262    0.01000000    0.01000000
   18.18388748   96.21080017    0.01000000    0.01000000
   18.18833160   96.21080017    0.01000000    0.01000000
   18.19249916  102.72299957    0.01000000    0.01000000
   18.19527626   96.82469940    0.01000000    0.01000000
   18.19610977  108.35900116    0.01000000    0.01000000
   18.19916534  109.44799805    0.01000000    0.01000000
   18.20250130  108.15200043    0.01000000    0.01000000
   18.20555687  104.63500214    0.01000000    0.01000000
   18.20888901  104.74600220    0.01000000    0.01000000
   18.21222305  108.69799805    0.01000000    0.01000000
   18.21527863  101.15000153    0.01000000    0.01000000
   18.21861076   99.54129791    0.01000000    0.01000000
   18.22277832   99.54129791    0.01000000    0.01000000
   18.22694588  110.36100006    0.01000000    0.01000000
   18.22861099  108.38999939    0.01000000    0.01000000
   18.23055649  111.37300110    0.01000000    0.01000000
   18.23361206  103.03099823    0.01000000    0.01000000
   18.23694420  110.69899750    0.01000000    0.01000000
   18.24027824  107.57299805    0.01000000    0.01000000
   18.24333382  109.13999939    0.01000000    0.01000000
   18.24666786  103.96900177    0.01000000    0.01000000
   18.24972153  102.05500031    0.01000000    0.01000000
   18.25305557  104.62599945    0.01000000    0.01000000
   18.25722313  104.62599945    0.01000000    0.01000000
   18.26138878  100.12200165    2.44000006    2.93000007
   18.26194382   99.63420105    1.61000001    2.96000004
   18.26499939  109.11299896    1.34000003    2.94000006
   18.26805496  113.01999664    1.30999994    2.93000007
   18.27138901  100.34600067    1.30999994    2.93000007
   18.27472115  117.24099731    1.34000003    2.93000007
   18.27777672  101.11199951    1.36000001    2.93000007
   18.28111076  103.31999969    1.36000001    2.93000007
   18.28416634  107.30500031    1.36000001    2.93000007
   18.28750038  104.38099670    1.36000001    2.94000006
   18.29166603  104.38099670    1.36000001    2.93000007
   18.29583359  117.76899719    1.36000001    2.94000006
   18.29916573  105.35900116    1.36000001    2.94000006
   18.30222130  113.23799896    1.36000001    2.94000006
   18.30555534  108.12300110    1.36000001    2.94000006
   18.30888748  111.57299805    1.36000001    2.94000006
   18.31194305  110.35600281    1.36000001    2.93000007
   18.31527710  117.80100250    1.36000001    2.93000007
   18.31861115  112.58999634    1.38000000    2.93000007
   18.32166672  114.91000366    1.38000000    2.93000007
   18.32638931  114.91000366    1.38000000    2.93000007
   18.33027840  113.77600098    1.60000002    2.93000007
   18.33361244  104.23300171    2.03999996    2.94000006
   18.33694458  112.65399933    2.17000008    2.94000006
   18.34000015  120.39600372    2.34999990    2.94000006
   18.34333420  107.16000366    2.53999996    2.94000006
   18.34666824  100.11900330    2.91000009    2.94000006
   18.34972191  113.48899841    3.01999998    2.94000006
   18.35305595  121.02300262    3.03999996    2.94000006
   18.35611153  118.15899658    3.03999996    2.94000006
   18.36083412  118.15899658    3.03999996    2.94000006
   18.36499977  108.89099884    2.51999998    2.93000007
   18.36805534  121.20999908    4.90999985    2.94000006
   18.37138939  112.70500183    4.90999985    2.94000006
   18.37472153  114.48899841    4.90999985    2.94000006
   18.37777710  113.97299957    4.90999985    2.94000006
   18.38111115  113.30599976    4.90999985    2.94000006
   18.38416672  103.43399811    4.90999985    2.91000009
   18.38750076  104.18099976    4.90999985    2.93000007
   18.39083290  123.04000092    3.25000000    2.93000007
   18.39527702  123.04000092    2.86999989    2.93000007
   18.39944458  113.84999847    2.64000010    2.93000007
   18.40277672  107.89499664    2.66000009    2.91000009
   18.40583229  110.72599792    2.25000000    2.93000007
   18.40916634  122.04000092    1.61000001    2.93000007
   18.41222191  115.09999847    1.51999998    2.93000007
   18.41555595  115.11699677    1.50000000    2.93000007
   18.41888809  117.70800018    1.50000000    2.93000007
   18.42194366  106.78600311    1.50000000    2.93000007
   18.42527771  112.74900055    1.50000000    2.93000007
   18.42972183  112.74900055    1.48000002    2.93000007
   18.43388748  113.81099701    1.50000000    2.93000007
   18.43722153  110.95200348    1.51999998    2.93000007
   18.44027710  107.54599762    1.50000000    2.93000007
   18.44361115  115.01799774    1.51999998    2.94000006
   18.44694328  113.72100067    1.51999998    2.93000007
   18.45000076  109.30000305    1.51999998    2.94000006
   18.45333481  101.36100006    1.51999998    2.93000007
   18.45666695  104.64199829    1.51999998    2.93000007
   18.45972252  100.86299896    1.51999998    2.93000007
   18.46416664  100.86299896    1.50000000    2.93000007
   18.46833420   96.91979980    1.50000000    2.93000007
   18.47166634   97.25299835    1.50000000    2.93000007
   18.47500038  103.15200043    1.48000002    2.93000007
   18.47805595  102.81900024    1.48000002    2.93000007
   18.48139000  108.42299652    1.46000004    2.93000007
   18.48444557  106.76599884    1.46000004    2.93000007
   18.48777771  100.70800018    1.44000006    2.93000007
   18.49111176  103.24299622    1.44000006    2.93000007
   18.49416733  104.78800201    1.41999996    2.93000007
   18.49888992  104.78800201    1.44000006    2.93000007
   18.50305557   99.60549927    1.41999996    2.93000007
   18.50611115   92.78099823    1.44000006    2.93000007
   18.50944519  103.88200378    1.44000006    2.94000006
   18.51250076  109.64199829    1.44000006    2.93000007
   18.51583290  109.78900146    1.44000006    2.94000006
   18.51916695  105.23200226    1.44000006    2.94000006
   18.52222252  109.76200104    1.46000004    2.93000007
   18.52555466   97.72779846    1.48000002    2.93000007
   18.52888870  107.09700012    1.51999998    2.91000009
   18.53333282  107.09700012    1.55999994    2.93000007
   18.53750038  102.35299683    1.64999998    2.93000007
   18.54055595  105.17700195    1.75000000    2.91000009
   18.54388809  105.01399994    2.05999994    2.93000007
   18.54722214  103.66999817    2.28999996    2.93000007
   18.55027771  105.99199677    2.46000004    2.93000007
   18.55360985  108.52100372    2.91000009    2.94000006
   18.55694389  117.25499725    3.51999998    2.93000007
   18.55999947  112.82099915    4.17999983    2.93000007
   18.56333351  113.63999939    4.82999992    2.93000007
   18.56777954  113.63999939    4.90999985    2.94000006
   18.57194519  104.67500305    4.90999985    2.94000006
   18.57527924  104.97000122    4.90999985    2.91000009
   18.57833481  107.06800079    2.53999996    2.93000007
   18.58166695  108.52200317    1.71000004    2.91000009
   18.58500099  104.09700012    4.90999985    2.96000004
   18.58805656  109.87500000    4.90999985    2.94000006
   18.59138870  108.21900177    4.90999985    3.01999998
   18.59472275  109.55500031    4.90999985    2.91000009
   18.59777832  110.37400055    4.90999985    2.89000010
   18.60222244  110.37400055    4.90999985    2.89000010
   18.60639000  110.38800049    4.90999985    2.89000010
   18.60972214  111.30599976    4.90999985    2.89000010
   18.61305618  104.25700378    4.90999985    2.89000010
   18.61611176  109.13400269    4.90999985    2.89000010
   18.61944389  105.32700348    4.90999985    2.89000010
   18.62249947  105.98200226    4.90999985    2.89000010
   18.62583351  102.39199829    4.90999985    2.89000010
   18.62916756  102.49600220    4.90999985    2.89000010
   18.63222313  105.48200226    4.90999985    2.89000010
   18.63694382  105.48200226    4.90999985    2.89000010
   18.64083290  104.01000214    4.90999985    2.89000010
   18.64416695  107.83000183    4.90999985    2.89000010
   18.64749908  110.94499969    4.90999985    2.89000010
   18.65055466  109.29399872    4.90999985    2.89000010
   18.65388870  106.39800262    3.51999998    2.91000009
   18.65694427  109.49700165    2.59999990    2.91000009
   18.66027832  107.80799866    2.09999990    2.91000009
   18.66361046  104.65499878    1.91999996    2.89000010
   18.66666603  106.59999847    1.89999998    2.91000009
   18.67138863  106.59999847    1.83000004    2.91000009
   18.67555428  103.30799866    1.76999998    2.89000010
   18.67860985  107.59600067    1.76999998    2.91000009
   18.68194389  106.17299652    1.78999996    2.91000009
   18.68499947  106.66999817    1.78999996    2.91000009
   18.68833160  108.03900146    1.80999994    2.91000009
   18.69166565  111.06300354    1.83000004    2.91000009
   18.69472122  108.31800079    1.83000004    2.91000009
   18.69805527  116.83200073    1.83000004    2.91000009
   18.70138931  106.11799622    1.83000004    2.89000010
   18.70583344  106.11799622    1.83000004    2.91000009
   18.71000099  108.91200256    1.80999994    2.91000009
   18.71305656  104.29299927    1.80999994    2.91000009
   18.71638870   98.27200317    1.80999994    2.91000009
   18.71972275  104.66400146    1.80999994    2.91000009
   18.72277832  103.63300323    1.80999994    2.91000009
   18.72611237  107.00900269    1.85000002    2.91000009
   18.72944450  101.83399963    1.83000004    2.91000009
   18.73250008  104.38800049    1.83000004    2.91000009
   18.73583412  112.41999817    1.83000004    2.89000010
   18.74027824  112.41999817    1.85000002    2.91000009
   18.74444389  104.82399750    1.85000002    2.89000010
   18.74777794  106.36799622    1.85000002    2.91000009
   18.75083351  103.85399628    1.86000001    2.93000007
   18.75416756  108.07199860    1.85000002    2.91000009
   18.75749969  106.66600037    1.83000004    2.91000009
   18.76055527  105.99800110    1.80999994    2.91000009
   18.76388931  105.20899963    1.80999994    2.91000009
   18.76722145  110.17700195    1.80999994    2.91000009
   18.77027702  102.72200012    1.78999996    2.91000009
   18.77499962  102.72200012    1.78999996    2.91000009
   18.77888870  110.60500336    1.78999996    2.91000009
   18.78222275  106.72299957    1.78999996    2.91000009
   18.78555489  102.13200378    1.80999994    2.91000009
   18.78861046  101.09899902    1.85000002    2.91000009
   18.79194450  107.59999847    2.03999996    2.91000009
   18.79527664  111.56600189    2.32999992    2.91000009
   18.79833221  104.23300171    2.46000004    2.91000009
   18.80166626  104.23000336    2.84999990    2.93000007
   18.80472183  108.71099854    3.23000002    2.93000007
   18.80944443  108.71099854    4.11999989    2.93000007
   18.81361008  109.59200287    4.90999985    2.93000007
   18.81666756  109.57700348    4.90999985    2.93000007
   18.82000160  108.17299652    4.90999985    2.93000007
   18.82305717  105.90899658    4.90999985    2.93000007
   18.82638931  106.22799683    4.90999985    2.91000009
   18.82972336  104.45400238    4.90999985    2.91000009
   18.83277893  103.22499847    4.90999985    2.93000007
   18.83611107  105.50499725    4.90999985    2.91000009
   18.83944511  105.91699982    4.90999985    2.93000007
   18.84388924  105.91699982    4.90999985    2.93000007
   18.84805679  104.62500000    4.90999985    2.91000009
   18.85111237  100.82700348    4.90999985    2.93000007
   18.85444450  103.20800018    4.90999985    2.93000007
   18.85777855  108.04100037    4.90999985    2.93000007
   18.86083412  102.55500031    4.90999985    2.94000006
   18.86416626   98.25530243    4.90999985    2.96000004
   18.86750031  118.51200104    4.90999985    2.96000004
   18.87055588  109.63600159    4.90999985    2.96000004
   18.87388992  110.73999786    4.90999985    2.98000002
   18.87833405  110.73999786    4.90999985    2.98000002
   18.88249969  107.47100067    4.90999985    3.00000000
   18.88583374  108.27899933    4.90999985    3.00000000
   18.88888931  111.72299957    4.90999985    3.00000000
   18.89222145  107.72100067    4.90999985    3.01999998
   18.89555550  104.54100037    4.90999985    3.00000000
   18.89861107  102.57099915    4.90999985    3.00000000
   18.90194321  105.62100220    4.90999985    3.00000000
   18.90499878  102.46199799    4.90999985    3.00000000
   18.90833282  105.09700012    4.90999985    3.00000000
   18.91277695  105.09700012    4.90999985    2.98000002
   18.91694450  110.01100159    4.90999985    2.98000002
   18.92027664  102.19100189    4.90999985    2.94000006
   18.92361069  110.00900269    4.90999985    2.94000006
   18.92666626  105.94400024    4.90999985    2.94000006
   18.93000031  112.50900269    4.90999985    2.93000007
   18.93333244  105.83000183    4.90999985    2.93000007
   18.93638802  112.63300323    4.90999985    2.93000007
   18.93972206  108.94699860    4.90999985    2.93000007
   18.94277763  109.34799957    4.90999985    2.94000006
   18.94749832  109.34799957    4.90999985    2.96000004
   18.95166779  108.60600281    4.90999985    2.98000002
   18.95472336  106.25800323    4.90999985    3.00000000
   18.95805550  105.14099884    4.90999985    2.98000002
   18.96111107  101.20400238    4.90999985    3.01999998
   18.96444511  101.45400238    4.90999985    3.01999998
   18.96777916  104.85399628    4.90999985    3.03999996
   18.97083473  108.36100006    4.90999985    3.01999998
   18.97416687  101.32299805    4.90999985    3.05999994
   18.97750092   99.78700256    4.90999985    3.03999996
   18.98194504   99.78700256    4.90999985    3.05999994
   18.98611069  106.05699921    4.90999985    3.03999996
   18.98916626  102.73300171    4.67999983    3.01999998
   18.99250031  107.48200226    3.78999996    3.03999996
   18.99583435  106.18199921    3.03999996    3.03999996
   19.01666641  106.18199921    0.63000000    2.71000004
   19.02083397  114.16899872    0.61000001    2.67000008
   19.02388954  113.78900146    0.56999999    2.34999990
   19.02722168  109.90200043    0.56999999    2.26999998
   19.03055573  113.02899933    0.55000001    2.09999990
   19.03361130  107.65799713    0.51999998    1.83000004
   19.03694344  106.72299957    0.50000000    1.53999996
   19.04027748  111.83499908    0.47999999    1.36000001
   19.04333305  110.95800018    0.46000001    1.16999996
   19.04666710  110.34700012    0.46000001    1.03999996
   19.05111122  110.34700012    0.44000000    0.83999997
   19.05527687  111.90000153    0.40000001    0.76999998
   19.05833244  104.55699921    0.40000001    0.75000000
   19.06166649   98.02189636    0.40000001    0.70999998
   19.06499863  113.98699951    0.38000000    0.70999998
   19.06805611  111.23699951    0.38000000    0.70999998
   19.07139015  104.25399780    0.36000001    0.73000002
   19.07444572  111.10099792    0.36000001    0.79000002
   19.07777786  105.75800323    0.36000001    0.80000001
   19.08111191  108.73899841    0.36000001    0.81999999
   19.08555603  108.73899841    0.34000000    0.83999997
   19.08972359  107.39399719    0.34000000    0.86000001
   19.09305573  102.15100098    0.34000000    0.86000001
   19.09611130  104.25199890    0.31999999    0.86000001
   19.09944534  103.45300293    0.31999999    0.86000001
   19.10250092  112.17400360    0.31999999    0.86000001
   19.10583305  102.71900177    0.30000001    0.86000001
   19.10916710  106.08499908    0.30000001    0.86000001
   19.11222267  108.24400330    0.30000001    0.83999997
   19.11555672  111.60900116    0.30000001    0.83999997
   19.12000084  111.60900116    0.28000000    0.83999997
   19.12416649  107.00299835    0.28000000    0.83999997
   19.12750053  111.05999756    0.28000000    0.81999999
   19.13055611  106.04199982    0.25999999    0.81999999
   19.13388824   99.58209991    0.25999999    0.81999999
   19.13722229  108.09999847    0.25999999    0.81999999
   19.14027786  106.38899994    0.25999999    0.80000001
   19.14361191  107.96800232    0.25999999    0.80000001
   19.14666748  105.16400146    0.25000000    0.80000001
   19.14999962  106.67199707    0.25999999    0.80000001
   19.15444374  106.67199707    0.25000000    0.80000001
   19.15861130  114.33899689    0.25000000    0.79000002
   19.16194344  113.17900085    0.25000000    0.79000002
   19.16527748  107.97100067    0.25000000    0.79000002
   19.16833305  113.90699768    0.25000000    0.79000002
   19.17166519  110.61000061    0.25000000    0.79000002
   19.17472076  108.72100067    0.25000000    0.76999998
   19.17805481  109.84500122    0.23000000    0.76999998
   19.18138885  101.50800323    0.25000000    0.76999998
   19.18444443  112.72299957    0.23000000    0.75000000
   19.18916512  112.72299957    0.23000000    0.75000000
   19.19333267  105.40499878    0.23000000    0.75000000
   19.19638824  114.31500244    0.23000000    0.73000002
   19.19972038  111.88099670    0.23000000    0.70999998
   19.20305634  111.26699829    0.20999999    0.70999998
   19.20611191  103.81300354    0.20999999    0.69000000
   19.20944595  108.13400269    0.20999999    0.69000000
   19.21277809  101.35600281    0.20999999    0.69000000
   19.21583366  100.03199768    0.20999999    0.67000002
   19.21916771  104.52999878    0.19000000    0.67000002
   19.22361183  104.52999878    0.20999999    0.67000002
   19.22777748   99.84999847    0.20999999    0.64999998
   19.23083305  108.51599884    0.19000000    0.63000000
   19.23416710  115.98100281    0.19000000    0.63000000
   19.23750114  106.37999725    0.19000000    0.61000001
   19.24055672  110.55799866    0.19000000    0.61000001
   19.24388885  106.13400269    0.19000000    0.61000001
   19.24722290  106.07199860    0.19000000    0.61000001
   19.25027847  118.96800232    0.17000000    0.58999997
   19.25361061  114.87799835    0.17000000    0.56999999
   19.25805473  114.87799835    0.17000000    0.56999999
   19.26222229  108.47499847    0.17000000    0.56999999
   19.26555634  101.47100067    0.17000000    0.55000001
   19.26861000  106.23200226    0.17000000    0.55000001
   19.27194405  106.13600159    0.17000000    0.55000001
   19.27527809  106.95800018    0.15000001    0.52999997
   19.27833366  105.51000214    0.17000000    0.52999997
   19.28166580  113.56300354    0.15000001    0.52999997
   19.28472137  106.81400299    0.17000000    0.52999997
   19.28805542  108.21399689    0.15000001    0.52999997
   19.29249954  108.21399689    0.15000001    0.52999997
   19.29666710  104.62699890    0.15000001    0.52999997
   19.29999924  102.30699921    0.15000001    0.52999997
   19.30305481  110.64900208    0.15000001    0.52999997
   19.30638885  109.66000366    0.15000001    0.52999997
   19.30972099  108.30000305    0.15000001    0.52999997
   19.31277657  109.10800171    0.13000000    0.52999997
   19.31611061  108.96900177    0.13000000    0.52999997
   19.31944466  101.66699982    0.15000001    0.51999998
   19.32250023  111.05000305    0.13000000    0.51999998
   19.32722282  111.05000305    0.13000000    0.51999998
   19.33111191  110.44999695    0.13000000    0.51999998
   19.33444595  107.22899628    0.13000000    0.51999998
   19.33777809  113.43499756    0.13000000    0.51999998
   19.34083366  105.31700134    0.13000000    0.50000000
   19.34416771  109.79199982    0.13000000    0.50000000
   19.34749985  108.67099762    0.13000000    0.51999998
   19.35055542  107.15000153    3.01999998    2.89000010
   19.35388947  108.07099915    2.57999992    2.89000010
   19.35694504  107.52200317    2.46000004    2.91000009
   19.36166763  107.52200317    2.36999989    2.89000010
   19.36583328  108.74500275    2.34999990    2.91000009
   19.36888885  110.93699646    2.32999992    2.91000009
   19.37222290  108.39499664    2.34999990    2.91000009
   19.37555504  108.42700195    2.32999992    2.91000009
   19.37861061  110.28399658    2.34999990    2.89000010
   19.38194466  103.30999756    2.36999989    2.91000009
   19.38500023  106.30799866    2.40000010    2.91000009
   19.38833237  107.21499634    2.50000000    2.91000009
   19.39166641  110.37699890    2.57999992    2.91000009
   19.39611053  110.37699890    2.80999994    2.91000009
   19.40027809  107.88300323    3.03999996    2.91000009
   19.40333366  111.45300293    3.32999992    2.91000009
   19.40666580  105.98799896    3.68000007    2.93000007
   19.40999985  109.77600098    4.26000023    2.91000009
   19.41305542  110.61599731    4.78000021    2.91000009
   19.41638756  114.04499817    4.90999985    2.91000009
   19.41972160  109.92299652    4.90999985    2.91000009
   19.42277718  110.22699738    4.90999985    2.91000009
   19.42611122  108.26699829    4.90999985    2.93000007
   19.43055534  108.26699829    4.90999985    2.91000009
   19.43472099  110.84400177    4.90999985    2.91000009
   19.43805504  108.24800110    4.90999985    2.91000009
   19.44111061  114.02200317    4.90999985    2.91000009
   19.44444275  107.72200012    4.90999985    2.91000009
   19.44777679  104.91699982    4.90999985    2.91000009
   19.45083427  107.78099823    4.90999985    2.91000009
   19.45416832  111.43599701    4.90999985    2.91000009
   19.45722389  104.70800018    4.90999985    2.91000009
   19.46055603  107.66300201    4.90999985    2.91000009
   19.46500015  107.66300201    4.90999985    2.91000009
   19.46916771  102.58200073    4.90999985    2.93000007
   19.47249985  109.72799683    4.90999985    2.93000007
   19.47583389  109.15699768    4.90999985    2.94000006
   19.47888947  108.39900208    4.90999985    2.96000004
   19.48222351  112.56700134    4.90999985    2.96000004
   19.48527718  108.17700195    4.90999985    2.98000002
   19.48861122  105.92800140    4.90999985    2.98000002
   19.49194527  104.27400208    4.90999985    2.98000002
   19.49500084  112.73999786    4.90999985    2.98000002
   19.49972153  112.73999786    4.90999985    2.98000002
   19.50361061   96.51889801    4.90999985    3.00000000
   19.50694466   97.87480164    4.90999985    2.98000002
   19.51027870  111.93800354    4.90999985    2.96000004
   19.51333427  113.80699921    4.90999985    2.98000002
   19.51666641  110.69899750    4.90999985    2.96000004
   19.52000046  106.73799896    4.90999985    2.96000004
   19.52305603  105.91600037    4.90999985    2.94000006
   19.52638817  105.88500214    4.90999985    2.93000007
   19.52972221  101.32299805    4.90999985    2.93000007
   19.53416634  101.32299805    4.90999985    2.91000009
   19.53833199  102.51999664    4.90999985    2.91000009
   19.54138756   98.63559723    4.90999985    2.93000007
   19.54472160   98.25569916    4.90999985    2.91000009
   19.54805565  101.12000275    4.90999985    2.93000007
   19.55111122   95.20729828    4.90999985    2.94000006
   19.55444336   96.77539825    4.90999985    2.94000006
   19.55749893   95.80319977    4.90999985    2.94000006
   19.56083298   91.71559906    4.90999985    2.96000004
   19.56416512   90.51820374    4.90999985    2.96000004
   19.56861115   90.51820374    4.90999985    3.00000000
   19.57277870   97.83910370    4.90999985    3.00000000
   19.57611275  103.13200378    4.90999985    3.00000000
   19.57916832  103.55000305    4.90999985    3.00000000
   19.58250046  103.33399963    4.90999985    3.00000000
   19.58555603   95.45089722    4.90999985    3.01999998
   19.58889008   96.48459625    4.90999985    3.00000000
   19.59222221   98.22029877    4.90999985    3.00000000
   19.59527779  106.07399750    4.73999977    3.00000000
   19.59861183  106.36299896    3.93000007    3.00000000
   19.60305595  106.36299896    2.78999996    2.98000002
   19.60722351  109.60199738    2.13000011    2.98000002
   19.61055565  111.70300293    1.80999994    2.98000002
   19.61361122  109.01200104    1.44000006    2.98000002
   19.61694527  113.45200348    1.33000004    2.98000002
   19.62027740  107.23000336    1.21000004    2.98000002
   19.62333298  106.77600098    1.16999996    2.98000002
   19.62666702  109.94699860    1.11000001    2.98000002
   19.63000107  109.23999786    1.09000003    2.98000002
   19.63305473  105.66100311    1.09000003    2.98000002
   19.63777733  105.66100311    1.01999998    2.98000002
   19.64166641  103.99900055    1.00000000    2.98000002
   19.64500046  102.87799835    0.95999998    2.96000004
   19.64833260  104.38999939    0.94000000    2.94000006
   19.65138817  100.60199738    0.92000002    2.89000010
   19.65472221  106.41400146    0.89999998    2.84999990
   19.65805435  105.94499969    0.88000000    2.75000000
   19.66110992  109.29000092    0.86000001    2.67000008
   19.66444397  113.42299652    0.86000001    2.64000010
   19.66749954  107.16000366    0.80000001    2.36999989
   19.67222214  107.16000366    0.79000002    2.09999990
   19.67638779  110.14499664    0.73000002    1.83000004
   19.67944336  109.50499725    0.70999998    1.64999998
   19.68277740  109.08799744    0.70999998    1.41999996
   19.68583298  103.10600281    0.69000000    1.26999998
   19.68916512  112.45200348    0.64999998    1.07000005
   19.69249916  102.83899689    0.63000000    0.94000000
   19.69555473   98.46820068    0.61000001    0.81999999
   19.69888878  103.27300262    0.58999997    0.75000000
   19.70222282  100.52400208    0.56999999    0.70999998
   19.70666695  100.52400208    0.55000001    0.69000000
   19.71083450  102.11299896    0.52999997    0.69000000
   19.71389008   99.78479767    0.51999998    0.73000002
   19.71722221  104.66899872    0.51999998    0.75000000
   19.72055626  104.83300018    0.51999998    0.79000002
   19.72361183  104.48500061    0.50000000    0.80000001
   19.72694588  106.65599823    0.47999999    0.81999999
   19.73027802  103.71099854    0.47999999    0.81999999
   19.73333359  102.32800293    0.46000001    0.83999997
   19.73666763   98.15889740    0.46000001    0.83999997
   19.74111176   98.15889740    0.44000000    0.83999997
   19.74527740  110.18099976    0.44000000    0.83999997
   19.74861145  111.15599823    0.41999999    0.83999997
   19.75166702  113.73799896    0.41999999    0.83999997
   19.75499916  110.03800201    0.41999999    0.83999997
   19.75833321  104.88099670    0.40000001    0.83999997
   19.76138878  107.76899719    0.40000001    0.81999999
   19.76472282  107.04199982    0.40000001    0.81999999
   19.76777840  105.99299622    0.40000001    0.81999999
   19.77111053  116.46600342    0.38000000    0.80000001
   19.77555466  116.46600342    0.38000000    0.80000001
   19.77972221  104.65100098    0.36000001    0.80000001
   19.78305435  103.80799866    0.36000001    0.80000001
   19.78638840  112.59500122    0.36000001    0.79000002
   19.78944397  108.56600189    0.34000000    0.79000002
   19.79277802  109.73000336    0.34000000    0.79000002
   19.79611015  105.91999817    0.34000000    0.79000002
   19.79916573  114.19300079    0.34000000    0.79000002
   19.80249977  104.68499756    0.31999999    0.79000002
   19.80555534  107.09100342    0.34000000    0.79000002
   19.81027794  107.09100342    0.31999999    0.76999998
   19.81444359  101.24099731    0.31999999    0.76999998
   19.81750107  108.26100159    0.30000001    0.75000000
   19.82083511  108.65599823    0.30000001    0.75000000
   19.82389069  105.71600342    0.30000001    0.75000000
   19.82722282  103.15299988    0.30000001    0.75000000
   19.83055687  110.44200134    0.30000001    0.75000000
   19.83361244  110.63899994    0.28000000    0.73000002
   19.83694458  105.19699860    0.28000000    0.73000002
   19.84027863  108.65499878    0.25999999    0.70999998
   19.84472275  108.65499878    0.25999999    0.69000000
   19.84889030  116.26200104    0.25999999    0.69000000
   19.85194397  106.87999725    0.25999999    0.69000000
   19.85527802  110.37300110    0.25999999    0.67000002
   19.85861206  108.43499756    0.25999999    0.67000002
   19.86166763  112.79799652    0.25999999    0.67000002
   19.86499977  111.29900360    0.25000000    0.64999998
   19.86805534  108.34500122    0.25000000    0.64999998
   19.87138939  108.23500061    0.25000000    0.63000000
   19.87472153  109.42400360    0.25000000    0.63000000
   19.87916756  109.42400360    0.25000000    0.61000001
   19.88333321  112.61499786    0.23000000    0.61000001
   19.88666725  109.55200195    0.23000000    0.58999997
   19.88972282  111.60099792    0.23000000    0.58999997
   19.89305496  113.27200317    0.23000000    0.56999999
   19.89611053  122.44300079    0.23000000    0.56999999
   19.89944458  116.66200256    0.23000000    0.56999999
   19.90277672  110.07900238    0.20999999    0.56999999
   19.90583229  103.17299652    0.23000000    0.55000001
   19.90916634  102.09899902    0.20999999    0.55000001
   19.91361046  102.09899902    0.23000000    0.52999997
   19.91777802  103.28800201    0.20999999    0.52999997
   19.92111015  106.23500061    0.20999999    0.52999997
   19.92416573  105.91500092    0.20999999    0.52999997
   19.92749977  109.39800262    0.20999999    0.52999997
   19.93083191  107.25399780    0.20999999    0.51999998
   19.93388748  106.55000305    0.19000000    0.51999998
   19.93722153  109.40100098    0.20999999    0.51999998
   19.94055557  105.87500000    0.19000000    0.51999998
   19.94361115  107.54100037    0.19000000    0.51999998
   19.94833183  107.54100037    0.19000000    0.51999998
   19.95222282  111.40000153    0.19000000    0.51999998
   19.95555687  105.15499878    0.19000000    0.51999998
   19.95888901  105.10900116    0.19000000    0.51999998
   19.96194458  108.01999664    0.19000000    0.51999998
   19.96527863  115.01399994    0.19000000    0.51999998
   19.96861076  114.78299713    0.17000000    0.51999998
   19.97166634  109.19699860    0.19000000    0.51999998
   19.97500038  112.46199799    0.17000000    0.51999998
   19.97833443  106.80000305    0.17000000    0.51999998
   19.98277855  106.80000305    0.17000000    0.50000000
   19.98694420  113.53800201    0.17000000    0.50000000
   19.98999977  106.34200287    0.17000000    0.50000000
   19.99333382  104.35700226    0.17000000    0.47999999
   19.99666786  108.83100128    0.17000000    0.47999999
   19.99972153  108.35500336    0.17000000    0.47999999
   20.00305557  105.28600311    0.17000000    0.47999999
   20.00611115  111.17299652    0.17000000    0.47999999
   20.00944519  115.66899872    0.17000000    0.47999999
   20.01277733  111.92700195    0.17000000    0.47999999
   20.03333282  111.92700195    0.15000001    0.44000000
   20.03750038  107.52700043    0.15000001    0.44000000
   20.04055595  108.56600189    0.15000001    0.44000000
   20.04388809  109.17700195    0.15000001    0.44000000
   20.04722214  112.42600250    0.15000001    0.44000000
   20.05027771  114.06400299    0.15000001    0.44000000
   20.05360985  115.39399719    0.15000001    0.41999999
   20.05694389  112.92400360    0.15000001    0.41999999
   20.05999947  112.01899719    0.15000001    0.41999999
   20.06333351  111.61599731    0.13000000    0.40000001
   20.06777954  111.61599731    0.13000000    0.40000001
   20.07194519  109.92700195    0.13000000    0.40000001
   20.07500076  108.30999756    0.13000000    0.40000001
   20.07833481  111.57599640    0.13000000    0.40000001
   20.08166695  117.05300140    0.13000000    0.40000001
   20.08472252  111.44999695    0.13000000    0.38000000
   20.08805656  108.57900238    0.13000000    0.38000000
   20.09111214  107.47599792    0.13000000    0.38000000
   20.09444427  114.98000336    0.13000000    0.38000000
   20.09777832  111.53299713    0.13000000    0.36000001
   20.10222244  111.53299713    0.13000000    0.36000001
   20.10639000  108.84300232    0.13000000    0.36000001
   20.10972214  104.37999725    0.13000000    0.34000000
   20.11277771  108.27200317    0.13000000    0.36000001
   20.11611176  110.81500244    0.13000000    0.36000001
   20.11916733  110.03299713    0.13000000    0.34000000
   20.12249947  111.52300262    0.13000000    0.34000000
   20.12583351  111.77600098    0.13000000    0.31999999
   20.12888908  114.02100372    0.13000000    0.31999999
   20.13222313  108.42500305    0.13000000    0.31999999
   20.13666725  108.42500305    0.13000000    0.30000001
   20.14083290  111.83399963    0.13000000    0.30000001
   20.14416695  114.35900116    0.13000000    0.30000001
   20.14722252  116.07700348    0.13000000    0.30000001
   20.15055466  114.50299835    0.13000000    0.30000001
   20.15388870  114.93099976    0.13000000    0.28000000
   20.15694427  105.20800018    0.13000000    0.28000000
   20.16027832  116.30100250    0.11000000    0.28000000
   20.16333389  117.14199829    0.11000000    0.28000000
   20.16666603  113.26799774    0.11000000    0.25999999
   20.17138863  113.26799774    0.11000000    0.25999999
   20.17527771  100.86399841    0.13000000    0.25999999
   20.17860985  111.37899780    0.11000000    0.25000000
   20.18194389  111.23100281    0.11000000    0.25000000
   20.18499947  111.02500153    0.11000000    0.25000000
   20.18833160  110.97899628    0.13000000    0.25000000
   20.19138718  110.11299896    0.11000000    0.25000000
   20.19472122  108.89099884    0.13000000    0.25000000
   20.19805527  109.53500366    0.13000000    0.23000000
   20.20111275   98.87329865    0.13000000    0.23000000
   20.20583344   98.87329865    0.13000000    0.23000000
   20.21000099  105.32399750    0.13000000    0.20999999
   20.21305656   96.84850311    0.13000000    0.20999999
   20.21638870  107.82299805    0.13000000    0.20999999
   20.21944427  103.69799805    0.13000000    0.20999999
   20.22277832  108.37799835    0.13000000    0.20999999
   20.22611237  111.46800232    0.13000000    0.20999999
   20.22916794  116.34899902    0.13000000    0.20999999
   20.23250008  107.18399811    0.13000000    0.19000000
   20.23583412  109.12999725    0.13000000    0.19000000
   20.24027824  109.12999725    0.13000000    0.17000000
   20.24444389  102.89299774    0.13000000    0.17000000
   20.24749947  111.36699677    0.13000000    0.17000000
   20.25083351  110.27500153    0.11000000    0.17000000
   20.25416756  111.68299866    0.11000000    0.17000000
   20.25722313  101.37699890    0.11000000    0.15000001
   20.26055527  101.53299713    0.13000000    0.15000001
   20.26388931  109.24700165    0.11000000    0.15000001
   20.26694489  102.55100250    0.13000000    0.15000001
   20.27027702  104.48400116    0.11000000    0.15000001
   20.27472115  104.48400116    0.11000000    0.13000000
   20.27888870  102.85099792    0.13000000    0.13000000
   20.28222275  104.53900146    0.11000000    0.13000000
   20.28527641  101.32499695    0.11000000    0.13000000
   20.28861046  111.03199768    0.11000000    0.11000000
   20.29194450  100.69699860    0.11000000    0.11000000
   20.29500008  108.86299896    0.13000000    0.11000000
   20.29833221  108.13300323    0.11000000    0.11000000
   20.30138779  108.78900146    0.11000000    0.09000000
   20.30472183  106.43900299    0.11000000    0.09000000
   20.30916595  106.43900299    0.11000000    0.09000000
   20.31333351  112.37999725    0.13000000    0.09000000
   20.31666756  114.62599945    0.11000000    0.07000000
   20.32000160  116.44599915    0.11000000    0.07000000
   20.32305717  109.72200012    0.11000000    0.07000000
   20.32638931  102.96099854    0.11000000    0.07000000
   20.32972336  104.10099792    0.11000000    0.07000000
   20.33277893  106.58799744    0.11000000    0.07000000
   20.33611107  108.06500244    0.11000000    0.07000000
   20.33944511  104.89399719    0.11000000    0.07000000
   20.34388924  104.89399719    0.11000000    0.07000000
   20.34777832  101.53500366    0.11000000    0.05000000
   20.35111237   95.65979767    0.11000000    0.05000000
   20.35444450   95.61219788    0.11000000    0.05000000
   20.35750008  103.71900177    0.11000000    0.05000000
   20.36083412  103.83999634    0.09000000    0.05000000
   20.36416626  101.20600128    0.09000000    0.05000000
   20.36722183  102.99400330    0.11000000    0.05000000
   20.37055588  106.82099915    0.11000000    0.05000000
   20.37361145  109.36699677    0.11000000    0.05000000
   20.37833405  109.36699677    0.09000000    0.05000000
   20.38249969  106.86199951    0.09000000    0.03000000
   20.38555527  113.07900238    0.09000000    0.03000000
   20.38888931  106.21700287    0.09000000    0.03000000
   20.39222145  102.60600281    0.09000000    0.03000000
   20.39527702  104.43599701    0.09000000    0.03000000
   20.39861107  104.95200348    0.09000000    0.03000000
   20.40166664  103.52999878    0.09000000    0.05000000
   20.40499878  105.26899719    0.09000000    0.03000000
   20.40833282  105.29000092    0.09000000    0.03000000
   20.41277695  105.29000092    0.09000000    0.03000000
   20.41694450  108.04000092    0.09000000    0.03000000
   20.42027664  117.30200195    0.09000000    0.03000000
   20.42333221  106.73200226    0.09000000    0.03000000
   20.42666626  104.29100037    0.09000000    0.03000000
   20.42972183  121.93699646    0.09000000    0.03000000
   20.43305397  116.82499695    0.09000000    0.01000000
   20.43638802  114.12699890    0.09000000    0.01000000
   20.43944359  110.45999908    0.09000000    0.01000000
   20.44277763  112.39600372    0.09000000    0.01000000
   20.44722176  112.39600372    0.09000000    0.01000000
   20.45138931  114.35900116    0.09000000    0.01000000
   20.45472336  115.62500000    0.09000000    0.01000000
   20.45777893  103.44799805    0.09000000    0.01000000
   20.46111107  113.75199890    0.09000000    0.01000000
   20.46444511  113.87699890    0.09000000    0.01000000
   20.46750069  108.90799713    0.09000000    0.01000000
   20.47083473  115.02400208    0.09000000    0.01000000
   20.47416687  102.48300171    0.09000000    0.01000000
   20.47722244  104.84999847    0.09000000    0.01000000
   20.48194504  104.84999847    0.07000000    0.01000000
   20.48583412  110.71900177    0.07000000    0.01000000
   20.48916626   98.77890015    0.07000000    0.01000000
   20.49250031   96.96080017    0.07000000    0.01000000
   20.49555588  106.11199951    0.09000000    0.01000000
   20.49888992  107.45999908    0.07000000    0.01000000
   20.50222206  104.80599976    0.07000000    0.01000000
   20.50527763  103.96299744    0.07000000    0.01000000
   20.50861168  106.21800232    0.07000000    0.01000000
   20.51166725  112.34999847    0.07000000    0.01000000
   20.51638794  112.34999847    0.07000000    0.01000000
   20.52055550  113.93699646    0.07000000    0.01000000
   20.52361107  108.37899780    0.07000000    0.01000000
   20.52694511  115.50900269    0.09000000    0.01000000
   20.53000069  113.67800140    0.09000000    0.01000000
   20.53333282  109.28299713    0.09000000    0.01000000
   20.53666687  111.92900085    0.09000000    0.01000000
   20.53972244  107.88700104    0.07000000    0.01000000
   20.54305458  104.75499725    0.07000000    0.01000000
   20.54638863  105.77300262    0.07000000    0.01000000
   20.55083275  105.77300262    0.07000000    0.01000000
   20.55499840  107.46199799    0.07000000    0.01000000
   20.55805397  113.05000305    0.07000000    0.01000000
   20.56138802  107.29599762    0.07000000    0.01000000
   20.56472206  106.67900085    0.07000000    0.01000000
   20.56777954  107.36799622    0.07000000    0.01000000
   20.57111168  109.26300049    0.07000000    0.01000000
   20.57444572  102.74099731    0.07000000    0.01000000
   20.57750130  110.53600311    0.07000000    0.01000000
   20.58083344  112.12400055    0.07000000    0.01000000
   20.58527756  112.12400055    0.07000000    0.01000000
   20.58944511  116.60299683    0.07000000    0.01000000
   20.59277916  107.05200195    0.07000000    0.01000000
   20.59583473  114.94000244    0.07000000    0.01000000
   20.59916687  112.75800323    0.07000000    0.01000000
   20.60250092  105.60600281    0.07000000    0.01000000
   20.60555649  109.26100159    0.07000000    0.01000000
   20.60888863  112.47200012    0.07000000    0.01000000
   20.61194420  101.77999878    0.07000000    0.01000000
   20.61527824  103.87899780    0.07000000    0.01000000
   20.61972237  103.87899780    0.07000000    0.01000000
   20.62388992  103.90100098    0.07000000    0.01000000
   20.62722206  104.17600250    0.07000000    0.01000000
   20.63055611  100.70500183    0.07000000    0.01000000
   20.63361168  101.06400299    0.07000000    0.01000000
   20.63694382  109.92099762    0.07000000    0.01000000
   20.63999939  107.60299683    0.07000000    0.01000000
   20.64333344  111.19699860    0.07000000    0.01000000
   20.64666748  110.93699646    0.07000000    0.01000000
   20.64972115  109.10399628    0.07000000    0.01000000
   20.65444374  109.10399628    0.07000000    0.01000000
   20.65861130  106.65799713    0.07000000    0.01000000
   20.66166687  110.13600159    0.07000000    0.01000000
   20.66499901  106.41500092    0.07000000    0.01000000
   20.66805458  107.86699677    0.07000000    0.01000000
   20.67138863  111.56800079    0.07000000    0.01000000
   20.67472076  119.49800110    0.07000000    0.01000000
   20.67777634  100.97499847    0.07000000    0.01000000
   20.68111038  108.36799622    0.07000000    0.01000000
   20.68444443  101.94300079    0.07000000    0.01000000
   20.68888855  101.94300079    0.07000000    0.01000000
   20.69305420  114.18499756    0.07000000    0.01000000
   20.69610977  110.39900208    0.07000000    0.01000000
   20.69944382  112.99900055    0.07000000    0.01000000
   20.70277786  113.07399750    0.07000000    0.01000000
   20.70583344  109.37200165    0.07000000    0.01000000
   20.70916748  106.78099823    0.07000000    0.01000000
   20.71222305  103.34999847    0.07000000    0.01000000
   20.71555710  103.64199829    0.07000000    0.01000000
   20.71888924  110.13200378    0.07000000    0.01000000
   20.72333336  110.13200378    0.07000000    0.01000000
   20.72750092  109.82099915    0.07000000    0.01000000
   20.73083305  116.12300110    0.07000000    0.01000000
   20.73388863  110.55799866    0.07000000    0.01000000
   20.73722267  110.64399719    0.07000000    0.01000000
   20.74027824  108.96199799    0.07000000    0.01000000
   20.74361229  111.94899750    0.07000000    0.01000000
   20.74694443  114.08799744    0.07000000    0.01000000
   20.75000000  109.48300171    0.07000000    0.01000000
   20.75333405  103.62000275    0.07000000    0.01000000
   20.75777817  103.62000275    0.07000000    0.01000000
   20.76194382  111.94400024    0.07000000    0.01000000
   20.76527786  111.11299896    0.07000000    0.01000000
   20.76833344  104.49900055    0.07000000    0.01000000
   20.77166557  108.22200012    0.07000000    0.01000000
   20.77499962  103.67800140    0.07000000    0.01000000
   20.77805519  113.06600189    0.07000000    0.01000000
   20.78138924  109.77200317    0.07000000    0.01000000
   20.78472137  113.17099762    0.07000000    0.01000000
   20.78777695  108.98999786    0.07000000    0.01000000
   20.79249954  108.98999786    0.07000000    0.01000000
   20.79638863  104.53099823    0.07000000    0.01000000
   20.79972076  105.62100220    0.07000000    0.01000000
   20.80305481  109.62799835    0.07000000    0.01000000
   20.80611038  111.86399841    0.07000000    0.01000000
   20.80944443  105.88200378    0.07000000    0.01000000
   20.81277657  111.44899750    0.07000000    0.01000000
   20.81583214  109.44200134    0.07000000    0.01000000
   20.81916809  104.69999695    0.07000000    0.01000000
   20.82222366  110.59300232    0.07000000    0.01000000
   20.82694626  110.59300232    0.07000000    0.01000000
   20.83111191  113.25000000    0.07000000    0.01000000
   20.83416748  104.16100311    0.07000000    0.01000000
   20.83750153  110.05799866    0.07000000    0.01000000
   20.84083366  107.53399658    0.07000000    0.01000000
   20.84388924  110.33000183    0.07000000    0.01000000
   20.84722328  120.50099945    0.07000000    0.01000000
   20.85027885  110.08599854    0.07000000    0.01000000
   20.85361099  112.07299805    0.07000000    0.01000000
   20.85694504  113.44599915    0.07000000    0.01000000
   20.86138916  113.44599915    0.07000000    0.01000000
   20.86555672  115.76899719    0.07000000    0.01000000
   20.86888885  117.23200226    0.07000000    0.01000000
   20.87194443  113.83399963    0.07000000    0.01000000
   20.87527847  107.63300323    0.07000000    0.01000000
   20.87833405  111.75499725    0.07000000    0.01000000
   20.88166618  108.58100128    0.07000000    0.01000000
   20.88500023  107.98500061    0.07000000    0.01000000
   20.88805580  103.83200073    0.07000000    0.01000000
   20.89138794  112.02600098    0.07000000    0.01000000
   20.89583397  112.02600098    0.07000000    0.01000000
   20.89999962  104.24400330    0.07000000    0.01000000
   20.90333366   99.94699860    0.07000000    0.01000000
   20.90638924   96.31790161    0.07000000    0.01000000
   20.90972137  109.39199829    0.07000000    0.01000000
   20.91305542  108.75499725    0.07000000    0.01000000
   20.91611099  111.22899628    0.07000000    0.01000000
   20.91944313  109.74600220    0.07000000    0.01000000
   20.92277718  115.87300110    0.07000000    0.01000000
   20.92583275  115.03700256    0.07000000    0.01000000
   20.93027687  115.03700256    0.07000000    0.01000000
   20.93444443  110.04100037    0.07000000    0.01000000
   20.93777657  103.06099701    0.07000000    0.01000000
   20.94111061  112.20700073    0.07000000    0.01000000
   20.94416618  101.85199738    0.07000000    0.01000000
   20.94749832  101.69300079    0.07000000    0.01000000
   20.95055580  109.95500183    0.07000000    0.01000000
   20.95388985  106.19100189    0.07000000    0.01000000
   20.95722389  108.52600098    0.07000000    0.01000000
   20.96027946  117.19799805    0.07000000    0.01000000
   20.96500015  117.19799805    0.07000000    0.01000000
   20.96916771  104.86900330    0.07000000    0.01000000
   20.97222328  105.86399841    0.07000000    0.01000000
   20.97555542  112.88899994    0.07000000    0.01000000
   20.97861099  115.21600342    0.07000000    0.01000000
   20.98194504  116.29299927    0.07000000    0.01000000
   20.98527718  110.02100372    0.07000000    0.01000000
   20.98833275  111.55200195    0.07000000    0.01000000
   20.99166679  119.74400330    0.07000000    0.01000000
   20.99500084  110.46900177    0.07000000    0.01000000
   20.99944496  110.46900177    0.07000000    0.01000000
   21.00361061  114.75099945    0.07000000    0.01000000
   21.00666618  114.57900238    0.07000000    0.01000000
   21.01000023  109.31999969    0.07000000    0.01000000
   21.01333427  118.03500366    0.07000000    0.01000000
   21.01638794  113.18900299    0.07000000    0.01000000
   21.01972198  115.81400299    0.07000000    0.01000000
   21.02305603  113.99800110    0.07000000    0.01000000
   21.02611160  115.88099670    0.07000000    0.01000000
   21.02944374  110.85700226    0.07000000    0.01000000
   21.04999924  110.85700226    0.07000000    0.01000000
   21.05416679  107.53700256    0.07000000    0.01000000
   21.05749893  121.35700226    0.07000000    0.01000000
   21.06055450  114.97100067    0.07000000    0.01000000
   21.06388855  112.08899689    0.07000000    0.01000000
   21.06694603  108.04799652    0.07000000    0.01000000
   21.07027817  109.22399902    0.07000000    0.01000000
   21.07361221  113.69000244    0.07000000    0.01000000
   21.07666779  103.50599670    0.07000000    0.01000000
   21.08000183  106.33899689    0.07000000    0.01000000
   21.08444595  106.33899689    0.07000000    0.01000000
   21.08861160  115.23899841    0.07000000    0.01000000
   21.09166718  111.40299988    0.07000000    0.01000000
   21.09500122  116.73500061    0.07000000    0.01000000
   21.09833336  117.96199799    0.07000000    0.01000000
   21.10138893  117.04299927    0.07000000    0.01000000
   21.10472298  115.04199982    0.07000000    0.01000000
   21.10805511  110.28199768    0.07000000    0.01000000
   21.11111069  114.75499725    0.07000000    0.01000000
   21.11444473  114.87999725    0.07000000    0.01000000
   21.11888885  114.87999725    0.07000000    0.01000000
   21.12305641  106.86199951    0.07000000    0.01000000
   21.12638855  105.82800293    0.07000000    0.01000000
   21.12944412  101.06999969    0.07000000    0.01000000
   21.13277817   98.84750366    0.07000000    0.01000000
   21.13611031  107.78800201    0.07000000    0.01000000
   21.13916588  109.01999664    0.07000000    0.01000000
   21.14249992  107.96600342    0.07000000    0.01000000
   21.14555550  107.02300262    0.07000000    0.01000000
   21.14888954  108.52300262    0.07000000    0.01000000
   21.15333366  108.52300262    0.07000000    0.01000000
   21.15749931  105.56199646    0.07000000    0.01000000
   21.16083336  108.65000153    0.07000000    0.01000000
   21.16416550  115.12000275    0.07000000    0.01000000
   21.16722107  113.78199768    0.07000000    0.01000000
   21.17055511  103.23400116    0.07000000    0.01000000
   21.17361069  116.15000153    0.07000000    0.01000000
   21.17694473  110.40799713    0.07000000    0.01000000
   21.18027687  113.81099701    0.07000000    0.01000000
   21.18333244  108.45500183    0.07000000    0.01000000
   21.18805504  108.45500183    0.07000000    0.01000000
   21.19194412  116.58699799    0.07000000    0.01000000
   21.19527626  114.62400055    0.07000000    0.01000000
   21.19861031  112.01399994    0.07000000    0.01000000
   21.20166779  111.33699799    0.07000000    0.01000000
   21.20499992  114.77500153    0.07000000    0.01000000
   21.20833397  108.18299866    0.07000000    0.01000000
   21.21138954  111.74299622    0.07000000    0.01000000
   21.21472359  108.67700195    0.07000000    0.01000000
   21.21777916  112.48600006    0.07000000    0.01000000
   21.22249985  112.48600006    0.07000000    0.01000000
   21.22666740  112.33799744    0.07000000    0.01000000
   21.22972298  108.34300232    0.07000000    0.01000000
   21.23305511  110.34999847    0.07000000    0.01000000
   21.23638916  117.60399628    0.07000000    0.01000000
   21.23944473  112.13400269    0.07000000    0.01000000
   21.24277878  114.18499756    0.07000000    0.01000000
   21.24583435  113.49800110    0.07000000    0.01000000
   21.24916649  114.68800354    0.07000000    0.01000000
   21.25250053  117.39800262    0.07000000    0.01000000
   21.25694466  117.39800262    0.07000000    0.01000000
   21.26111031  105.61000061    0.07000000    0.01000000
   21.26444435  112.18599701    0.07000000    0.01000000
   21.26749992  112.81900024    0.07000000    0.01000000
   21.27083397  115.52300262    0.07000000    0.01000000
   21.27388954  111.87400055    0.07000000    0.01000000
   21.27722168  109.58999634    0.07000000    0.01000000
   21.28055573  115.63200378    0.07000000    0.01000000
   21.28361130  114.45899963    0.07000000    0.01000000
   21.28694344  113.59999847    0.07000000    0.01000000
   21.29138756  113.59999847    0.07000000    0.01000000
   21.29555511  109.37799835    0.07000000    0.01000000
   21.29888916  116.18000031    0.07000000    0.01000000
   21.30194283  107.09799957    0.07000000    0.01000000
   21.30527687  111.14399719    0.07000000    0.01000000
   21.30861092  122.73799896    0.07000000    0.01000000
   21.31166649  101.29199982    0.07000000    0.01000000
   21.31499863  116.39900208    0.07000000    0.01000000
   21.31833458  111.92800140    0.07000000    0.01000000
   21.32139015  106.50299835    0.07000000    0.01000000
   21.32611275  106.50299835    0.07000000    0.01000000
   21.33000183  110.51100159    0.07000000    0.01000000
   21.33333397  116.26599884    0.07000000    0.01000000
   21.33666801  121.25800323    0.07000000    0.01000000
   21.33972359  119.49199677    0.07000000    0.01000000
   21.34305573  110.87200165    0.07000000    0.01000000
   21.34638977  109.63400269    0.07000000    0.01000000
   21.34944534  107.06500244    0.07000000    0.01000000
   21.35277748  126.47000122    0.07000000    0.01000000
   21.35611153  117.14399719    0.07000000    0.01000000
   21.36055565  117.14399719    0.07000000    0.01000000
   21.36472321  117.97200012    0.07000000    0.01000000
   21.36777878  108.97299957    0.07000000    0.01000000
   21.37111092  107.09300232    0.07000000    0.01000000
   21.37444496  120.97899628    0.07000000    0.01000000
   21.37750053  114.45200348    0.07000000    0.01000000
   21.38083267  110.53399658    0.07000000    0.01000000
   21.38388824  113.05400085    0.07000000    0.01000000
   21.38722229  113.69200134    0.07000000    0.01000000
   21.39055634  111.20300293    0.07000000    0.01000000
   21.39500046  111.20300293    0.07000000    0.01000000
   21.39916611  112.91400146    0.07000000    0.01000000
   21.40222168  108.53299713    0.07000000    0.01000000
   21.40555573  111.84799957    0.07000000    0.01000000
   21.40888786  112.90499878    0.07000000    0.01000000
   21.41194344  109.06400299    0.07000000    0.01000000
   21.41527748  110.27799988    0.07000000    0.01000000
   21.41860962  101.61100006    0.07000000    0.01000000
   21.42166519  110.43299866    0.07000000    0.01000000
   21.42499924  112.85099792    0.07000000    0.01000000
   21.42944336  112.85099792    0.07000000    0.01000000
   21.43361092  117.09400177    0.07000000    0.01000000
   21.43694305  113.30599976    0.07000000    0.01000000
   21.43999863  114.96099854    0.07000000    0.01000000
   21.44333267  112.04299927    0.07000000    0.01000000
   21.44666672  107.89299774    0.07000000    0.01000000
   21.44972038  108.87599945    0.07000000    0.01000000
   21.45305634  119.81099701    0.07000000    0.01000000
   21.45611191  119.08699799    0.07000000    0.01000000
   21.45944595  111.93299866    0.07000000    0.01000000
   21.46389008  111.93299866    0.07000000    0.01000000
   21.46805573  112.61199951    0.07000000    0.01000000
   21.47138977  105.37500000    0.07000000    0.01000000
   21.47472191  114.63200378    0.07000000    0.01000000
   21.47777748  118.14900208    0.07000000    0.01000000
   21.48111153  112.53900146    0.07000000    0.01000000
   21.48416710  117.21800232    0.07000000    0.01000000
   21.48750114  110.50000000    0.07000000    0.01000000
   21.49083328  111.59400177    0.07000000    0.01000000
   21.49388885  120.32199860    0.07000000    0.01000000
   21.49861145  120.32199860    0.07000000    0.01000000
   21.50277710  109.45600128    0.07000000    0.01000000
   21.50583267  117.20400238    0.07000000    0.01000000
   21.50916672  120.98200226    0.07000000    0.01000000
   21.51222229  120.47299957    0.07000000    0.01000000
   21.51555634  123.07199860    0.07000000    0.01000000
   21.51888847  126.55300140    0.07000000    0.01000000
   21.52194405  130.62300110    0.07000000    0.01000000
   21.52527809  109.92600250    0.07000000    0.01000000
   21.52861023  118.27500153    0.07000000    0.01000000
   21.53305435  118.27500153    0.07000000    0.01000000
   21.53722191  120.62599945    0.07000000    0.01000000
   21.54027748  110.04000092    0.07000000    0.01000000
   21.54361153  113.55000305    0.07000000    0.01000000
   21.54694366  115.55200195    0.07000000    0.01000000
   21.54999924  114.44899750    0.07000000    0.01000000
   21.55333328  112.55699921    0.07000000    0.01000000
   21.55638885  114.41699982    0.07000000    0.01000000
   21.55972099  118.95300293    0.07000000    0.01000000
   21.56305504  118.19799805    0.07000000    0.01000000
   21.56750107  118.19799805    0.07000000    0.01000000
   21.57166672  121.45099640    0.07000000    0.01000000
   21.57500076  118.03099823    0.07000000    0.01000000
   21.57805634  120.33899689    0.07000000    0.01000000
   21.58139038  111.09700012    0.07000000    0.01000000
   21.58444595  115.10700226    0.07000000    0.01000000
   21.58777809  115.42900085    0.07000000    0.01000000
   21.59111214  108.60199738    0.07000000    0.01000000
   21.59416771  118.79199982    0.07000000    0.01000000
   21.59749985  117.38200378    0.07000000    0.01000000
   21.60194397  117.38200378    0.07000000    0.01000000
   21.60611153  110.95700073    0.07000000    0.01000000
   21.60944557  115.65499878    0.07000000    0.01000000
   21.61250114  112.44799805    0.07000000    0.01000000
   21.61583328  116.26100159    0.07000000    0.01000000
   21.61916733  121.48200226    0.07000000    0.01000000
   21.62222290  109.92199707    0.07000000    0.01000000
   21.62555504  112.10900116    0.07000000    0.01000000
   21.62888908  111.91000366    0.07000000    0.01000000
   21.63194466  115.87999725    0.07000000    0.01000000
   21.63666725  115.87999725    0.07000000    0.01000000
   21.64055634  116.15699768    0.07000000    0.01000000
   21.64388847  105.00599670    0.07000000    0.01000000
   21.64722252  108.23300171    0.07000000    0.01000000
   21.65027809  111.14399719    0.07000000    0.01000000
   21.65361023  112.36399841    0.07000000    0.01000000
   21.65694427  105.84300232    0.07000000    0.01000000
   21.65999985  109.85600281    0.07000000    0.01000000
   21.66333389  106.75199890    0.07000000    0.01000000
   21.66638756  107.39199829    0.07000000    0.01000000
   21.67111015  107.39199829    0.07000000    0.01000000
   21.67527771  107.26100159    0.07000000    0.01000000
   21.67833328  108.65699768    0.07000000    0.01000000
   21.68166542  111.13600159    0.07000000    0.01000000
   21.68499947  104.08499908    0.07000000    0.01000000
   21.68805504  111.88200378    0.07000000    0.01000000
   21.69138718  113.48999786    0.07000000    0.01000000
   21.69472122  114.76699829    0.07000000    0.01000000
   21.69777679  108.24700165    0.07000000    0.01000000
   21.70111275  117.69499969    0.07000000    0.01000000
   21.70555687  117.69499969    0.07000000    0.01000000
   21.70972252  116.29000092    0.07000000    0.01000000
   21.71305656  110.01899719    0.07000000    0.01000000
   21.71611214  112.03099823    0.07000000    0.01000000
   21.71944427  113.20999908    0.07000000    0.01000000
   21.72249985  111.00299835    0.07000000    0.01000000
   21.72583389  113.11499786    0.07000000    0.01000000
   21.72916794  117.16899872    0.07000000    0.01000000
   21.73222351  111.04399872    0.07000000    0.01000000
   21.73555565  110.44599915    0.07000000    0.01000000
   21.73999977  110.44599915    0.07000000    0.01000000
   21.74416733  113.82599640    0.07000000    0.01000000
   21.74749947  115.78500366    0.07000000    0.01000000
   21.75055504  113.18199921    0.07000000    0.01000000
   21.75388908  124.23799896    0.07000000    0.01000000
   21.75722313  115.04399872    0.07000000    0.01000000
   21.76027870  112.10099792    0.07000000    0.01000000
   21.76361084  121.02300262    0.07000000    0.01000000
   21.76666641  116.87599945    0.07000000    0.01000000
   21.77000046  116.67600250    0.07000000    0.01000000
   21.77444458  116.67600250    0.07000000    0.01000000
   21.77861023  112.26799774    0.07000000    0.01000000
   21.78194427  115.20099640    0.07000000    0.01000000
   21.78527641  115.18099976    0.07000000    0.01000000
   21.78833199  114.05899811    0.07000000    0.01000000
   21.79166603  109.54000092    0.07000000    0.01000000
   21.79472160  103.88500214    0.07000000    0.01000000
   21.79805565  109.77799988    0.07000000    0.01000000
   21.80138779  112.67700195    0.07000000    0.01000000
   21.80444336  114.20899963    0.07000000    0.01000000
   21.80916595  114.20899963    0.07000000    0.01000000
   21.81333351  188.43600464    0.07000000    0.01000000
   21.81638718  117.20999908    0.07000000    0.01000000
   21.81972313  121.08300018    0.07000000    0.01000000
   21.82277870  119.98400116    0.07000000    0.01000000
   21.82611275  118.30500031    0.07000000    0.01000000
   21.82944489  111.05899811    0.07000000    0.01000000
   21.83250046  107.11799622    0.07000000    0.01000000
   21.83583450  112.20899963    0.07000000    0.01000000
   21.83916664  116.74400330    0.07000000    0.01000000
   21.84361267  116.74400330    0.07000000    0.01000000
   21.84777832  114.70300293    0.07000000    0.01000000
   21.85083389  108.71800232    0.07000000    0.01000000
   21.85416794  119.25900269    0.07000000    0.01000000
   21.85750008  116.04699707    0.07000000    0.01000000
   21.86055565  116.83399963    0.07000000    0.01000000
   21.86388969  114.65200043    0.07000000    0.01000000
   21.86722183  120.55999756    0.07000000    0.01000000
   21.87027740  115.56999969    0.07000000    0.01000000
   21.87361145  117.15599823    0.07000000    0.01000000
   21.87805557  117.15599823    0.07000000    0.01000000
   21.88222313  100.82700348    0.07000000    0.01000000
