    HOUR (UT)   FLARE FACTOR    SKY TESTER    SUN TESTER
   12.41833401   -1.00000000   -1.00000000   -1.00000000
   12.44222260  170.68699646    0.00000000    0.00000000
   12.44527817  174.46099854    0.00000000    0.00000000
   12.44861126  167.72799683    0.00000000    0.00000000
   12.45166683  165.89599609    0.00000000    0.00000000
   12.45499992  172.23399353    0.00000000    0.00000000
   12.45833302  162.37500000    0.00000000    0.00000000
   12.46249962  162.37500000    0.00000000    0.00000000
   12.46638870  170.09199524    0.00000000    0.00000000
   12.46972179  159.80999756    0.00000000    0.00000000
   12.47305489  165.26800537    0.00000000    0.00000000
   12.47527695  164.12600708    0.00000000    0.00000000
   12.47666645  186.01400757    0.00000000    0.00000000
   12.47999954  170.30099487    0.00000000    0.00000000
   12.48305511  171.78700256    0.00000000    0.00000000
   12.48638916  169.22000122    0.00000000    0.00000000
   12.48972225  177.22799683    0.00000000    0.00000000
   12.49277782  178.21600342    0.00000000    0.00000000
   12.49611092  181.44799805    0.00000000    0.00000000
   12.49916649  181.06700134    0.00000000    0.00000000
   12.50527763  181.06700134    0.00000000    0.00000000
   12.50944424  173.62899780    0.00000000    0.00000000
   12.51249981  169.45500183    0.00000000    0.00000000
   12.51583290  176.14900208    0.00000000    0.00000000
   12.51916599  180.46400452    0.00000000    0.00000000
   12.52250004  173.64300537    0.00000000    0.00000000
   12.52555561  175.31599426    0.00000000    0.00000000
   12.52888870  174.45799255    0.00000000    0.00000000
   12.53194427  178.33200073    0.00000000    0.00000000
   12.53527832  174.28799438    0.00000000    0.00000000
   12.53861141  169.81399536    0.00000000    0.00000000
   12.54166698  186.65600586    0.00000000    0.00000000
   12.54222298  165.25000000    0.00000000    0.00000000
   12.54805565  165.25000000    0.00000000    0.00000000
   12.55222225  184.78399658    0.00000000    0.00000000
   12.55555534  171.97200012    0.00000000    0.00000000
   12.55861092  182.99099731    0.00000000    0.00000000
   12.56194496  178.20500183    0.00000000    0.00000000
   12.56500053  182.86300659    0.00000000    0.00000000
   12.56833363  185.01499939    0.00000000    0.00000000
   12.57166672  174.46000671    0.00000000    0.00000000
   12.57472229  183.67100525    0.00000000    0.00000000
   12.57555580  173.79600525    0.00000000    0.00000000
   12.57833290  179.41900635    0.00000000    0.00000000
   12.58138847  184.10000610    0.00000000    0.00000000
   12.58472157  174.23399353    0.00000000    0.00000000
   12.59083271  174.23399353    0.00000000    0.00000000
   12.59499931  170.46099854    0.00000000    0.00000000
   12.59833336  170.97399902    0.00000000    0.00000000
   12.60138893  167.06700134    0.00000000    0.00000000
   12.60472298  181.86000061    0.00000000    0.00000000
   12.60805607  171.03100586    0.00000000    0.00000000
   12.60888958  180.38400269    0.00000000    0.00000000
   12.61166668  167.04400635    0.00000000    0.00000000
   12.61472225  171.68099976    0.00000000    0.00000000
   12.61805534  170.79299927    0.00000000    0.00000000
   12.62138939  166.32499695    0.00000000    0.00000000
   12.62444496  170.79400635    0.00000000    0.00000000
   12.62777805  179.96099854    0.00000000    0.00000000
   12.63361073  179.96099854    0.00000000    0.00000000
   12.63777733  170.73599243    0.00000000    0.00000000
   12.64111137  167.06900024    0.00000000    0.00000000
   12.64222240  175.30299377    0.00000000    0.00000000
   12.64472198  167.42799377    0.00000000    0.00000000
   12.64805508  157.94900513    0.00000000    0.00000000
   12.65111065  174.48500061    0.00000000    0.00000000
   12.65444374  171.26600647    0.00000000    0.00000000
   12.65749931  169.29499817    0.00000000    0.00000000
   12.66083336  170.14900208    0.00000000    0.00000000
   12.66416645  173.39599609    0.00000000    0.00000000
   12.66722298  170.89799500    0.00000000    0.00000000
   12.67055607  164.82499695    0.00000000    0.00000000
   12.67666721  164.82499695    0.00000000    0.00000000
   12.68083382  176.68400574    0.00000000    0.00000000
   12.68388939  173.40699768    0.00000000    0.00000000
   12.68722248  171.00500488    0.00000000    0.00000000
   12.69055557  176.48800659    0.00000000    0.00000000
   12.69361115  165.61399841    0.00000000    0.00000000
   12.69694424  167.98199463    0.00000000    0.00000000
   12.70027733  163.71000671    0.00000000    0.00000000
   12.70333290  167.69200134    0.00000000    0.00000000
   12.70666695  165.52600098    0.00000000    0.00000000
   12.70888901  170.55400085    0.00000000    0.00000000
   12.71027756  164.29600525    0.00000000    0.00000000
   12.71361065  160.05400085    0.00000000    0.00000000
   12.71944427  160.05400085    0.00000000    0.00000000
   12.72361088  161.33099365    0.00000000    0.00000000
   12.72666645  160.48100281    0.00000000    0.00000000
   12.72999954  163.83000183    0.00000000    0.00000000
   12.73333359  176.44200134    0.00000000    0.00000000
   12.73638916  168.81100464    0.00000000    0.00000000
   12.73972225  170.14999390    0.00000000    0.00000000
   12.74222279  178.20399475    0.00000000    0.00000000
   12.74333382  166.96499634    0.00000000    0.00000000
   12.74666691  170.15699768    0.00000000    0.00000000
   12.74972248  169.76699829    0.00000000    0.00000000
   12.75305557  163.07200623    0.00000000    0.00000000
   12.75611115  165.05299377    0.00000000    0.00000000
   12.76222229  165.05299377    0.00000000    0.00000000
   12.76638889  162.79299927    0.00000000    0.00000000
   12.76972198  159.69500732    0.00000000    0.00000000
   12.77277756  158.79899597    0.00000000    0.00000000
   12.77555561  161.34399414    0.00000000    0.00000000
   12.77638817  164.50999451    0.00000000    0.00000000
   12.77972221  160.49699402    0.00000000    0.00000000
   12.78277779  164.57699585    0.00000000    0.00000000
   12.78611183  164.98399353    0.00000000    0.00000000
   12.78916740  176.37300110    0.00000000    0.00000000
   12.79250050  168.51199341    0.00000000    0.00000000
   12.79583359  167.36999512    0.00000000    0.00000000
   12.79888916  164.60299683    0.00000000    0.00000000
   12.80500031  164.60299683    0.00000000    0.00000000
   12.80916691  165.04100037    0.00000000    0.00000000
   12.81250000  170.16799927    0.00000000    0.00000000
   12.81583309  175.45700073    0.00000000    0.00000000
   12.81888866  175.69999695    0.00000000    0.00000000
   12.82222176  169.31399536    0.00000000    0.00000000
   12.82527733  166.27000427    0.00000000    0.00000000
   12.82861137  164.34899902    0.00000000    0.00000000
   12.83194447  170.18600464    0.00000000    0.00000000
   12.83500004  177.14300537    0.00000000    0.00000000
   12.83833313  170.67700195    0.00000000    0.00000000
   12.84166622  168.77900696    0.00000000    0.00000000
   12.84222221  169.47700500    0.00000000    0.00000000
   12.84805489  169.47700500    0.00000000    0.00000000
   12.85222244  173.68499756    0.00000000    0.00000000
   12.85527802  176.79400635    0.00000000    0.00000000
   12.85861111  168.47300720    0.00000000    0.00000000
   12.86194515  167.25999451    0.00000000    0.00000000
   12.86500072  169.26100159    0.00000000    0.00000000
   12.86833382  172.61599731    0.00000000    0.00000000
   12.87138939  165.60800171    0.00000000    0.00000000
   12.87472248  164.71899414    0.00000000    0.00000000
   12.87555599  168.99800110    0.00000000    0.00000000
   12.87833309  164.36399841    0.00000000    0.00000000
   12.88166714  164.87199402    0.00000000    0.00000000
   12.88472176  164.47099304    0.00000000    0.00000000
   12.89083290  164.47099304    0.00000000    0.00000000
   12.89499950  165.43200684    0.00000000    0.00000000
   12.89833355  167.96899414    0.00000000    0.00000000
   12.90138817  158.75700378    4.90999985    2.32999992
   12.90472221  168.18200684    4.90999985    2.32999992
   12.90777779  165.63900757    4.90999985    2.32999992
   12.90888882  165.66499329    4.90999985    2.32999992
   12.91138840  169.49699402    4.90999985    2.32999992
   12.91472149  171.87399292    4.90999985    2.32999992
   12.91777802  163.95899963    4.90999985    2.32999992
   12.92111111  163.98100281    4.90999985    2.32999992
   12.92444515  167.06199646    4.90999985    2.32999992
   12.92750072  163.05599976    4.90999985    2.32999992
   12.93361092  163.05599976    4.90999985    2.32999992
   12.93777752  166.13200378    4.90999985    2.32999992
   12.94111156  157.12899780    4.90999985    2.32999992
   12.94222260  159.74499512    4.90999985    2.32999992
   12.94472218  160.13200378    4.90999985    2.32999992
   12.94805527  156.36099243    4.90999985    2.32999992
   12.95111084  171.19500732    4.90999985    2.32999992
   12.95444393  167.45500183    4.90999985    2.32999992
   12.95777798  168.97399902    4.90999985    2.32999992
   12.96083355  155.89700317    4.90999985    2.32999992
   12.96416664  161.93200684    4.90999985    2.32999992
   12.96722221  164.25300598    4.90999985    2.32999992
   12.97083282  165.48100281    4.90999985    2.32999992
   12.97638798  165.48100281    4.90999985    2.32999992
   12.98083305  155.68600464    4.90999985    2.32999992
   12.98416710  155.87199402    4.90999985    2.32999992
   12.98722267  156.21299744    4.90999985    2.32999992
   12.99055576  166.27600098    4.90999985    2.32999992
   12.99361134  158.59300232    4.90999985    2.32999992
   12.99694443  156.97099304    4.90999985    2.32999992
   13.00027752  155.78199768    4.90999985    2.32999992
   13.00333309  160.74299622    4.90999985    2.32999992
   13.00666714  159.03500366    4.90999985    2.32999992
   13.00888920  155.33500671    4.90999985    2.32999992
   13.01027775  159.03100586    4.90999985    2.32999992
   13.01361084  163.07499695    4.90999985    2.32999992
   13.01944447  163.07499695    4.90999985    2.32999992
   13.02361107  156.93899536    4.90999985    2.32999992
   13.02666664  153.64999390    4.90999985    2.32999992
   13.02999973  154.41000366    4.90999985    2.32999992
   13.03305531  157.45300293    4.90999985    2.32999992
   13.03638935  155.22799683    4.90999985    2.32999992
   13.03972244  148.61000061    4.90999985    2.32999992
   13.04250050  153.43600464    4.90999985    2.32999992
   13.04333401  154.11599731    4.90999985    2.32999992
   13.04666710  161.86199951    4.90999985    2.32999992
   13.04972267  152.64199829    4.90999985    2.32999992
   13.05305576  159.07200623    4.90999985    2.32999992
   13.05638885  156.52999878    4.90999985    2.32999992
   13.06222248  156.52999878    4.90999985    2.32999992
   13.06638908  154.41799927    4.90999985    2.32999992
   13.06944466  152.91499329    4.90999985    2.32999992
   13.07277775  152.30499268    4.90999985    2.32999992
   13.07583332  155.53199768    4.90999985    2.32999992
   13.07638836  155.33700562    4.90999985    2.32999992
   13.07972240  162.34700012    4.90999985    2.32999992
   13.08277798  154.84899902    4.90999985    2.32999992
   13.08611107  158.52099609    4.90999985    2.32999992
   13.08944416  158.74600220    4.90999985    2.32999992
   13.09249973  158.44799805    4.90999985    2.32999992
   13.09583282  155.31399536    4.90999985    2.32999992
   13.09916592  149.87500000    4.90999985    2.32999992
   13.10500050  149.87500000    4.90999985    2.32999992
   13.10916710  158.99600220    4.90999985    2.32999992
   13.11250019  143.55200195    4.90999985    2.32999992
   13.11555576  146.78700256    4.90999985    2.32999992
   13.11888885  146.59100342    4.90999985    2.32999992
   13.12222195  145.60899353    4.90999985    2.32999992
   13.12527752  152.36900330    4.90999985    2.32999992
   13.12861156  147.40100098    4.90999985    2.32999992
   13.13166714  146.51699829    4.90999985    2.32999992
   13.13500023  140.04600525    4.90999985    2.32999992
   13.13833332  150.74400330    4.90999985    2.32999992
   13.14138889  149.05799866    4.90999985    2.32999992
   13.14249992  151.99899292    4.90999985    2.32999992
   13.14777756  151.99899292    4.90999985    2.32999992
   13.15194416  154.44900513    4.90999985    2.32999992
   13.15527725  152.83900452    4.90999985    2.32999992
   13.15861034  164.43899536    4.90999985    2.32999992
   13.16166592  148.82600403    4.90999985    2.32999992
   13.16499996  152.27099609    4.90999985    2.32999992
   13.16805553  140.55999756    4.90999985    2.32999992
   13.17138958  147.91700745    4.90999985    2.32999992
   13.17472267  150.29600525    4.90999985    2.32999992
   13.17583370  157.76499939    4.90999985    2.32999992
   13.17833328  149.93600464    4.90999985    2.32999992
   13.18166733  148.12699890    4.90999985    2.32999992
   13.18500042  152.94200134    4.90999985    2.32999992
   13.19083309  152.94200134    4.90999985    2.32999992
   13.19499969  141.32699585    4.90999985    2.32999992
   13.19805527  136.76100159    4.90999985    2.32999992
   13.20138836  140.30200195    4.90999985    2.32999992
   13.20444393  151.02000427    4.90999985    2.32999992
   13.20777798  146.29100037    4.90999985    2.32999992
   13.20916653  144.74200439    4.90999985    2.32999992
   13.21138859  142.32099915    4.90999985    2.32999992
   13.21472168  148.15600586    4.90999985    2.32999992
   13.21805477  149.66400146    4.90999985    2.32999992
   13.22111034  150.64999390    4.90999985    2.32999992
   13.22444439  153.30200195    4.90999985    2.32999992
   13.22749996  147.73399353    4.90999985    2.32999992
   13.23361111  147.73399353    4.90999985    2.32999992
   13.23777771  150.86500549    4.90999985    2.32999992
   13.24083328  148.25900269    4.90999985    2.32999992
   13.24250031  148.22799683    4.90999985    2.32999992
   13.24444485  147.94599915    4.90999985    2.32999992
   13.24777794  144.25700378    4.90999985    2.32999992
   13.25111103  157.15499878    4.90999985    2.32999992
   13.25416660  150.03300476    4.90999985    2.32999992
   13.25749969  147.45399475    4.90999985    2.32999992
   13.26055527  148.68499756    4.90999985    2.32999992
   13.26388931  148.15199280    4.90999985    2.32999992
   13.26722240  149.83500671    4.90999985    2.32999992
   13.27027798  149.47200012    4.90999985    2.32999992
   13.27638817  149.47200012    4.90999985    2.32999992
   13.28055573  146.60699463    4.90999985    2.32999992
   13.28388977  152.28599548    4.90999985    2.32999992
   13.28694534  151.09300232    4.90999985    2.32999992
   13.29027843  146.70500183    4.90999985    2.32999992
   13.29361153  148.96699524    4.90999985    2.32999992
   13.29666710  151.08000183    4.90999985    2.32999992
   13.30000019  150.35099792    4.90999985    2.32999992
   13.30333328  145.53199768    4.90999985    2.32999992
   13.30638885  143.79200745    4.90999985    2.32999992
   13.30916691  141.75599670    4.90999985    2.32999992
   13.31000042  147.35600281    4.90999985    2.32999992
   13.31333351  141.23800659    4.90999985    2.32999992
   13.31916618  141.23800659    4.90999985    2.32999992
   13.32333374  149.25399780    4.90999985    2.32999992
   13.32666683  143.46899414    4.90999985    2.32999992
   13.32999992  141.85000610    4.90999985    2.32999992
   13.33305550  145.28399658    4.90999985    2.32999992
   13.33638859  143.21600342    4.90999985    2.32999992
   13.33944416  144.23199463    4.90999985    2.32999992
   13.34249973  140.97999573    4.90999985    2.32999992
   13.34305477  139.10299683    4.90999985    2.32999992
   13.34638882  137.94400024    4.90999985    2.32999992
   13.34972191  147.99800110    4.90999985    2.32999992
   13.35277843  142.11500549    4.90999985    2.32999992
   13.35611153  142.16099548    4.90999985    2.32999992
   13.36222267  142.16099548    4.90999985    2.32999992
   13.36638927  141.71699524    4.90999985    2.32999992
   13.36944485  137.63200378    4.90999985    2.32999992
   13.37277794  138.79100037    4.90999985    2.32999992
   13.37583351  139.37199402    4.90999985    2.32999992
   13.37638855  142.93800354    4.90999985    2.32999992
   13.37972260  144.06900024    4.90999985    2.32999992
   13.38305569  142.40899658    4.90999985    2.32999992
   13.38611126  140.70199585    4.90999985    2.32999992
   13.38944435  142.50100708    4.90999985    2.32999992
   13.39249992  139.09599304    4.90999985    2.32999992
   13.39583302  140.80400085    4.90999985    2.32999992
   13.39916611  138.84800720    4.90999985    2.32999992
   13.40499973  138.84800720    4.90999985    2.32999992
   13.40916634  136.84899902    4.90999985    2.32999992
   13.41222191  136.05799866    4.90999985    2.32999992
   13.41555500  135.78300476    4.90999985    2.32999992
   13.41888905  138.91099548    4.90999985    2.32999992
   13.42194462  137.25500488    4.90999985    2.32999992
   13.42527771  135.96699524    4.90999985    2.32999992
   13.42861176  136.30099487    4.90999985    2.32999992
   13.43166733  137.59500122    4.90999985    2.32999992
   13.43500042  138.70399475    4.90999985    2.32999992
   13.43833351  139.10699463    4.90999985    2.32999992
   13.44138908  134.64500427    4.90999985    2.32999992
   13.44250011  133.72700500    4.90999985    2.32999992
   13.46305561  133.72700500    4.90999985    2.32999992
   13.46722221  133.67100525    4.90999985    2.32999992
   13.47055531  132.59399414    4.90999985    2.32999992
   13.47361088  137.32800293    4.90999985    2.32999992
   13.47583294  136.40400696    4.90999985    2.32999992
   13.47722149  133.30700684    4.90999985    2.32999992
   13.48055553  137.38000488    4.90999985    2.32999992
   13.48388958  127.24099731    4.90999985    2.32999992
   13.48694515  133.34800720    4.90999985    2.32999992
   13.49027824  132.10800171    4.90999985    2.32999992
   13.49361134  138.83599854    4.90999985    2.32999992
   13.49666691  131.22700500    4.90999985    2.32999992
   13.50000000  127.13099670    4.90999985    2.32999992
   13.50583363  127.13099670    4.90999985    2.32999992
   13.51000023  127.70700073    4.90999985    2.32999992
   13.51333332  135.65499878    4.90999985    2.32999992
   13.51638889  133.77900696    4.90999985    2.32999992
   13.51972198  135.60099792    4.90999985    2.32999992
   13.52305508  131.00599670    4.90999985    2.32999992
   13.52638817  129.66700745    4.90999985    2.32999992
   13.52972221  136.05599976    4.90999985    2.32999992
   13.53277779  131.85299683    4.90999985    2.32999992
   13.53611183  131.44299316    4.90999985    2.32999992
   13.53916740  128.96899414    4.90999985    2.32999992
   13.54250050  136.97700500    4.90999985    2.32999992
   13.54277802  135.25500488    4.90999985    2.32999992
   13.54861164  135.25500488    4.90999985    2.32999992
   13.55277824  133.22700500    4.90999985    2.32999992
   13.55611134  130.40600586    4.90999985    2.32999992
   13.55944443  137.13499451    4.90999985    2.32999992
   13.56250000  134.60299683    4.90999985    2.32999992
   13.56583309  137.12399292    4.90999985    2.32999992
   13.56888866  135.04299927    4.90999985    2.32999992
   13.57222176  134.60600281    4.90999985    2.32999992
   13.57555580  134.70799255    4.90999985    2.32999992
   13.57611084  134.51800537    4.90999985    2.32999992
   13.57916641  130.54400635    4.90999985    2.32999992
   13.58249950  133.36099243    4.90999985    2.32999992
   13.58583260  132.65899658    4.90999985    2.32999992
   13.59166622  132.65899658    4.90999985    2.32999992
   13.59583282  136.77799988    4.90999985    2.32999992
   13.59888840  138.64500427    4.90999985    2.32999992
   13.60222244  132.96899414    4.90999985    2.32999992
   13.60555553  131.83099365    4.90999985    2.32999992
   13.60861111  134.82899475    4.90999985    2.32999992
   13.60944462  136.76400757    4.90999985    2.32999992
   13.61222267  131.12300110    4.90999985    2.32999992
   13.61555576  129.61199951    4.90999985    2.32999992
   13.61888885  128.13000488    4.90999985    2.32999992
   13.62194443  128.43699646    4.90999985    2.32999992
   13.62527752  128.39799500    4.90999985    2.32999992
   13.62833309  130.81599426    4.90999985    2.32999992
   13.63444424  130.81599426    4.90999985    2.32999992
   13.63861084  133.91999817    4.90999985    2.32999992
   13.64166641  129.96099854    4.90999985    2.32999992
   13.64277744  124.38400269    4.90999985    2.32999992
   13.64527798  125.79499817    4.90999985    2.32999992
   13.64861107  130.88699341    4.90999985    2.32999992
   13.65194416  126.09700012    4.90999985    2.32999992
   13.65499973  124.10800171    4.90999985    2.32999992
   13.65833282  123.75800323    4.90999985    2.32999992
   13.66138840  124.77999878    4.90999985    2.32999992
   13.66472149  121.85800171    4.90999985    2.32999992
   13.66805553  126.59500122    4.90999985    2.32999992
   13.67111111  125.97299957    4.90999985    2.32999992
   13.67722225  125.97299957    4.90999985    2.32999992
   13.68138885  128.39999390    4.90999985    2.32999992
   13.68472195  121.77100372    4.90999985    2.32999992
   13.68777752  127.10500336    4.90999985    2.32999992
   13.69111156  123.11199951    4.90999985    2.32999992
   13.69444466  129.41600037    4.90999985    2.32999992
   13.69750023  123.06199646    4.90999985    2.32999992
   13.70083332  130.27900696    4.90999985    2.32999992
   13.70388889  132.30599976    4.90999985    2.32999992
   13.70722198  128.45100403    4.90999985    2.32999992
   13.70944405  129.55499268    4.90999985    2.32999992
   13.71083355  127.12000275    4.90999985    2.32999992
   13.71416664  128.62800598    4.90999985    2.32999992
   13.72027779  128.62800598    4.90999985    2.32999992
   13.72416592  127.81500244    4.90999985    2.32999992
   13.72749996  125.25299835    4.90999985    2.32999992
   13.73083305  126.67600250    4.90999985    2.32999992
   13.73388958  125.48699951    4.90999985    2.32999992
   13.73722267  122.84400177    4.90999985    2.32999992
   13.74055576  132.54400635    4.90999985    2.32999992
   13.74277782  126.16200256    4.90999985    2.32999992
   13.74388885  121.95800018    4.90999985    2.32999992
   13.74722290  130.90299988    4.90999985    2.32999992
   13.75055599  125.55400085    4.90999985    2.32999992
   13.75361156  128.89199829    4.90999985    2.32999992
   13.75694466  126.63999939    4.90999985    2.32999992
   13.76305580  126.63999939    4.90999985    2.32999992
   13.76722240  128.72999573    4.90999985    2.32999992
   13.77027798  126.60399628    4.90999985    2.32999992
   13.77361107  126.62300110    4.90999985    2.32999992
   13.77611065  131.03500366    4.90999985    2.32999992
   13.77722168  127.73799896    4.90999985    2.32999992
   13.78055573  119.73699951    4.90999985    2.32999992
   13.78388977  129.46600342    4.90999985    2.32999992
   13.78694534  123.44499969    4.90999985    2.32999992
   13.79027843  125.25499725    4.90999985    2.32999992
   13.79333401  124.90399933    4.90999985    2.32999992
   13.79666710  126.98999786    4.90999985    2.32999992
   13.80000019  120.08799744    4.90999985    2.32999992
   13.80583382  120.08799744    4.90999985    2.32999992
   13.81000042  128.02499390    4.90999985    2.32999992
   13.81305599  123.91400146    4.90999985    2.32999992
   13.81638908  118.75900269    4.90999985    2.32999992
   13.81972218  124.38899994    4.90999985    2.32999992
   13.82277775  118.82700348    4.90999985    2.32999992
   13.82611084  129.33299255    4.90999985    2.32999992
   13.82916641  128.04200745    4.90999985    2.32999992
   13.83249950  124.67299652    4.90999985    2.32999992
   13.83583260  124.44400024    4.90999985    2.32999992
   13.83888817  122.55200195    4.90999985    2.32999992
   13.84222221  124.37599945    4.90999985    2.32999992
   13.84277725  120.28299713    4.90999985    2.32999992
   13.84861088  120.28299713    4.90999985    2.32999992
   13.85277843  126.26999664    4.90999985    2.32999992
   13.85611153  117.56700134    4.90999985    2.32999992
   13.85916710  110.15599823    4.90999985    2.32999992
   13.86250019  121.01699829    4.90999985    2.32999992
   13.86555576  124.93599701    4.90999985    2.32999992
   13.86888885  121.47299957    4.90999985    2.32999992
   13.87222195  118.66400146    4.90999985    2.32999992
   13.87527752  119.93199921    4.90999985    2.32999992
   13.87611103  125.20200348    4.90999985    2.32999992
   13.87916660  124.06900024    4.90999985    2.32999992
   13.88222218  127.05000305    4.90999985    2.32999992
   13.88555527  122.90399933    4.90999985    2.32999992
   13.89138889  122.90399933    4.90999985    2.32999992
   13.89555550  124.49500275    4.90999985    2.32999992
   13.89888859  118.03099823    4.90999985    2.32999992
   13.90194416  118.93499756    4.90999985    2.32999992
   13.90527725  120.47499847    4.90999985    2.32999992
   13.90861034  124.23999786    4.90999985    2.32999992
   13.90944386  118.34200287    4.90999985    2.32999992
   13.91222191  120.87799835    4.90999985    2.32999992
   13.91527748  115.97499847    4.90999985    2.32999992
   13.91861153  118.62799835    4.90999985    2.32999992
   13.92194462  124.13500214    4.90999985    2.32999992
   13.92500019  115.52799988    4.90999985    2.32999992
   13.92833328  120.76799774    4.90999985    2.32999992
   13.93444443  120.76799774    4.90999985    2.32999992
   13.93861103  123.07299805    4.90999985    2.32999992
   13.94166660  115.73999786    4.90999985    2.32999992
   13.94277763  114.89299774    4.90999985    2.32999992
   13.94555569  123.17400360    4.90999985    2.32999992
   13.94861126  119.92800140    4.90999985    2.32999992
   13.95194435  118.59100342    4.90999985    2.32999992
   13.95527744  117.75099945    4.90999985    2.32999992
   13.95833302  126.78500366    4.90999985    2.32999992
   13.96166611  116.22599792    4.90999985    2.32999992
   13.96472168  115.67099762    4.90999985    2.32999992
   13.96805477  119.65699768    4.90999985    2.32999992
   13.97138882  120.98699951    4.90999985    2.32999992
   13.97722149  120.98699951    4.90999985    2.32999992
   13.98138809  116.21499634    4.90999985    2.32999992
   13.98444462  122.54299927    4.90999985    2.32999992
   13.98777771  114.72699738    4.90999985    2.32999992
   13.99111176  112.44799805    4.90999985    2.32999992
   13.99416733  118.90299988    4.90999985    2.32999992
   13.99750042  119.30899811    4.90999985    2.32999992
   14.00083351  118.27400208    4.90999985    2.32999992
   14.00388908  115.85399628    4.90999985    2.32999992
   14.00722218  119.21199799    4.90999985    2.32999992
   14.00944424  120.72799683    4.90999985    2.32999992
   14.01083374  117.76300049    4.90999985    2.32999992
   14.01388931  118.49900055    4.90999985    2.32999992
   14.01999950  118.49900055    4.90999985    2.32999992
   14.02416611  118.87699890    4.90999985    2.32999992
   14.02750015  111.93199921    4.90999985    2.32999992
   14.03055573  113.68099976    4.90999985    2.32999992
   14.03388977  115.05799866    4.90999985    2.32999992
   14.03694534  113.32499695    4.90999985    2.32999992
   14.04027843  117.46499634    4.90999985    2.32999992
   14.04277802  118.76399994    4.90999985    2.32999992
   14.04388905  117.78500366    4.90999985    2.32999992
   14.04694462  109.50800323    4.90999985    2.32999992
   14.05027771  112.62300110    4.90999985    2.32999992
   14.05361176  117.76999664    4.90999985    2.32999992
   14.05666733  111.18099976    4.90999985    2.32999992
   14.06277752  111.18099976    4.90999985    2.32999992
   14.06694412  117.66500092    4.90999985    2.32999992
   14.07027817  113.70600128    4.90999985    2.32999992
   14.07361126  115.85299683    4.90999985    2.32999992
   14.07611084  120.35199738    4.90999985    2.32999992
   14.07722187  116.00499725    4.90999985    2.32999992
   14.08027744  115.97599792    4.90999985    2.32999992
   14.08361053  113.95899963    4.90999985    2.32999992
   14.08694458  108.30400085    4.90999985    2.32999992
   14.09000015  116.89600372    4.90999985    2.32999992
   14.09333324  110.59600067    4.90999985    2.32999992
   14.09666634  115.22699738    4.90999985    2.32999992
   14.09972191  117.33300018    4.90999985    2.32999992
   14.10583401  117.33300018    4.90999985    2.32999992
   14.11000061  112.87200165    4.90999985    2.32999992
   14.11305618  117.61399841    4.90999985    2.32999992
   14.11638927  122.30300140    4.90999985    2.32999992
   14.11944485  112.13300323    4.90999985    2.32999992
   14.12277794  120.56199646    4.90999985    2.32999992
   14.12611103  116.73100281    4.90999985    2.32999992
   14.12916660  116.44200134    4.90999985    2.32999992
   14.13249969  119.10199738    4.90999985    2.32999992
   14.13583279  114.27200317    4.90999985    2.32999992
   14.13888836  117.19899750    4.90999985    2.32999992
   14.14222240  121.92800140    4.90999985    2.32999992
   14.14277744  120.22399902    4.90999985    2.32999992
   14.14861107  120.22399902    4.90999985    2.32999992
   14.15277767  120.10900116    4.90999985    2.32999992
   14.15583324  119.49099731    4.90999985    2.32999992
   14.15916634  116.82900238    4.90999985    2.32999992
   14.16249943  119.61299896    4.90999985    2.32999992
   14.16555500  115.88500214    4.90999985    2.32999992
   14.16888905  123.24400330    4.90999985    2.32999992
   14.17222214  115.45800018    4.90999985    2.32999992
   14.17527771  124.89199829    4.90999985    2.32999992
   14.17611122  114.63400269    4.90999985    2.32999992
   14.17888927  120.42600250    4.90999985    2.32999992
   14.18194485  118.92500305    4.90999985    2.32999992
   14.18527794  118.68800354    4.90999985    2.32999992
   14.19138908  118.68800354    4.90999985    2.32999992
   14.19555569  119.53399658    4.90999985    2.32999992
   14.19861126  124.80599976    4.90999985    2.32999992
   14.20194435  121.97699738    4.90999985    2.32999992
   14.20527744  116.36399841    4.90999985    2.32999992
   14.20833302  120.83799744    4.90999985    2.32999992
   14.20944405  119.99099731    4.90999985    2.32999992
   14.21222210  124.41899872    4.90999985    2.32999992
   14.21555519  121.97299957    4.90999985    2.32999992
   14.21861076  128.41600037    4.90999985    2.32999992
   14.22194386  118.06800079    4.90999985    2.32999992
   14.22499943  123.39099884    4.90999985    2.32999992
   14.22833252  125.05200195    4.90999985    2.32999992
   14.23416710  125.05200195    4.90999985    2.32999992
   14.23833370  126.51200104    4.90999985    2.32999992
   14.24166679  128.45399475    4.90999985    2.32999992
   14.24277782  127.61199951    4.90999985    2.32999992
   14.24527836  127.33799744    4.90999985    2.32999992
   14.24861145  137.17900085    4.90999985    2.32999992
   14.25166702  124.43900299    4.90999985    2.32999992
   14.25500011  120.45999908    4.90999985    2.32999992
   14.25805569  121.49299622    4.90999985    2.32999992
   14.26138878  135.43699646    4.90999985    2.32999992
   14.26472187  123.34799957    4.90999985    2.32999992
   14.26777744  123.61599731    4.90999985    2.32999992
   14.27111053  125.72599792    4.90999985    2.32999992
   14.27722168  125.72599792    4.90999985    2.32999992
   14.28111076  126.13500214    4.90999985    2.32999992
   14.28444481  122.83799744    4.90999985    2.32999992
   14.28777790  122.99900055    4.90999985    2.32999992
   14.29083347  122.47200012    4.90999985    2.32999992
   14.29416752  126.97399902    4.90999985    2.32999992
   14.29750061  123.49099731    4.90999985    2.32999992
   14.30055618  121.54299927    4.90999985    2.32999992
   14.30388927  118.64099884    4.90999985    2.32999992
   14.30722237  130.29800415    4.90999985    2.32999992
   14.30944443  124.93499756    4.90999985    2.32999992
   14.31083393  117.25499725    4.90999985    2.32999992
   14.31388950  121.17600250    4.90999985    2.32999992
   14.31999969  121.17600250    4.90999985    2.32999992
   14.32416630  124.32900238    4.90999985    2.32999992
   14.32722187  120.67099762    4.90999985    2.32999992
   14.33055592  118.01000214    4.90999985    2.32999992
   14.33361053  118.69699860    4.90999985    2.32999992
   14.33694458  125.38600159    4.90999985    2.32999992
   14.34027767  121.87699890    4.90999985    2.32999992
   14.34277725  121.45700073    4.90999985    2.32999992
   14.34388828  122.69400024    4.90999985    2.32999992
   14.34694386  126.95600128    4.90999985    2.32999992
   14.35027790  122.22200012    4.90999985    2.32999992
   14.35361195  124.65799713    4.90999985    2.32999992
   14.35666752  120.33399963    4.90999985    2.32999992
   14.36277771  120.33399963    4.90999985    2.32999992
   14.36694431  127.12899780    4.90999985    2.32999992
   14.36999989  130.11500549    4.90999985    2.32999992
   14.37333393  124.31800079    4.90999985    2.32999992
   14.37611103  120.39800262    4.90999985    2.32999992
   14.37694454  126.31700134    4.90999985    2.32999992
   14.38000011  126.74299622    4.90999985    2.32999992
   14.38333321  127.42600250    4.90999985    2.32999992
   14.38666630  128.11199951    4.90999985    2.32999992
   14.38972187  125.27799988    4.90999985    2.32999992
   14.39305496  133.83900452    4.90999985    2.32999992
   14.39638901  121.92299652    4.90999985    2.32999992
   14.39944458  126.43800354    4.90999985    2.32999992
   14.40555477  126.43800354    4.90999985    2.32999992
   14.40972137  121.50900269    4.90999985    2.32999992
   14.41305542  122.66899872    4.90999985    2.32999992
   14.41611099  124.93000031    4.90999985    2.32999992
   14.41944504  119.04399872    4.90999985    2.32999992
   14.42277813  116.68000031    4.90999985    2.32999992
   14.42583370  129.43200684    4.90999985    2.32999992
   14.42916679  115.25800323    4.90999985    2.32999992
   14.43249989  119.15000153    4.90999985    2.32999992
   14.43555546  126.63400269    4.90999985    2.32999992
   14.43888855  132.59800720    4.90999985    2.32999992
   14.44194412  117.18000031    4.90999985    2.32999992
   14.44277763  124.01899719    4.90999985    2.32999992
   14.44861126  124.01899719    4.90999985    2.32999992
   14.45249939  130.15499878    4.90999985    2.32999992
   14.45583344  125.74400330    4.90999985    2.32999992
   14.45916653  132.67999268    4.90999985    2.32999992
   14.47666645  125.47599792    4.90999985    2.32999992
   14.47916603  123.04199982    4.90999985    2.32999992
   14.48222160  129.69299316    4.90999985    2.32999992
   14.48555565  124.62999725    4.90999985    2.32999992
   14.49138927  124.62999725    4.90999985    2.32999992
   14.49555588  131.58999634    4.90999985    2.32999992
   14.49888897  130.28599548    4.90999985    2.32999992
   14.50222206  123.76699829    4.90999985    2.32999992
   14.50527763  120.12599945    4.90999985    2.32999992
   14.50861073  126.23999786    4.90999985    2.32999992
   14.51000023  126.35099792    4.90999985    2.32999992
   14.51222229  128.00100708    4.90999985    2.32999992
   14.51555538  129.21499634    4.90999985    2.32999992
   14.51888847  129.74499512    4.90999985    2.32999992
   14.52194405  129.38800049    4.90999985    2.32999992
   14.52527714  125.87300110    4.90999985    2.32999992
   14.52861118  131.12899780    4.90999985    2.32999992
   14.53444481  131.12899780    4.90999985    2.32999992
   14.53861141  127.89199829    4.90999985    2.32999992
   14.54166698  127.37599945    4.90999985    2.32999992
   14.54333401  125.32599640    4.90999985    2.32999992
   14.54527855  123.97599792    4.90999985    2.32999992
   14.54861164  123.60099792    4.90999985    2.32999992
   14.55194473  117.85399628    4.90999985    2.32999992
   14.55500031  129.23199463    4.90999985    2.32999992
   14.55833340  131.92999268    4.90999985    2.32999992
   14.56166649  142.01100159    4.90999985    2.32999992
   14.56472206  132.79299927    4.90999985    2.32999992
   14.56805515  122.11399841    4.90999985    2.32999992
   14.57111073  121.76899719    4.90999985    2.32999992
   14.57722187  121.76899719    4.90999985    2.32999992
   14.58138847  125.45200348    4.90999985    2.32999992
   14.58444405  132.61799622    4.90999985    2.32999992
   14.58777714  126.58300018    4.90999985    2.32999992
   14.59111118  127.66799927    4.90999985    2.32999992
   14.59416676  134.05799866    4.90999985    2.32999992
   14.59749985  133.08200073    4.90999985    2.32999992
   14.60055637  120.05500031    4.90999985    2.32999992
   14.60388947  118.31800079    4.90999985    2.32999992
   14.60722256  120.41000366    4.90999985    2.32999992
   14.61000061  115.88999939    4.90999985    2.32999992
   14.61083412  131.85099792    4.90999985    2.32999992
   14.61416721  132.05000305    4.90999985    2.32999992
   14.61999989  132.05000305    4.90999985    2.32999992
   14.62416649  132.99299622    4.90999985    2.32999992
   14.62750053  126.41899872    4.90999985    2.32999992
   14.63055611  143.42100525    4.90999985    2.32999992
   14.63388920  133.48899841    4.90999985    2.32999992
   14.63694477  129.15499878    4.90999985    2.32999992
   14.64027786  120.69499969    4.90999985    2.32999992
   14.64333344  127.72699738    4.90999985    2.32999992
   14.64388847  124.28800201    4.90999985    2.32999992
   14.64722252  128.89399719    4.90999985    2.32999992
   14.65055561  124.88500214    4.90999985    2.32999992
   14.65361118  125.37000275    4.90999985    2.32999992
   14.65694427  132.65800476    4.90999985    2.32999992
   14.66277695  132.65800476    4.90999985    2.32999992
   14.66694450  126.94100189    4.90999985    2.32999992
   14.67027855  133.93899536    4.90999985    2.32999992
   14.67333412  124.16500092    4.90999985    2.32999992
   14.67666721  124.38999939    4.90999985    2.32999992
   14.67694473  119.92800140    4.90999985    2.32999992
   14.68027782  117.55599976    4.90999985    2.32999992
   14.68361092  118.54399872    4.90999985    2.32999992
   14.68666649  119.40899658    4.90999985    2.32999992
   14.69000053  121.93099976    4.90999985    2.32999992
   14.69305515  124.31400299    4.90999985    2.32999992
   14.69638920  127.06400299    4.90999985    2.32999992
   14.69972229  131.09700012    4.90999985    2.32999992
   14.70583344  131.09700012    4.90999985    2.32999992
   14.71000004  125.52500153    4.90999985    2.32999992
   14.71027756  121.61599731    4.90999985    2.32999992
   14.71361065  124.78099823    4.90999985    2.32999992
   14.71694374  121.55400085    4.90999985    2.32999992
   14.71999931  126.74600220    4.90999985    2.32999992
   14.72333336  119.50800323    4.90999985    2.32999992
   14.72638798  124.46700287    4.90999985    2.32999992
   14.72972202  118.98100281    4.90999985    2.32999992
   14.73305511  121.39299774    4.90999985    2.32999992
   14.73611164  127.14800262    4.90999985    2.32999992
   14.73944473  122.77500153    4.90999985    2.32999992
   14.74277782  121.59899902    4.90999985    2.32999992
   14.74333382  119.36699677    4.90999985    2.32999992
   14.74861145  119.36699677    4.90999985    2.32999992
   14.75277805  116.73500061    4.90999985    2.32999992
   14.75583363  121.78900146    4.90999985    2.32999992
   14.75916672  116.87100220    4.90999985    2.32999992
   14.76249981  128.96600342    4.90999985    2.32999992
   14.76555538  122.08699799    4.90999985    2.32999992
   14.76888847  125.98999786    4.90999985    2.32999992
   14.77222157  132.87500000    4.90999985    2.32999992
   14.77527714  125.90200043    4.90999985    2.32999992
   14.77666664  125.06700134    4.90999985    2.32999992
   14.77916622  130.67500305    4.90999985    2.32999992
   14.78222179  132.39799500    4.90999985    2.32999992
   14.78555584  123.58799744    4.90999985    2.32999992
   14.79138947  123.58799744    4.90999985    2.32999992
   14.79555607  129.23599243    4.90999985    2.32999992
   14.79888916  123.11000061    4.90999985    2.32999992
   14.80194473  126.27400208    4.90999985    2.32999992
   14.80527782  128.45399475    4.90999985    2.32999992
   14.80861092  121.96600342    4.90999985    2.32999992
   14.81000042  119.35399628    4.90999985    2.32999992
   14.81194496  124.17299652    4.90999985    2.32999992
   14.81527805  120.05899811    4.90999985    2.32999992
   14.81861115  130.61500549    4.90999985    2.32999992
   14.82166672  128.20700073    4.90999985    2.32999992
   14.82499981  126.12899780    4.90999985    2.32999992
   14.82833290  126.80999756    4.90999985    2.32999992
   14.83416653  126.80999756    4.90999985    2.32999992
   14.83833313  127.58200073    4.90999985    2.32999992
   14.84166622  121.67700195    4.90999985    2.32999992
   14.84333324  132.12199402    4.90999985    2.32999992
   14.84527779  132.11300659    4.90999985    2.32999992
   14.84861088  123.80899811    4.90999985    2.32999992
   14.85194492  124.20200348    4.90999985    2.32999992
   14.85500050  124.47799683    4.90999985    2.32999992
   14.85833359  125.44799805    4.90999985    2.32999992
   14.86166668  121.33399963    4.90999985    2.32999992
   14.86472225  131.66299438    4.90999985    2.32999992
   14.86805534  118.03900146    4.90999985    2.32999992
   14.87111092  123.97200012    4.90999985    2.32999992
   14.87722206  123.97200012    4.90999985    2.32999992
   14.88111115  125.88500214    4.90999985    2.32999992
   14.88444424  119.04100037    4.90999985    2.32999992
   14.88777733  123.45600128    4.90999985    2.32999992
   14.89083290  128.79600525    4.90999985    2.32999992
   14.89416695  132.29200745    4.90999985    2.32999992
   14.89750004  125.95999908    4.90999985    2.32999992
   14.90055561  136.05499268    4.90999985    2.32999992
   14.90388870  122.24299622    4.90999985    2.32999992
   14.90722179  125.22000122    4.90999985    2.32999992
   14.90999985  126.44200134    4.90999985    2.32999992
   14.91055489  130.34300232    4.90999985    2.32999992
   14.91388893  128.90499878    4.90999985    2.32999992
   14.92000008  128.90499878    4.90999985    2.32999992
   14.92416668  125.80999756    4.90999985    2.32999992
   14.92722225  133.90400696    4.90999985    2.32999992
   14.93055630  140.95300293    4.90999985    2.32999992
   14.93388939  127.81099701    4.90999985    2.32999992
   14.93694496  138.09399414    4.90999985    2.32999992
   14.94027805  134.41700745    4.90999985    2.32999992
   14.94333363  136.55099487    4.90999985    2.32999992
   14.94388866  127.70999908    4.90999985    2.32999992
   14.94722271  123.13200378    4.90999985    2.32999992
   14.95055580  127.37799835    4.90999985    2.32999992
   14.95361137  132.55400085    4.90999985    2.32999992
   14.95694447  124.72000122    4.90999985    2.32999992
   14.96277714  124.72000122    4.90999985    2.32999992
   14.96694374  131.90600586    4.90999985    2.32999992
   14.97027779  127.10700226    4.90999985    2.32999992
   14.97333336  127.09600067    4.90999985    2.32999992
   14.97666645  122.77100372    4.90999985    2.32999992
   14.97694397  119.86199951    4.90999985    2.32999992
   14.98027706  121.02400208    4.90999985    2.32999992
   14.98361111  126.83599854    4.90999985    2.32999992
   14.98666668  135.07600403    4.90999985    2.32999992
   14.99000072  128.86599731    4.90999985    2.32999992
   14.99333382  131.89399719    4.90999985    2.32999992
   14.99638939  134.59100342    4.90999985    2.32999992
   14.99972248  133.01100159    4.90999985    2.32999992
   15.00555515  133.01100159    4.90999985    2.32999992
   15.00972176  135.41499329    4.90999985    2.32999992
   15.01027775  137.19299316    4.90999985    2.32999992
   15.01361084  124.38999939    4.90999985    2.32999992
   15.01666641  129.52799988    4.90999985    2.32999992
   15.11861134   -1.00000000   -1.00000000   -1.00000000
   15.23944473   -1.00000000   -1.00000000   -1.00000000
   15.36472225   -1.00000000   -1.00000000   -1.00000000
   15.42361164  140.05099487    4.90999985    2.32999992
   15.42694473  132.71400452    4.90999985    2.32999992
   15.43027782  136.18400574    4.90999985    2.32999992
   15.43333340  137.08299255    4.90999985    2.32999992
   15.43666649  136.85299683    4.90999985    2.32999992
   15.43972206  139.30799866    4.90999985    2.32999992
   15.44388866  139.30799866    4.90999985    2.32999992
   15.44805527  146.50500488    4.90999985    2.32999992
   15.45138836  142.64700317    4.90999985    2.32999992
   15.45444393  144.08700562    4.90999985    2.32999992
   15.45694447  142.84800720    4.90999985    2.32999992
   15.45833302  139.72099304    4.90999985    2.32999992
   15.46138859  143.62600708    4.90999985    2.32999992
   15.46472168  142.67300415    4.90999985    2.32999992
   15.46805477  138.59300232    4.90999985    2.32999992
   15.47111034  145.27699280    4.90999985    2.32999992
   15.47444439  134.28300476    4.90999985    2.32999992
   15.47749996  145.66900635    4.90999985    2.32999992
   15.48083305  146.46699524    4.90999985    2.32999992
   15.48694515  146.46699524    4.90999985    2.32999992
   15.49083328  130.70799255    4.90999985    2.32999992
   15.49416733  133.76899719    4.90999985    2.32999992
   15.49750042  135.02200317    4.90999985    2.32999992
   15.50055599  135.36300659    4.90999985    2.32999992
   15.50388908  142.99499512    4.90999985    2.32999992
   15.50722218  145.78100586    4.90999985    2.32999992
   15.51027775  142.48899841    4.90999985    2.32999992
   15.51361084  142.65100098    4.90999985    2.32999992
   15.51694393  142.71400452    4.90999985    2.32999992
   15.51999950  146.31500244    4.90999985    2.32999992
   15.52333355  132.18299866    4.90999985    2.32999992
   15.52388859  131.53500366    4.90999985    2.32999992
   15.52972221  131.53500366    4.90999985    2.32999992
   15.53388977  140.24899292    4.90999985    2.32999992
   15.53694534  143.86999512    4.90999985    2.32999992
   15.54027843  133.59599304    4.90999985    2.32999992
   15.54361153  128.74899292    4.90999985    2.32999992
   15.54666710  133.84199524    4.90999985    2.32999992
   15.55000019  131.97599792    4.90999985    2.32999992
   15.55305576  142.42399597    4.90999985    2.32999992
   15.55638885  128.47099304    4.90999985    2.32999992
   15.55722237  133.12300110    4.90999985    2.32999992
   15.56000042  130.82200623    4.90999985    2.32999992
   15.56333351  140.49000549    4.90999985    2.32999992
   15.56666660  134.55599976    4.90999985    2.32999992
   15.57250023  134.55599976    4.90999985    2.32999992
   15.57666683  137.05999756    4.90999985    2.32999992
   15.57999992  131.54299927    4.90999985    2.32999992
   15.58305550  134.92399597    4.90999985    2.32999992
   15.58638859  136.91900635    4.90999985    2.32999992
   15.58972168  141.32899475    4.90999985    2.32999992
   15.59055519  137.28300476    4.90999985    2.32999992
   15.59305477  143.40899658    4.90999985    2.32999992
   15.59638882  139.30000305    4.90999985    2.32999992
   15.59972191  135.54699707    4.90999985    2.32999992
   15.60277843  142.95799255    4.90999985    2.32999992
   15.60611153  136.33599854    4.90999985    2.32999992
   15.60944462  141.00799561    4.90999985    2.32999992
   15.61527824  141.00799561    4.90999985    2.32999992
   15.61944485  144.95700073    4.90999985    2.32999992
   15.62277794  132.75900269    4.90999985    2.32999992
   15.62388897  147.63200378    4.90999985    2.32999992
   15.62611103  136.68800354    4.90999985    2.32999992
   15.62944412  135.75100708    4.90999985    2.32999992
   15.63277817  130.26400757    4.90999985    2.32999992
   15.63583279  146.57800293    4.90999985    2.32999992
   15.63916683  140.28900146    4.90999985    2.32999992
   15.64249992  141.88900757    4.90999985    2.32999992
   15.64555550  144.52999878    4.90999985    2.32999992
   15.64888859  139.09700012    4.90999985    2.32999992
   15.65194416  153.64199829    4.90999985    2.32999992
   15.65833282  153.64199829    4.90999985    2.32999992
   15.66222191  134.75900269    4.90999985    2.32999992
   15.66555500  133.27900696    4.90999985    2.32999992
   15.66888905  145.79400635    4.90999985    2.32999992
   15.67194462  140.07600403    4.90999985    2.32999992
   15.67527771  144.02699280    4.90999985    2.32999992
   15.67861176  142.85200500    4.90999985    2.32999992
   15.68194485  151.82400513    4.90999985    2.32999992
   15.68500042  148.38400269    4.90999985    2.32999992
   15.68833351  139.31799316    4.90999985    2.32999992
   15.69055557  136.50700378    4.90999985    2.32999992
   15.69166660  138.85499573    4.90999985    2.32999992
   15.69499969  148.17799377    4.90999985    2.32999992
   15.70111084  148.17799377    4.90999985    2.32999992
   15.70527744  138.12899780    4.90999985    2.32999992
   15.70833302  144.53300476    4.90999985    2.32999992
   15.71166611  147.88699341    4.90999985    2.32999992
   15.71500015  146.63400269    4.90999985    2.32999992
   15.71805477  148.12600708    4.90999985    2.32999992
   15.72138882  139.36300659    4.90999985    2.32999992
   15.72388840  143.30599976    4.90999985    2.32999992
   15.72499943  142.94400024    4.90999985    2.32999992
   15.72805500  146.05000305    4.90999985    2.32999992
   15.73138809  136.96400452    4.90999985    2.32999992
   15.73444462  138.42700195    4.90999985    2.32999992
   15.73777771  134.45799255    4.90999985    2.32999992
   15.74388885  134.45799255    4.90999985    2.32999992
   15.74805546  131.11999512    4.90999985    2.32999992
   15.75138855  133.03799438    4.90999985    2.32999992
   15.75444412  142.44400024    4.90999985    2.32999992
   15.75722218  137.06100464    4.90999985    2.32999992
   15.75805569  137.75599670    4.90999985    2.32999992
   15.76138878  134.67700195    4.90999985    2.32999992
   15.76472187  144.16799927    4.90999985    2.32999992
   15.76777744  137.84199524    4.90999985    2.32999992
   15.77111053  141.37699890    4.90999985    2.32999992
   15.77444458  144.43499756    4.90999985    2.32999992
   15.77750015  138.65400696    4.90999985    2.32999992
   15.78083324  147.05999756    4.90999985    2.32999992
   15.78666687  147.05999756    4.90999985    2.32999992
   15.79083347  166.52400208    4.90999985    2.32999992
   15.79416752  153.21200562    4.90999985    2.32999992
   15.79750061  158.62199402    4.90999985    2.32999992
   15.80055618  185.22700500    4.90999985    2.32999992
   15.80388927  164.83700562    4.90999985    2.32999992
   15.80694485  177.33999634    4.90999985    2.32999992
   15.81027794  170.17399597    4.90999985    2.32999992
   15.81361103  161.76300049    4.90999985    2.32999992
   15.81666660  172.15299988    4.90999985    2.32999992
   15.81999969  213.94500732    4.90999985    2.32999992
   15.82333374  211.41600037    4.90999985    2.32999992
   15.82388878  210.33000183    4.90999985    2.32999992
   15.82972240  210.33000183    4.90999985    2.32999992
   15.83361053  503.80499268    4.90999985    2.32999992
   15.83583260  418.91500854    4.90999985    2.32999992
   15.83694458  465.22198486    4.90999985    2.32999992
   15.83833313  465.73199463    4.90999985    2.32999992
   15.83972168  418.60598755    4.90999985    2.32999992
   15.84111118  362.04199219    4.90999985    2.32999992
   15.84249973  360.98901367    4.90999985    2.32999992
   15.84388828  426.69299316    4.90999985    2.32999992
   15.84527779  379.38500977    4.90999985    2.32999992
   15.84666634  398.87200928    4.90999985    2.32999992
   15.84805489  356.49398804    4.90999985    2.32999992
   15.84944439  419.17898560    4.90999985    2.32999992
   15.85083389  353.88699341    4.90999985    2.32999992
   15.85222244  408.78201294    4.90999985    2.32999992
   15.85361195  357.57800293    4.90999985    2.32999992
   15.85500050  348.25698853    4.90999985    2.32999992
   15.85638905  332.90100098    4.90999985    2.32999992
   15.85777855  345.75100708    4.90999985    2.32999992
   15.85916710  296.03100586    4.90999985    2.32999992
   15.86055565  300.57800293    4.90999985    2.32999992
   15.86194515  315.55300903    4.90999985    2.32999992
   15.86333370  305.30700684    4.90999985    2.32999992
   15.86472225  314.41500854    4.90999985    2.32999992
   15.86611176  323.08599854    4.90999985    2.32999992
   15.86750031  287.63500977    4.90999985    2.32999992
   15.86888885  264.63000488    4.90999985    2.32999992
   15.87027836  288.45498657    4.90999985    2.32999992
   15.87166691  269.51400757    4.90999985    2.32999992
   15.87305546  271.52099609    4.90999985    2.32999992
   15.87444496  274.44500732    4.90999985    2.32999992
   15.87583351  273.84899902    4.90999985    2.32999992
   15.87722206  262.23300171    4.90999985    2.32999992
   15.87861156  253.51899719    4.90999985    2.32999992
   15.88000011  260.22900391    4.90999985    2.32999992
   15.88138866  275.42098999    4.90999985    2.32999992
   15.88277817  258.54699707    4.90999985    2.32999992
   15.88416672  300.65499878    4.90999985    2.32999992
   15.88555527  290.45300293    4.90999985    2.32999992
   15.88694477  276.57800293    4.90999985    2.32999992
   15.88833332  298.17999268    4.90999985    2.32999992
   15.88972187  275.21499634    4.90999985    2.32999992
   15.89111137  259.89498901    4.90999985    2.32999992
   15.89249992  278.57501221    4.90999985    2.32999992
   15.89388847  259.46600342    4.90999985    2.32999992
   15.89527798  255.39199829    4.90999985    2.32999992
   15.89666653  250.34500122    4.90999985    2.32999992
   15.89805508  255.41400146    4.90999985    2.32999992
   15.89944458  212.60200500    4.90999985    2.32999992
   15.89972210  170.17399597    4.90999985    2.32999992
   15.89972210  161.76300049    4.90999985    2.32999992
   15.89972210  172.15299988    4.90999985    2.32999992
   15.89999962  213.94500732    4.90999985    2.32999992
   15.89999962  211.41600037    4.90999985    2.32999992
   15.89999962  503.80499268    4.90999985    2.32999992
   15.90027714  185.22700500    4.90999985    2.32999992
   15.90027714  164.83700562    4.90999985    2.32999992
   15.90055561  177.33999634    4.90999985    2.32999992
   15.90111065  241.30299377    4.90999985    2.32999992
   15.90416622  228.84399414    4.90999985    2.32999992
   15.90749931  262.16799927    4.90999985    2.32999992
   15.91083336  228.98599243    4.90999985    2.32999992
   15.91388893  232.22200012    4.90999985    2.32999992
   15.92027855  232.22200012    4.90999985    2.32999992
   15.92444515  220.35400391    4.90999985    2.32999992
   15.92777824  230.39300537    4.90999985    2.32999992
   15.93111134  192.00900269    4.90999985    2.32999992
   15.93333340  195.63999939    4.90999985    2.32999992
   15.93472195  195.47700500    4.90999985    2.32999992
   15.93805599  202.65400696    4.90999985    2.32999992
   15.94111156  214.69099426    4.90999985    2.32999992
   15.94444466  198.53799438    4.90999985    2.32999992
   15.94777775  203.55299377    4.90999985    2.32999992
   15.95083332  195.22999573    4.90999985    2.32999992
   15.95416641  182.69599915    4.90999985    2.32999992
   15.95722198  202.09899902    4.90999985    2.32999992
   15.96333313  202.09899902    4.90999985    2.32999992
   15.96749973  174.03399658    4.90999985    2.32999992
   15.97055531  178.77299500    4.90999985    2.32999992
   15.97388840  167.96299744    4.90999985    2.32999992
   15.97694397  195.05200195    4.90999985    2.32999992
   15.98027706  161.64300537    4.90999985    2.32999992
   15.98361111  173.16999817    4.90999985    2.32999992
   15.98666668  173.80200195    4.90999985    2.32999992
   15.99000072  162.71400452    4.90999985    2.32999992
   15.99333382  159.37199402    4.90999985    2.32999992
   15.99638939  159.42300415    4.90999985    2.32999992
   15.99972248  168.90899658    4.90999985    2.32999992
   16.00027847  163.75399780    4.90999985    2.32999992
   16.00611115  163.75399780    4.90999985    2.32999992
   16.01027870  163.59199524    4.90999985    2.32999992
   16.01333427  155.72099304    4.90999985    2.32999992
   16.01666641  169.84899902    4.90999985    2.32999992
   16.02000046  171.19799805    4.90999985    2.32999992
   16.02305603  165.07000732    4.90999985    2.32999992
   16.02638817  166.32899475    4.90999985    2.32999992
   16.02944374  176.99200439    4.90999985    2.32999992
   16.03277779  166.55299377    4.90999985    2.32999992
   16.03361130  156.86900330    4.90999985    2.32999992
   16.03638840  153.77299500    4.90999985    2.32999992
   16.03972244  160.41900635    4.90999985    2.32999992
   16.04305458  159.25700378    4.90999985    2.32999992
   16.04888916  159.25700378    4.90999985    2.32999992
   16.05305481  192.52600098    4.90999985    2.32999992
   16.05638885  186.79100037    4.90999985    2.32999992
   16.05944443  225.72500610    4.90999985    2.32999992
   16.06277657  216.43800354    4.90999985    2.32999992
   16.06583214  207.18600464    4.90999985    2.32999992
   16.06694603  212.35000610    4.90999985    2.32999992
   16.06944466  201.98599243    4.90999985    2.32999992
   16.07277870  191.05499268    4.90999985    2.32999992
   16.07611275  196.65699768    4.90999985    2.32999992
   16.07916832  190.28399658    4.90999985    2.32999992
   16.08250046  186.03900146    4.90999985    2.32999992
   16.08583450  174.70300293    4.90999985    2.32999992
   16.09166718  174.70300293    4.90999985    2.32999992
   16.09583473  163.07200623    4.90999985    2.32999992
   16.09916687  162.98599243    4.90999985    2.32999992
   16.10027885  147.55099487    4.90999985    2.32999992
   16.10277748  148.98699951    4.90999985    2.32999992
   16.10611153  158.51199341    4.90999985    2.32999992
   16.10944557  163.13600159    4.90999985    2.32999992
   16.11250114  145.40199280    4.90999985    2.32999992
   16.11583328  129.88099670    4.90999985    2.32999992
   16.11916733  139.51499939    4.90999985    2.32999992
   16.12222290  154.65299988    4.90999985    2.32999992
   16.12555504  154.12500000    4.90999985    2.32999992
   16.12861061  159.19500732    4.90999985    2.32999992
   16.13472176  159.19500732    4.90999985    2.32999992
   16.13861084  145.75399780    4.90999985    2.32999992
   16.14194489  136.74099731    4.90999985    2.32999992
   16.14527702  129.05299377    4.90999985    2.32999992
   16.14833260  141.26600647    4.90999985    2.32999992
   16.15166664  131.88900757    4.90999985    2.32999992
   16.15499878  140.73599243    4.90999985    2.32999992
   16.15805435  127.94000244    4.90999985    2.32999992
   16.16138840  127.97000122    4.90999985    2.32999992
   16.16472244  139.62399292    4.90999985    2.32999992
   16.16694450  130.23100281    4.90999985    2.32999992
   16.16805458  139.45599365    4.90999985    2.32999992
   16.17138863  125.29399872    4.90999985    2.32999992
   16.17749977  125.29399872    4.90999985    2.32999992
   16.18166542  124.48600006    4.90999985    2.32999992
   16.18472099  129.01800537    4.90999985    2.32999992
   16.18805504  139.08200073    4.90999985    2.32999992
   16.19138718  138.49000549    4.90999985    2.32999992
   16.19444275  129.29600525    4.90999985    2.32999992
   16.19777679  135.46200562    4.90999985    2.32999992
   16.20027924  135.29600525    4.90999985    2.32999992
   16.20138931  136.18299866    4.90999985    2.32999992
   16.20472336  134.05799866    4.90999985    2.32999992
   16.20805550  130.14100647    4.90999985    2.32999992
   16.21111107  123.64499664    4.90999985    2.32999992
   16.21444511  130.89900208    4.90999985    2.32999992
   16.22027779  130.89900208    4.90999985    2.32999992
   16.22444534  130.10600281    4.90999985    2.32999992
   16.22777748  130.75500488    4.90999985    2.32999992
   16.23083305  131.75500488    4.90999985    2.32999992
   16.23361206  137.15699768    4.90999985    2.32999992
   16.23444557  132.98599243    4.90999985    2.32999992
   16.23777771  113.83200073    4.90999985    2.32999992
   16.24111176  141.21400452    4.90999985    2.32999992
   16.24416733  134.80299377    4.90999985    2.32999992
   16.24749947  134.41900635    4.90999985    2.32999992
   16.25083351  130.76300049    4.90999985    2.32999992
   16.25388908  128.67900085    4.90999985    2.32999992
   16.25722313  136.31900024    4.90999985    2.32999992
   16.26305580  136.31900024    4.90999985    2.32999992
   16.26722145  129.58000183    4.90999985    2.32999992
   16.27055550  135.89799500    4.90999985    2.32999992
   16.27361107  121.32900238    4.90999985    2.32999992
   16.27694511  132.26699829    4.90999985    2.32999992
   16.28027725  142.57400513    4.90999985    2.32999992
   16.28333282  132.53500366    4.90999985    2.32999992
   16.28666687  124.39700317    4.90999985    2.32999992
   16.28999901  122.96199799    4.90999985    2.32999992
   16.29305458  131.64900208    4.90999985    2.32999992
   16.29638863  130.43600464    4.90999985    2.32999992
   16.29944420  132.62500000    4.90999985    2.32999992
   16.30027771  133.91099548    4.90999985    2.32999992
   16.30611038  133.91099548    4.90999985    2.32999992
   16.30999947  124.40299988    4.90999985    2.32999992
   16.31333351  126.37599945    4.90999985    2.32999992
   16.31666756  134.82899475    4.90999985    2.32999992
   16.31972313  129.05099487    4.90999985    2.32999992
   16.32305717  126.89199829    4.90999985    2.32999992
   16.32638931  118.93800354    4.90999985    2.32999992
   16.32944489  131.15199280    4.90999985    2.32999992
   16.33277893  138.77400208    4.90999985    2.32999992
   16.33361244  135.24299622    4.90999985    2.32999992
   16.33638954  130.85099792    4.90999985    2.32999992
   16.33944511  133.89100647    4.90999985    2.32999992
   16.34277916  130.96099854    4.90999985    2.32999992
   16.34889030  130.96099854    4.90999985    2.32999992
   16.35305595  131.54499817    4.90999985    2.32999992
   16.35611153  135.44000244    4.90999985    2.32999992
   16.35944557  138.40899658    4.90999985    2.32999992
   16.36277771  138.43400574    4.90999985    2.32999992
   16.36583328  138.00599670    4.90999985    2.32999992
   16.36694527  136.00799561    4.90999985    2.32999992
   16.36972237  132.62399292    4.90999985    2.32999992
   16.37277794  139.67300415    4.90999985    2.32999992
   16.37611198  129.65400696    4.90999985    2.32999992
   16.37944412  129.56199646    4.90999985    2.32999992
   16.38277817  135.41000366    4.90999985    2.32999992
   16.38583374  132.21000671    4.90999985    2.32999992
   16.39166641  132.21000671    4.90999985    2.32999992
   16.39583397  127.26699829    4.90999985    2.32999992
   16.39916611  130.27099609    4.90999985    2.32999992
   16.40027809  127.14199829    4.90999985    2.32999992
   16.40277672  128.93499756    4.90999985    2.32999992
   16.40583229  129.46699524    4.90999985    2.32999992
   16.40916634  137.05299377    4.90999985    2.32999992
   16.41222191  124.92299652    4.90999985    2.32999992
   16.41555595  130.38699341    4.90999985    2.32999992
   16.41888809  134.04400635    4.90999985    2.32999992
   16.42194366  136.10899353    4.90999985    2.32999992
   16.44444275  136.10899353    4.90999985    2.32999992
   16.44861031  126.83300018    4.90999985    2.32999992
   16.45194435  120.65399933    4.90999985    2.32999992
   16.45499992  126.56800079    4.90999985    2.32999992
   16.45833397  120.83000183    4.90999985    2.32999992
   16.46166801  136.41999817    4.90999985    2.32999992
   16.46472359  126.58999634    4.90999985    2.32999992
   16.46805573  117.08999634    4.90999985    2.32999992
   16.47138977  129.52999878    4.90999985    2.32999992
   16.47444534  124.27799988    4.90999985    2.32999992
   16.47527885  133.83799744    4.90999985    2.32999992
   16.47805595  133.73100281    4.90999985    2.32999992
   16.48111153  131.54400635    4.90999985    2.32999992
   16.48722267  131.54400635    4.90999985    2.32999992
   16.49138832  125.33399963    4.90999985    2.32999992
   16.49472237  123.98699951    4.90999985    2.32999992
   16.49777794  130.86599731    4.90999985    2.32999992
   16.50111198  131.57800293    4.90999985    2.32999992
   16.50444412  124.33399963    4.90999985    2.32999992
   16.50749969  134.55400085    4.90999985    2.32999992
   16.50861168  128.84800720    4.90999985    2.32999992
   16.51138878  129.04299927    4.90999985    2.32999992
   16.51472282  127.02100372    4.90999985    2.32999992
   16.51777840  126.44599915    4.90999985    2.32999992
   16.52111053  124.37899780    4.90999985    2.32999992
   16.52416611  128.22599792    4.90999985    2.32999992
   16.53000069  128.22599792    4.90999985    2.32999992
   16.53444481  129.24899292    4.90999985    2.32999992
   16.53777695  130.47900391    4.90999985    2.32999992
   16.54083252  123.89399719    4.90999985    2.32999992
   16.54222107  124.38999939    4.90999985    2.32999992
   16.54472160  126.62999725    4.90999985    2.32999992
   16.54777718  142.41799927    4.90999985    2.32999992
   16.55111122  123.23600006    4.90999985    2.32999992
   16.55416679  129.30900574    4.90999985    2.32999992
   16.55749893  119.52799988    4.90999985    2.32999992
   16.56083298  136.56700134    4.90999985    2.32999992
   16.56388855  132.98300171    4.90999985    2.32999992
   16.56722260  129.54299927    4.90999985    2.32999992
   16.57305717  129.54299927    4.90999985    2.32999992
   16.57722282  129.58099365    4.90999985    2.32999992
   16.58027840  125.33300018    4.90999985    2.32999992
   16.58361244  128.28199768    4.90999985    2.32999992
   16.58694458  131.71299744    4.90999985    2.32999992
   16.59000015  125.58000183    4.90999985    2.32999992
   16.59333420  124.18000031    4.90999985    2.32999992
   16.59638977  129.68800354    4.90999985    2.32999992
   16.59972191  125.79000092    4.90999985    2.32999992
   16.60305595  124.45200348    4.90999985    2.32999992
   16.60611153  125.73500061    4.90999985    2.32999992
   16.60888863  127.09100342    4.90999985    2.32999992
   16.61000061  126.43199921    4.90999985    2.32999992
   16.61583328  126.43199921    4.90999985    2.32999992
   16.62000084  135.52400208    4.90999985    2.32999992
   16.62305641  122.53600311    4.90999985    2.32999992
   16.62638855  119.98999786    4.90999985    2.32999992
   16.62972260  128.28300476    4.90999985    2.32999992
   16.63277817  115.20800018    4.90999985    2.32999992
   16.63611031  122.10399628    4.90999985    2.32999992
   16.63944435  122.68000031    4.90999985    2.32999992
   16.64222145  127.81800079    4.90999985    2.32999992
   16.64305496  128.59199524    4.90999985    2.32999992
   16.64611053  132.43299866    4.90999985    2.32999992
   16.64944458  125.62500000    4.90999985    2.32999992
   16.65250015  120.29000092    4.90999985    2.32999992
   16.65861130  120.29000092    4.90999985    2.32999992
   16.66277695  127.56199646    4.90999985    2.32999992
   16.66611099  126.36799622    4.90999985    2.32999992
   16.66916656  122.04499817    4.90999985    2.32999992
   16.67249870  129.17199707    4.90999985    2.32999992
   16.67555428  122.91200256    4.90999985    2.32999992
   16.67638779  127.59200287    4.90999985    2.32999992
   16.67944336  125.22499847    4.90999985    2.32999992
   16.68277740  124.88600159    4.90999985    2.32999992
   16.68583298  116.84500122    4.90999985    2.32999992
   16.68916512  127.04599762    4.90999985    2.32999992
   16.69249916  129.08099365    4.90999985    2.32999992
   16.69555473  131.42100525    4.90999985    2.32999992
   16.70138931  131.42100525    4.90999985    2.32999992
   16.70555687  132.03900146    4.90999985    2.32999992
   16.70888901  121.53900146    4.90999985    2.32999992
   16.70944595  129.71099854    4.90999985    2.32999992
   16.71250153  128.44500732    4.90999985    2.32999992
   16.71583366  125.63800049    4.90999985    2.32999992
   16.71888924  132.86999512    4.90999985    2.32999992
   16.72222328  136.77600098    4.90999985    2.32999992
   16.72555542  128.87899780    4.90999985    2.32999992
   16.72861099  132.15199280    4.90999985    2.32999992
   16.73194504  137.91000366    4.90999985    2.32999992
   16.73527718  125.68299866    4.90999985    2.32999992
   16.73833275  127.33899689    4.90999985    2.32999992
   16.74444389  127.33899689    4.90999985    2.32999992
   16.74861145  128.47200012    4.90999985    2.32999992
   16.75166702  123.59899902    4.90999985    2.32999992
   16.75499916  133.50999451    4.90999985    2.32999992
   16.75805473  131.89100647    4.90999985    2.32999992
   16.76138878  125.36299896    4.90999985    2.32999992
   16.76472282  134.18899536    4.90999985    2.32999992
   16.76805496  126.17800140    4.90999985    2.32999992
   16.77111053  134.55599976    4.90999985    2.32999992
   16.77444458  128.97500610    4.90999985    2.32999992
   16.77555466  132.90600586    4.90999985    2.32999992
   16.77805519  124.95600128    4.90999985    2.32999992
   16.78111076  129.82000732    4.90999985    2.32999992
   16.78722191  129.82000732    4.90999985    2.32999992
   16.79138756  126.47100067    4.90999985    2.32999992
   16.79444313  141.71800232    4.90999985    2.32999992
   16.79777718  136.45599365    4.90999985    2.32999992
   16.80111122  127.74199677    4.90999985    2.32999992
   16.80416679  135.90699768    4.90999985    2.32999992
   16.80749893  126.68499756    4.90999985    2.32999992
   16.80888748  137.69500732    4.90999985    2.32999992
   16.81110954  145.10099792    4.90999985    2.32999992
   16.81416512  140.31900024    4.90999985    2.32999992
   16.81750107  126.17299652    4.90999985    2.32999992
   16.82083511  122.58200073    4.90999985    2.32999992
   16.82389069  124.44100189    4.90999985    2.32999992
   16.83000183  124.44100189    4.90999985    2.32999992
   16.83416748  120.47799683    4.90999985    2.32999992
   16.83750153  122.13800049    4.90999985    2.32999992
   16.84055710  125.05599976    4.90999985    2.32999992
   16.84250069  123.95700073    4.90999985    2.32999992
   16.84416771  134.53799438    4.90999985    2.32999992
   16.84749985  120.87599945    4.90999985    2.32999992
   16.85083389  125.14099884    4.90999985    2.32999992
   16.85388947  123.14099884    4.90999985    2.32999992
   16.85722351  126.83699799    4.90999985    2.32999992
   16.86055565  123.91699982    4.90999985    2.32999992
   16.86361122  132.63400269    4.90999985    2.32999992
   16.86694527  118.69000244    4.90999985    2.32999992
   16.87277794  118.69000244    4.90999985    2.32999992
   16.87694550  122.00700378    4.90999985    2.32999992
   16.88027763  124.04199982    4.90999985    2.32999992
   16.88361168  123.73000336    4.90999985    2.32999992
   16.88666725  132.62300110    4.90999985    2.32999992
   16.88999939  128.74699402    4.90999985    2.32999992
   16.89305496  120.30100250    4.90999985    2.32999992
   16.89638901  119.41400146    4.90999985    2.32999992
   16.89972115  115.70600128    4.90999985    2.32999992
   16.90277672  120.07900238    4.90999985    2.32999992
   16.90611076  119.54799652    4.90999985    2.32999992
   16.90916634  121.39099884    4.90999985    2.32999992
   16.90972137  127.00599670    4.90999985    2.32999992
   16.91583252  127.00599670    4.90999985    2.32999992
   16.92000008  116.47499847    4.90999985    2.32999992
   16.92305565  117.44499969    4.90999985    2.32999992
   16.92638779  127.95999908    4.90999985    2.32999992
   16.92944336  122.15100098    4.90999985    2.32999992
   16.93277740  130.09300232    4.90999985    2.32999992
   16.93610954  132.23399353    4.90999985    2.32999992
   16.93916512  129.09800720    4.90999985    2.32999992
   16.94249916  130.50199890    4.90999985    2.32999992
   16.94305420  126.27500153    4.90999985    2.32999992
   16.94610977  128.45599365    4.90999985    2.32999992
   16.94944382  129.93600464    4.90999985    2.32999992
   16.95250130  125.96199799    4.90999985    2.32999992
   16.95861244  125.96199799    4.90999985    2.32999992
   16.96277809  119.50700378    4.90999985    2.32999992
   16.96583366  125.26100159    4.90999985    2.32999992
   16.96916771  132.86399841    4.90999985    2.32999992
   16.97249985  134.67500305    4.90999985    2.32999992
   16.97555542  118.53800201    4.90999985    2.32999992
   16.97611237  133.37199402    4.90999985    2.32999992
   16.97944450  120.47299957    4.90999985    2.32999992
   16.98277855  114.51499939    4.90999985    2.32999992
   16.98583412  124.77700043    4.90999985    2.32999992
   16.98916626  122.44200134    4.90999985    2.32999992
   16.99250031  121.53500366    4.90999985    2.32999992
   16.99555588  124.28199768    4.90999985    2.32999992
   17.00138855  124.28199768    4.90999985    2.32999992
   17.00555611  119.35399628    4.90999985    2.32999992
   17.00888824  131.60699463    4.90999985    2.32999992
   17.00944519  128.61500549    4.90999985    2.32999992
   17.01250076  125.47699738    4.90999985    2.32999992
   17.01583290  129.86500549    4.90999985    2.32999992
   17.01888847  127.31099701    4.90999985    2.32999992
   17.02222252  119.19799805    4.90999985    2.32999992
   17.02555466  122.45700073    4.90999985    2.32999992
   17.02861023  122.85800171    4.90999985    2.32999992
   17.03194427  115.00000000    4.90999985    2.32999992
   17.03499985  131.21499634    4.90999985    2.32999992
   17.03833199  125.56900024    4.90999985    2.32999992
   17.04416656  125.56900024    4.90999985    2.32999992
   17.04833221  120.82099915    4.90999985    2.32999992
   17.05166626  123.50800323    4.90999985    2.32999992
   17.05499840  122.87400055    4.90999985    2.32999992
   17.05805397  123.87300110    4.90999985    2.32999992
   17.06138802  132.21600342    4.90999985    2.32999992
   17.06444359  130.35099792    4.90999985    2.32999992
   17.06777954  131.94400024    4.90999985    2.32999992
   17.07111168  136.68400574    4.90999985    2.32999992
   17.07416725  126.36900330    4.90999985    2.32999992
   17.07611275  126.79100037    4.90999985    2.32999992
   17.07777786  135.82000732    4.90999985    2.32999992
   17.08111191  126.44000244    4.90999985    2.32999992
   17.08722305  126.44000244    4.90999985    2.32999992
   17.09111214  130.13299561    4.90999985    2.32999992
   17.09444427  139.83099365    4.90999985    2.32999992
   17.09777832  126.26899719    4.90999985    2.32999992
   17.10111237  122.83499908    4.90999985    2.32999992
   17.10416794  127.51599884    4.90999985    2.32999992
   17.10750008  123.26499939    4.90999985    2.32999992
   17.10944557  124.29100037    4.90999985    2.32999992
   17.11111069  135.77900696    4.90999985    2.32999992
   17.11444473  124.84799957    4.90999985    2.32999992
   17.11750031  128.53100586    4.90999985    2.32999992
   17.12083435  127.16899872    4.90999985    2.32999992
   17.12416649  135.13299561    4.90999985    2.32999992
   17.13000107  135.13299561    4.90999985    2.32999992
   17.13416672  122.67500305    4.90999985    2.32999992
   17.13722229  131.14900208    4.90999985    2.32999992
   17.14055634  118.33799744    4.90999985    2.32999992
   17.14277840  135.14900208    4.90999985    2.32999992
   17.14416695  128.29100037    4.90999985    2.32999992
   17.14749908  124.93699646    4.90999985    2.32999992
   17.15055466  130.83799744    4.90999985    2.32999992
   17.15388870  131.37300110    4.90999985    2.32999992
   17.15694427  126.24099731    4.90999985    2.32999992
   17.16027832  125.18299866    4.90999985    2.32999992
   17.16361046  132.68400574    4.90999985    2.32999992
   17.16666603  131.49400330    4.90999985    2.32999992
   17.17277718  131.49400330    4.90999985    2.32999992
   17.17694473  122.75900269    4.90999985    2.32999992
   17.18027687  124.02100372    4.90999985    2.32999992
   17.18333244  123.31300354    4.90999985    2.32999992
   17.18666649  129.69799805    4.90999985    2.32999992
   17.18972206  128.70300293    4.90999985    2.32999992
   17.19305420  122.80799866    4.90999985    2.32999992
   17.19638824  134.90100098    4.90999985    2.32999992
   17.19944382  128.26199341    4.90999985    2.32999992
   17.20277786  126.72299957    4.90999985    2.32999992
   17.20611191  119.88899994    4.90999985    2.32999992
   17.20916748  123.34899902    4.90999985    2.32999992
   17.20972252  122.94100189    4.90999985    2.32999992
   17.21555710  122.94100189    4.90999985    2.32999992
   17.21972275  124.61900330    4.90999985    2.32999992
   17.22305679  126.56900024    4.90999985    2.32999992
   17.22638893  118.82800293    4.90999985    2.32999992
   17.22944450  127.40699768    4.90999985    2.32999992
   17.23277855  121.76100159    4.90999985    2.32999992
   17.23583412  128.42500305    4.90999985    2.32999992
   17.23916626  133.95599365    4.90999985    2.32999992
   17.24250031  127.79299927    4.90999985    2.32999992
   17.24305534  131.09700012    4.90999985    2.32999992
   17.24611092  130.56100464    4.90999985    2.32999992
   17.24916649  124.51699829    4.90999985    2.32999992
   17.25250053  124.46700287    4.90999985    2.32999992
   17.25861168  124.46700287    4.90999985    2.32999992
   17.26250076  129.36599731    4.90999985    2.32999992
   17.26583290  129.46299744    4.90999985    2.32999992
   17.26916695  134.64599609    4.90999985    2.32999992
   17.27222252  129.35200500    4.90999985    2.32999992
   17.27555466  130.53199768    4.90999985    2.32999992
   17.27638817  127.90000153    4.90999985    2.32999992
   17.27916718  118.20800018    4.90999985    2.32999992
   17.28222275  123.05599976    4.90999985    2.32999992
   17.28555489  126.34200287    4.90999985    2.32999992
   17.28888893  122.76499939    4.90999985    2.32999992
   17.29194450  129.14799500    4.90999985    2.32999992
   17.29527664  119.01699829    4.90999985    2.32999992
   17.30138779  119.01699829    4.90999985    2.32999992
   17.30555534  128.94000244    4.90999985    2.32999992
   17.30861092  129.35699463    4.90999985    2.32999992
   17.30972099  126.04399872    4.90999985    2.32999992
   17.31250000  119.00499725    4.90999985    2.32999992
   17.31555557  125.43299866    4.90999985    2.32999992
   17.31888962  127.57800293    4.90999985    2.32999992
   17.32222366  134.42599487    4.90999985    2.32999992
   17.32527924  130.64100647    4.90999985    2.32999992
   17.32861137  126.70300293    4.90999985    2.32999992
   17.33194542  124.46299744    4.90999985    2.32999992
   17.33500099  136.22900391    4.90999985    2.32999992
   17.33833313  140.40499878    4.90999985    2.32999992
   17.34416771  140.40499878    4.90999985    2.32999992
   17.34833336  130.14599609    4.90999985    2.32999992
   17.35166740  128.65499878    4.90999985    2.32999992
   17.35472298  129.85000610    4.90999985    2.32999992
   17.35805511  134.27900696    4.90999985    2.32999992
   17.36111069  137.83500671    4.90999985    2.32999992
   17.36444473  124.12300110    4.90999985    2.32999992
   17.36777878  128.24099731    4.90999985    2.32999992
   17.37083435  131.22200012    4.90999985    2.32999992
   17.37416649  125.59400177    4.90999985    2.32999992
   17.37638855  127.82599640    4.90999985    2.32999992
   17.37777710  126.63500214    4.90999985    2.32999992
   17.38111115  125.77899933    4.90999985    2.32999992
   17.38694382  125.77899933    4.90999985    2.32999992
   17.39111137  131.16200256    4.90999985    2.32999992
   17.39444351  123.72799683    4.90999985    2.32999992
   17.39749908  128.68499756    4.90999985    2.32999992
   17.40083313  128.73599243    4.90999985    2.32999992
   17.40416718  133.22999573    4.90999985    2.32999992
   17.40722275  117.11499786    4.90999985    2.32999992
   17.40972137  127.95500183    4.90999985    2.32999992
   17.41110992  130.62100220    4.90999985    2.32999992
   17.41444397  132.10200500    4.90999985    2.32999992
   17.41749954  130.33000183    4.90999985    2.32999992
   17.42083359  134.83399963    4.90999985    2.32999992
   17.42388916  124.69499969    4.90999985    2.32999992
   17.43000031  124.69499969    4.90999985    2.32999992
   17.43388748  126.37200165    4.90999985    2.32999992
   17.43722153  133.25399780    4.90999985    2.32999992
   17.44055557  129.12800598    4.90999985    2.32999992
   17.45805550  128.92799377    4.90999985    2.32999992
   17.46055603  128.86399841    4.90999985    2.32999992
   17.46361160  132.60800171    4.90999985    2.32999992
   17.46694565  132.24299622    4.90999985    2.32999992
   17.47277832  132.24299622    4.90999985    2.32999992
   17.47694588  124.94699860    4.90999985    2.32999992
   17.48027802  128.06599426    4.90999985    2.32999992
   17.48361206  127.39199829    4.90999985    2.32999992
   17.48666763  122.78800201    4.90999985    2.32999992
   17.48999977  126.90000153    4.90999985    2.32999992
   17.49138832  130.21800232    4.90999985    2.32999992
   17.49361229  116.52799988    4.90999985    2.32999992
   17.49694443  129.15600586    4.90999985    2.32999992
   17.50027847  126.40499878    4.90999985    2.32999992
   17.50333405  123.29399872    4.90999985    2.32999992
   17.50666618  124.47599792    4.90999985    2.32999992
   17.51000023  120.02200317    4.90999985    2.32999992
   17.51583290  120.02200317    4.90999985    2.32999992
   17.52000046  124.45500183    4.90999985    2.32999992
   17.52305603  121.07599640    4.90999985    2.32999992
   17.52472115  123.84200287    4.90999985    2.32999992
   17.52666664  125.69100189    4.90999985    2.32999992
   17.53000069  120.96099854    4.90999985    2.32999992
   17.53333282  133.23899841    4.90999985    2.32999992
   17.53638840  125.75299835    4.90999985    2.32999992
   17.53972244  125.88700104    4.90999985    2.32999992
   17.54305458  125.18000031    4.90999985    2.32999992
   17.54611015  125.38300323    4.90999985    2.32999992
   17.54944420  192.12699890    4.90999985    2.32999992
   17.55249977  124.66999817    4.90999985    2.32999992
   17.55861092  124.66999817    4.90999985    2.32999992
   17.56277657  120.96199799    4.90999985    2.32999992
   17.56583214  128.36599731    4.90999985    2.32999992
   17.56916809  120.52999878    4.90999985    2.32999992
   17.57250023  123.33999634    4.90999985    2.32999992
   17.57555580  126.86000061    4.90999985    2.32999992
   17.57888985  122.11299896    4.90999985    2.32999992
   17.58222389  119.24900055    4.90999985    2.32999992
   17.58527756  127.08599854    4.90999985    2.32999992
   17.58861160  131.51699829    4.90999985    2.32999992
   17.59138870  118.05100250    4.90999985    2.32999992
   17.59194565  129.90899658    4.90999985    2.32999992
   17.59527779  118.00499725    4.90999985    2.32999992
   17.60555649  121.01399994    4.90999985    2.32999992
   17.60888863  120.42600250    4.90999985    2.32999992
   17.61222267  126.72599792    4.90999985    2.32999992
   17.61527824  125.15100098    4.90999985    2.32999992
   17.61861038  119.80999756    4.90999985    2.32999992
   17.62194443  119.93199921    4.90999985    2.32999992
   17.62472153  124.34799957    4.90999985    2.32999992
   17.62555504  124.21499634    4.90999985    2.32999992
   17.62861061  120.00900269    4.90999985    2.32999992
   17.63194466  123.51899719    4.90999985    2.32999992
   17.63527679  122.21099854    4.90999985    2.32999992
   17.63833237  124.35099792    4.90999985    2.32999992
   17.64416695  124.35099792    4.90999985    2.32999992
   17.64833260   -1.00000000    4.90999985    2.32999992
   17.65166664   -1.00000000    4.90999985    2.32999992
   17.65499878  127.95999908    4.90999985    2.32999992
   17.65805435  117.96199799    4.90999985    2.32999992
   17.65833282  122.25700378    4.90999985    2.32999992
   17.66166687  117.97699738    4.90999985    2.32999992
   17.66499901  133.93499756    4.90999985    2.32999992
   17.66805458  122.39800262    4.90999985    2.32999992
   17.67138863  128.72799683    4.90999985    2.32999992
   17.67472076  122.41799927    4.90999985    2.32999992
   17.67777634  119.48200226    4.90999985    2.32999992
   17.68111038  120.31199646    4.90999985    2.32999992
   17.68722153  120.31199646    4.90999985    2.32999992
   17.69138718  125.81700134    4.90999985    2.32999992
   17.69166565  123.49600220    4.90999985    2.32999992
   17.69499969  125.94799805    4.90999985    2.32999992
   17.69833183  121.92700195    4.90999985    2.32999992
   17.70138931  123.74299622    4.90999985    2.32999992
   17.70472336  115.00499725    4.90999985    2.32999992
   17.70805550  130.21200562    4.90999985    2.32999992
   17.71111107  127.94400024    4.90999985    2.32999992
   17.71472359  127.26799774    4.90999985    2.32999992
   17.71805573  128.28999329    4.90999985    2.32999992
   17.72111130  120.77999878    4.90999985    2.32999992
   17.72444534  130.57499695    4.90999985    2.32999992
   17.72500038  132.21800232    4.90999985    2.32999992
   17.73000145  132.21800232    4.90999985    2.32999992
   17.73416710  128.50900269    4.90999985    2.32999992
   17.73722267  125.18000031    4.90999985    2.32999992
   17.74055672  118.41600037    4.90999985    2.32999992
   17.74388885  126.85099792    4.90999985    2.32999992
   17.74694443  130.69799805    4.90999985    2.32999992
   17.75027847  129.60499573    4.90999985    2.32999992
   17.75361061  132.55400085    4.90999985    2.32999992
   17.75666618  125.78900146    4.90999985    2.32999992
   17.75833321  127.27400208    4.90999985    2.32999992
   17.76055527  127.37799835    4.90999985    2.32999992
   17.76361084  129.44500732    4.90999985    2.32999992
   17.76694489  125.51300049    4.90999985    2.32999992
   17.77277756  125.51300049    4.90999985    2.32999992
   17.77694511  131.42700195    4.90999985    2.32999992
   17.78027725  125.94499969    4.90999985    2.32999992
   17.78333282  134.28900146    4.90999985    2.32999992
   17.78666687  119.20400238    4.90999985    2.32999992
   17.78999901  110.19799805    4.90999985    2.32999992
   17.79166603  115.82299805    4.90999985    2.32999992
   17.79361153  126.83699799    4.90999985    2.32999992
   17.79666710  124.08200073    4.90999985    2.32999992
   17.79999924  126.63899994    4.90999985    2.32999992
   17.80305481  121.03500366    4.90999985    2.32999992
   17.80638885  126.78900146    4.90999985    2.32999992
   17.80972099  131.47300720    4.90999985    2.32999992
   17.81555557  131.47300720    4.90999985    2.32999992
   17.81972313  120.80799866    4.90999985    2.32999992
   17.82305717  121.18900299    4.90999985    2.32999992
   17.82500076  118.03299713    4.90999985    2.32999992
   17.82666779  129.69799805    4.90999985    2.32999992
   17.82972336  124.67700195    4.90999985    2.32999992
   17.83305550  121.29000092    4.90999985    2.32999992
   17.83611107  124.95200348    4.90999985    2.32999992
   17.83944511  126.64900208    4.90999985    2.32999992
   17.84277916  117.10700226    4.90999985    2.32999992
   17.84583473  121.70200348    4.90999985    2.32999992
   17.84916687  130.19500732    4.90999985    2.32999992
   17.85222244  117.21900177    4.90999985    2.32999992
   17.85861206  117.21900177    4.90999985    2.32999992
   17.86277771  113.98799896    4.90999985    2.32999992
   17.86583328  119.13999939    4.90999985    2.32999992
   17.86916733  115.98200226    4.90999985    2.32999992
   17.87222290  115.54900360    4.90999985    2.32999992
   17.87555504  112.80300140    4.90999985    2.32999992
   17.87888908  126.73200226    4.90999985    2.32999992
   17.88194466  117.28399658    4.90999985    2.32999992
   17.88527679  120.80400085    4.90999985    2.32999992
   17.88861084  119.78900146    4.90999985    2.32999992
   17.89166641  119.11100006    4.90999985    2.32999992
   17.89222145  128.04800415    4.90999985    2.32999992
   17.89527702  122.79000092    4.90999985    2.32999992
   17.90138817  122.79000092    4.90999985    2.32999992
   17.90555573  122.88700104    4.90999985    2.32999992
   17.90861130  120.45500183    4.90999985    2.32999992
   17.91194344  129.39999390    4.90999985    2.32999992
   17.91527748  125.02500153    4.90999985    2.32999992
   17.91833305  126.69799805    4.90999985    2.32999992
   17.92166519  123.70800018    4.90999985    2.32999992
   17.92499924  132.83999634    4.90999985    2.32999992
   17.92527771  128.49200439    4.90999985    2.32999992
   17.92860985  122.91899872    4.90999985    2.32999992
   17.93194389  128.31399536    4.90999985    2.32999992
   17.93499947  128.69500732    4.90999985    2.32999992
   17.93833160  127.97399902    4.90999985    2.32999992
   17.94416618  127.97399902    4.90999985    2.32999992
   17.94833183  124.30000305    4.90999985    2.32999992
   17.95166779  125.93499756    4.90999985    2.32999992
   17.95472336  124.62699890    4.90999985    2.32999992
   17.95805550  117.32700348    4.90999985    2.32999992
   17.95861244  130.11799622    4.90999985    2.32999992
   17.96166801  121.17199707    4.90999985    2.32999992
   17.96500015  127.53800201    4.90999985    2.32999992
   17.96805573  121.30100250    4.90999985    2.32999992
   17.97138977  129.28100586    4.90999985    2.32999992
   17.97472191  122.18299866    4.90999985    2.32999992
   17.97777748  122.68499756    4.90999985    2.32999992
   17.98111153  124.25800323    4.90999985    2.32999992
   17.98694420  124.25800323    4.90999985    2.32999992
   17.99111176  132.78199768    4.90999985    2.32999992
   17.99194527  122.24800110    4.90999985    2.32999992
   17.99472237  127.05699921    4.90999985    2.32999992
   17.99805641  125.60099792    4.90999985    2.32999992
   18.00138855  128.38400269    4.90999985    2.32999992
   18.00444412  120.46700287    4.90999985    2.32999992
   18.00777817  125.24299622    4.90999985    2.32999992
   18.01111031  127.45700073    4.90999985    2.32999992
   18.01416588  120.51399994    4.90999985    2.32999992
   18.01749992  123.43900299    4.90999985    2.32999992
   18.02083397  125.07199860    4.90999985    2.32999992
   18.02388954  115.30500031    4.90999985    2.32999992
   18.02527809  122.74400330    4.90999985    2.32999992
   18.03000069  122.74400330    4.90999985    2.32999992
   18.03388786  117.87300110    4.90999985    2.32999992
   18.03722191  120.19899750    4.90999985    2.32999992
   18.04055595  121.05000305    4.90999985    2.32999992
   18.04361153  118.56999969    4.90999985    2.32999992
   18.04694366  121.14800262    4.90999985    2.32999992
   18.05027771  122.57199860    4.90999985    2.32999992
   18.05360985  121.45200348    4.90999985    2.32999992
   18.05666542  121.83899689    4.90999985    2.32999992
   18.05861092  121.17199707    4.90999985    2.32999992
   18.06027794  117.76699829    4.90999985    2.32999992
   18.06361008  119.58399963    4.90999985    2.32999992
   18.06666756  122.54799652    4.90999985    2.32999992
   18.07277870  122.54799652    4.90999985    2.32999992
   18.07694626  118.76599884    4.90999985    2.32999992
   18.08000183  123.50299835    4.90999985    2.32999992
   18.08333397  127.47799683    4.90999985    2.32999992
   18.08666801  122.96600342    4.90999985    2.32999992
   18.08972359  124.48200226    4.90999985    2.32999992
   18.09222221  116.51799774    4.90999985    2.32999992
   18.09333420  119.58499908    4.90999985    2.32999992
   18.09666824  125.68000031    4.90999985    2.32999992
   18.10000038  118.86100006    4.90999985    2.32999992
   18.10305595  117.80200195    4.90999985    2.32999992
   18.10639000  125.31999969    4.90999985    2.32999992
   18.10944557  120.83699799    4.90999985    2.32999992
   18.11555672  120.83699799    4.90999985    2.32999992
   18.11972237  121.43000031    4.90999985    2.32999992
   18.12305641  121.93800354    4.90999985    2.32999992
   18.12555504  121.06800079    4.90999985    2.32999992
   18.12666702  122.76200104    4.90999985    2.32999992
   18.13000107  123.30100250    4.90999985    2.32999992
   18.13305473  123.84400177    4.90999985    2.32999992
   18.13638878  118.32199860    4.90999985    2.32999992
   18.13972282  122.41100311    4.90999985    2.32999992
   18.14277840  124.05999756    4.90999985    2.32999992
   18.14611053  115.68099976    4.90999985    2.32999992
   18.14916611  123.57099915    4.90999985    2.32999992
   18.15250015  121.13600159    4.90999985    2.32999992
   18.15833282  121.13600159    4.90999985    2.32999992
   18.16250038  115.47799683    4.90999985    2.32999992
   18.16583252  111.97299957    4.90999985    2.32999992
   18.16888809  117.60900116    4.90999985    2.32999992
   18.17222214  118.12400055    4.90999985    2.32999992
   18.17555428  122.94899750    4.90999985    2.32999992
   18.17860985  123.17400360    4.90999985    2.32999992
   18.18194389  113.06199646    4.90999985    2.32999992
   18.18527603  117.49800110    4.90999985    2.32999992
   18.18833160  121.05200195    4.90999985    2.32999992
   18.19166565  116.26599884    4.90999985    2.32999992
   18.19361115  117.01300049    4.90999985    2.32999992
   18.19527626  125.29499817    4.90999985    2.32999992
   18.20138931  125.29499817    4.90999985    2.32999992
   18.20527840  119.96800232    4.90999985    2.32999992
   18.20861244  124.96299744    4.90999985    2.32999992
   18.21194458  120.40499878    4.90999985    2.32999992
   18.21500015  120.64199829    4.90999985    2.32999992
   18.21833420  123.72499847    4.90999985    2.32999992
   18.22166634  121.13800049    4.90999985    2.32999992
   18.22472191  121.13099670    4.90999985    2.32999992
   18.22694588  114.81800079    4.90999985    2.32999992
   18.22833443  117.94200134    4.90999985    2.32999992
   18.23166656  118.98200226    4.90999985    2.32999992
   18.23472214  123.20300293    4.90999985    2.32999992
   18.23805618  119.08300018    4.90999985    2.32999992
   18.24416733  119.08300018    4.90999985    2.32999992
   18.24833298  117.01499939    4.90999985    2.32999992
   18.25138855  116.87000275    4.90999985    2.32999992
   18.25472260  121.62200165    4.90999985    2.32999992
   18.25805473  120.21199799    4.90999985    2.32999992
   18.26027870  124.38300323    4.90999985    2.32999992
   18.26166725  121.45400238    4.90999985    2.32999992
   18.26499939  120.40299988    4.90999985    2.32999992
   18.26805496  123.34600067    4.90999985    2.32999992
   18.27138901  126.57399750    4.90999985    2.32999992
   18.27444458  126.91799927    4.90999985    2.32999992
   18.27777672  129.96400452    4.90999985    2.32999992
   18.28111076  123.13300323    4.90999985    2.32999992
   18.28694344  123.13300323    4.90999985    2.32999992
   18.29111099  121.17199707    4.90999985    2.32999992
   18.29361153  125.01799774    4.90999985    2.32999992
   18.29472160  123.38500214    4.90999985    2.32999992
   18.29805565  122.41200256    4.90999985    2.32999992
   18.30111122  129.45100403    4.90999985    2.32999992
   18.30444336  121.73500061    4.90999985    2.32999992
   18.30749893  122.66500092    4.90999985    2.32999992
   18.31083298  124.89099884    4.90999985    2.32999992
   18.31416512  119.26399994    4.90999985    2.32999992
   18.31722260  119.95899963    4.90999985    2.32999992
   18.32055664  119.88099670    4.90999985    2.32999992
   18.32389069  124.10600281    4.90999985    2.32999992
   18.32972336  124.10600281    4.90999985    2.32999992
   18.33388901  120.22399902    4.90999985    2.32999992
   18.33722305  117.20300293    4.90999985    2.32999992
   18.34055710  119.79699707    4.90999985    2.32999992
   18.34361267  122.23300171    4.90999985    2.32999992
   18.34694481  121.66100311    4.90999985    2.32999992
   18.35027885  119.23000336    4.90999985    2.32999992
   18.35333443  116.77799988    4.90999985    2.32999992
   18.35666656  118.80300140    4.90999985    2.32999992
   18.35972214  121.05100250    4.90999985    2.32999992
   18.36083412  111.72000122    4.90999985    2.32999992
   18.36333466  121.58599854    4.90999985    2.32999992
   18.36666679  118.40699768    4.90999985    2.32999992
   18.37277794  118.40699768    4.90999985    2.32999992
   18.37694550  120.26699829    4.90999985    2.32999992
   18.38000107  126.12100220    4.90999985    2.32999992
   18.38333321  121.62500000    4.90999985    2.32999992
   18.38666725  120.58599854    4.90999985    2.32999992
   18.38972282  128.38200378    4.90999985    2.32999992
   18.39305496  124.01699829    4.90999985    2.32999992
   18.39416695  118.87300110    4.90999985    2.32999992
   18.39666748  121.87999725    4.90999985    2.32999992
   18.39999962  111.38700104    4.90999985    2.32999992
   18.40305519  116.52300262    4.90999985    2.32999992
   18.40638924  115.85800171    4.90999985    2.32999992
   18.40972137  124.59100342    4.90999985    2.32999992
   18.41555595  124.59100342    4.90999985    2.32999992
   18.41972160  120.96199799    4.90999985    2.32999992
   18.42305565  120.30400085    4.90999985    2.32999992
   18.42611122  118.52700043    4.90999985    2.32999992
   18.42749977  119.37699890    4.90999985    2.32999992
   18.42972183  118.89700317    4.90999985    2.32999992
   18.43305397  115.94499969    4.90999985    2.32999992
   18.43610954  109.02300262    4.90999985    2.32999992
   18.43944359  116.22299957    4.90999985    2.32999992
   18.44277763  112.04299927    4.90999985    2.32999992
   18.44583321  111.98999786    4.90999985    2.32999992
   18.44916534  112.41100311    4.90999985    2.32999992
   18.45222282  119.61900330    4.90999985    2.32999992
   18.45833397  119.61900330    4.90999985    2.32999992
   18.47666740  111.24400330    4.90999985    2.32999992
   18.48000145  116.10399628    4.90999985    2.32999992
   18.48305511  114.17099762    4.90999985    2.32999992
   18.48666763  119.60800171    4.90999985    2.32999992
   18.48972321  111.32900238    4.90999985    2.32999992
   18.49305534  121.85700226    4.90999985    2.32999992
   18.49638939  112.75299835    4.90999985    2.32999992
   18.50138855  112.75299835    4.90999985    2.32999992
   18.50555611  112.70700073    4.90999985    2.32999992
   18.50888824  119.48000336    4.90999985    2.32999992
   18.50972176  113.35099792    4.90999985    2.32999992
   18.51250076  113.65699768    4.90999985    2.32999992
   18.51583290  119.96199799    4.90999985    2.32999992
   18.51888847  115.43399811    4.90999985    2.32999992
   18.52222252  120.91500092    4.90999985    2.32999992
   18.52527809  112.43299866    4.90999985    2.32999992
   18.52861023  110.46499634    4.90999985    2.32999992
   18.53194427  106.99199677    4.90999985    2.32999992
   18.53499985  118.53900146    4.90999985    2.32999992
   18.53833199  112.50000000    4.90999985    2.32999992
   18.54416656  112.50000000    4.90999985    2.32999992
   18.54833221  103.00099945    4.90999985    2.32999992
   18.55166626  111.51100159    4.90999985    2.32999992
   18.55499840  112.30899811    4.90999985    2.32999992
   18.55805397  120.47399902    4.90999985    2.32999992
   18.56138802  109.42199707    4.90999985    2.32999992
   18.56444359  113.91000366    4.90999985    2.32999992
   18.56777954  111.31900024    4.90999985    2.32999992
   18.57111168  112.81199646    4.90999985    2.32999992
   18.57416725  109.42299652    4.90999985    2.32999992
   18.57638931  111.75299835    4.90999985    2.32999992
   18.57805634  114.27600098    4.90999985    2.32999992
   18.58139038  110.85900116    4.90999985    2.32999992
   18.58722305  110.85900116    4.90999985    2.32999992
   18.59138870  110.90499878    4.90999985    2.32999992
   18.59444427  116.06300354    4.90999985    2.32999992
   18.59777832  112.76999664    4.90999985    2.32999992
   18.60111237  117.52799988    4.90999985    2.32999992
   18.60416794  111.60900116    4.90999985    2.32999992
   18.60750008  108.96299744    4.90999985    2.32999992
   18.60972214  112.89499664    4.90999985    2.32999992
   18.61111069  111.74299622    4.90999985    2.32999992
   18.61444473  111.44699860    4.90999985    2.32999992
   18.61750031  115.71499634    4.90999985    2.32999992
   18.62083435  113.55100250    4.90999985    2.32999992
   18.62388992  116.01399994    4.90999985    2.32999992
   18.63000107  116.01399994    4.90999985    2.32999992
   18.63416672  113.56999969    4.90999985    2.32999992
   18.63722229  113.80100250    4.90999985    2.32999992
   18.64055634  105.36100006    4.90999985    2.32999992
   18.64305496  112.45400238    4.90999985    2.32999992
   18.64416695  119.71199799    4.90999985    2.32999992
   18.64749908  116.06300354    4.90999985    2.32999992
   18.65055466  119.73100281    4.90999985    2.32999992
   18.65388870  112.13700104    4.90999985    2.32999992
   18.65722275  107.79599762    4.90999985    2.32999992
   18.66027832  111.60299683    4.90999985    2.32999992
   18.66361046  104.54799652    4.90999985    2.32999992
   18.66666603  104.57700348    4.90999985    2.32999992
   18.67277718  104.57700348    4.90999985    2.32999992
   18.67694473  113.44499969    4.90999985    2.32999992
   18.68027687  112.93000031    4.90999985    2.32999992
   18.68333244  110.98699951    4.90999985    2.32999992
   18.68666649  115.52700043    4.90999985    2.32999992
   18.68999863  113.82599640    4.90999985    2.32999992
   18.69305420  119.30200195    4.90999985    2.32999992
   18.69638824  108.40200043    4.90999985    2.32999992
   18.69972038  113.36299896    4.90999985    2.32999992
   18.70277786  113.19999695    4.90999985    2.32999992
   18.70611191  113.24199677    4.90999985    2.32999992
   18.70944595  116.18699646    4.90999985    2.32999992
   18.71000099  109.41100311    4.90999985    2.32999992
   18.71555710  109.41100311    4.90999985    2.32999992
   18.71972275  112.91999817    4.90999985    2.32999992
   18.72305679  109.73300171    4.90999985    2.32999992
   18.72638893  111.18199921    4.90999985    2.32999992
   18.72944450  106.01300049    4.90999985    2.32999992
   18.73277855  116.03700256    4.90999985    2.32999992
   18.73611069  115.79399872    4.90999985    2.32999992
   18.73916626  113.56999969    4.90999985    2.32999992
   18.74250031  110.05500031    4.90999985    2.32999992
   18.74333382  112.58000183    4.90999985    2.32999992
   18.74611092  112.39399719    4.90999985    2.32999992
   18.74944496  118.69599915    4.90999985    2.32999992
   18.75277710  120.03800201    4.90999985    2.32999992
   18.75861168  120.03800201    4.90999985    2.32999992
   18.76277733  111.63800049    4.90999985    2.32999992
   18.76583290  117.44100189    4.90999985    2.32999992
   18.76916695  110.38400269    4.90999985    2.32999992
   18.77222252  111.10299683    4.90999985    2.32999992
   18.77555466  115.42199707    4.90999985    2.32999992
   18.77666664  117.68399811    4.90999985    2.32999992
   18.77916718  110.41000366    4.90999985    2.32999992
   18.78249931  114.34400177    4.90999985    2.32999992
   18.78583336  118.16100311    4.90999985    2.32999992
   18.78888893  109.42099762    4.90999985    2.32999992
   18.79222107  112.78199768    4.90999985    2.32999992
   18.79555511  114.13800049    4.90999985    2.32999992
   18.80138779  114.13800049    4.90999985    2.32999992
   18.80555534  118.49900055    4.90999985    2.32999992
   18.80861092  113.16000366    4.90999985    2.32999992
   18.80999947  112.43499756    4.90999985    2.32999992
   18.81222153  117.50700378    4.90999985    2.32999992
   18.81555557  112.59799957    4.90999985    2.32999992
   18.81861115  115.15000153    4.90999985    2.32999992
   18.82194519  109.48000336    4.90999985    2.32999992
   18.82527924  113.75199890    4.90999985    2.32999992
   18.82833481  116.49800110    4.90999985    2.32999992
   18.83166695  109.62200165    4.90999985    2.32999992
   18.83500099  103.76899719    4.90999985    2.32999992
   18.83805656  121.79000092    4.90999985    2.32999992
   18.84416771  121.79000092    4.90999985    2.32999992
   18.84833336  118.54599762    4.90999985    2.32999992
   18.85166740  117.33499908    4.90999985    2.32999992
   18.85472298  118.59799957    4.90999985    2.32999992
   18.85805511  118.58300018    4.90999985    2.32999992
   18.86111069  121.91100311    4.90999985    2.32999992
   18.86444473  121.72899628    4.90999985    2.32999992
   18.86777878  121.33000183    4.90999985    2.32999992
   18.87083435  116.15399933    4.90999985    2.32999992
   18.87416649  118.04199982    4.90999985    2.32999992
   18.87666702  115.77799988    4.90999985    2.32999992
   18.87777710  115.63999939    4.90999985    2.32999992
   18.88111115  115.00599670    4.90999985    2.32999992
   18.88694382  115.00599670    4.90999985    2.32999992
   18.89111137  114.22200012    4.90999985    2.32999992
   18.89444351  117.69999695    4.90999985    2.32999992
   18.89749908  118.62599945    4.90999985    2.32999992
   18.90083313  120.52999878    4.90999985    2.32999992
   18.90416718  115.87200165    4.90999985    2.32999992
   18.90722275  121.36499786    4.90999985    2.32999992
   18.90999985  113.19699860    4.90999985    2.32999992
   18.91083336  113.21099854    4.90999985    2.32999992
   18.91416550  110.55699921    4.90999985    2.32999992
   18.91722107  113.39700317    4.90999985    2.32999992
   18.92055511  120.08100128    4.90999985    2.32999992
   18.92388916  114.79199982    4.90999985    2.32999992
   18.93000031  114.79199982    4.90999985    2.32999992
   18.93388748  116.70400238    4.90999985    2.32999992
   18.93722153  116.61499786    4.90999985    2.32999992
   18.94055557  114.55000305    4.90999985    2.32999992
   18.94333267  117.10399628    4.90999985    2.32999992
   18.94416618  120.25800323    4.90999985    2.32999992
   18.94749832  119.20400238    4.90999985    2.32999992
   18.95055580  115.17600250    4.90999985    2.32999992
   18.95388985  121.59100342    4.90999985    2.32999992
   18.95722389  115.45400238    4.90999985    2.32999992
   18.96027946  116.52700043    4.90999985    2.32999992
   18.96361160  119.83200073    4.90999985    2.32999992
   18.96694565  111.74199677    4.90999985    2.32999992
   18.97277832  111.74199677    4.90999985    2.32999992
   18.97694588  119.33899689    4.90999985    2.32999992
   18.98000145  123.41500092    4.90999985    2.32999992
   18.98333359  117.80899811    4.90999985    2.32999992
   18.98666763  122.29499817    4.90999985    2.32999992
   18.98972321  123.24500275    4.90999985    2.32999992
   18.99305534  111.85099792    4.90999985    2.32999992
   18.99638939  116.42900085    4.90999985    2.32999992
   18.99944496  116.05699921    4.90999985    2.32999992
   19.00277710  116.34100342    4.90999985    2.32999992
   19.00611115  118.77799988    4.90999985    2.32999992
   19.00916672  123.20099640    4.90999985    2.32999992
   19.01000023  120.11900330    4.90999985    2.32999992
   19.01555634  120.11900330    4.90999985    2.32999992
   19.01972198  116.98200226    4.90999985    2.32999992
   19.02305603  106.27400208    4.90999985    2.32999992
   19.02611160  123.48600006    4.90999985    2.32999992
   19.02944374  110.41699982    4.90999985    2.32999992
   19.03249931  116.14600372    4.90999985    2.32999992
   19.03583336  109.78099823    4.90999985    2.32999992
   19.03916550  113.91999817    4.90999985    2.32999992
   19.04222107  112.46299744    4.90999985    2.32999992
   19.04333305  112.50800323    4.90999985    2.32999992
   19.04583359  112.36599731    4.90999985    2.32999992
   19.04916573  112.01499939    4.90999985    2.32999992
   19.05249977  115.98200226    4.90999985    2.32999992
   19.05833244  115.98200226    4.90999985    2.32999992
   19.06250000  116.82800293    4.90999985    2.32999992
   19.06583214  110.61900330    4.90999985    2.32999992
   19.06888962  108.41899872    4.90999985    2.32999992
   19.07222366  114.23100281    4.90999985    2.32999992
   19.07555580  114.20999908    4.90999985    2.32999992
   19.07666779  112.00700378    4.90999985    2.32999992
   19.07888985  112.27100372    4.90999985    2.32999992
   19.08222389  110.58899689    4.90999985    2.32999992
   19.08555603  113.87400055    4.90999985    2.32999992
   19.08861160  116.58999634    4.90999985    2.32999992
   19.09194565  110.18199921    4.90999985    2.32999992
   19.09500122  100.43699646    4.90999985    2.32999992
   19.10138893  100.43699646    4.90999985    2.32999992
   19.10555649  103.78099823    4.90999985    2.32999992
   19.10861206  105.39900208    4.90999985    2.32999992
   19.11000061  105.62699890    4.90999985    2.32999992
   19.11222267  102.81700134    4.90999985    2.32999992
   19.11555672  105.19400024    4.90999985    2.32999992
   19.11888885  100.51399994    4.90999985    2.32999992
   19.12194443  100.44999695    4.90999985    2.32999992
   19.12527847  104.40799713    4.90999985    2.32999992
   19.12861061  100.55999756    4.90999985    2.32999992
   19.13166618  103.65899658    4.90999985    2.32999992
   19.13500023  105.74400330    4.90999985    2.32999992
   19.13805580  111.94599915    4.90999985    2.32999992
   19.14416695  111.94599915    4.90999985    2.32999992
   19.14833260  107.05599976    4.90999985    2.32999992
   19.15138817  101.98500061    4.90999985    2.32999992
   19.15472221  102.78700256    4.90999985    2.32999992
   19.15805435  105.38400269    4.90999985    2.32999992
   19.16110992  103.46099854    4.90999985    2.32999992
   19.16444397  103.87899780    4.90999985    2.32999992
   19.16749954  110.27799988    4.90999985    2.32999992
   19.17083359  110.59799957    4.90999985    2.32999992
   19.17416573  106.51999664    4.90999985    2.32999992
   19.17666626  109.06300354    4.90999985    2.32999992
   19.17749977  106.85900116    4.90999985    2.32999992
   19.18083191  109.30599976    4.90999985    2.32999992
   19.18694305  109.30599976    4.90999985    2.32999992
   19.19111061  103.45200348    4.90999985    2.32999992
   19.19444275  103.37500000    4.90999985    2.32999992
   19.19749832  102.32499695    4.90999985    2.32999992
   19.20083427  115.73899841    4.90999985    2.32999992
   19.20416832  101.96600342    4.90999985    2.32999992
   19.20722389   97.63710022    4.90999985    2.32999992
   19.21000099  109.17800140    4.90999985    2.32999992
   19.21083450  111.24900055    4.90999985    2.32999992
   19.21416664  110.92600250    4.90999985    2.32999992
   19.21750069  106.96900177    4.90999985    2.32999992
   19.22055626  113.19200134    4.90999985    2.32999992
   19.22389030  105.13500214    4.90999985    2.32999992
   19.22972298  105.13500214    4.90999985    2.32999992
   19.23388863  113.69599915    4.90999985    2.32999992
   19.23722267  108.83399963    4.90999985    2.32999992
   19.24027824  108.99700165    4.90999985    2.32999992
   19.24333382  103.57700348    4.90999985    2.32999992
   19.24388885  111.27400208    4.90999985    2.32999992
   19.24722290  100.80999756    4.90999985    2.32999992
   19.25055504  107.63300323    4.90999985    2.32999992
   19.25361061  104.47499847    4.90999985    2.32999992
   19.25694466  112.05400085    4.90999985    2.32999992
   19.26000023  113.87000275    4.90999985    2.32999992
   19.26333427  113.06400299    4.90999985    2.32999992
   19.26666641  108.42400360    4.90999985    2.32999992
   19.27277756  108.42400360    4.90999985    2.32999992
   19.27666664  107.31999969    4.90999985    2.32999992
   19.28000069  100.86799622    4.90999985    2.32999992
   19.28333282  105.82399750    4.90999985    2.32999992
   19.28638840  107.16600037    4.90999985    2.32999992
   19.28972244  108.56999969    4.90999985    2.32999992
   19.29305458  122.17700195    4.90999985    2.32999992
   19.29611015  107.73699951    4.90999985    2.32999992
   19.29944420  105.91999817    4.90999985    2.32999992
   19.30277634  114.78299713    4.90999985    2.32999992
   19.30611038  105.73000336    4.90999985    2.32999992
   19.30916595  104.91100311    4.90999985    2.32999992
   19.30999947  106.41100311    4.90999985    2.32999992
   19.31555557  106.41100311    4.90999985    2.32999992
   19.31972313  106.89299774    4.90999985    2.32999992
   19.32277870  113.42299652    4.90999985    2.32999992
   19.32611275  110.64800262    4.90999985    2.32999992
   19.32944489   99.62729645    4.90999985    2.32999992
   19.33250046  104.66200256    4.90999985    2.32999992
   19.33583450  113.97299957    4.90999985    2.32999992
   19.33916664  119.63800049    4.90999985    2.32999992
   19.34222221  102.31600189    4.90999985    2.32999992
   19.34333420  113.69999695    4.90999985    2.32999992
   19.34583473  110.51999664    4.90999985    2.32999992
   19.34916687  115.66899872    4.90999985    2.32999992
   19.35250092  107.42299652    4.90999985    2.32999992
   19.35833359  107.42299652    4.90999985    2.32999992
   19.36250114  103.50000000    4.90999985    2.32999992
   19.36583328  106.11499786    4.90999985    2.32999992
   19.36888885  101.19300079    4.90999985    2.32999992
   19.37222290  112.77700043    4.90999985    2.32999992
   19.37527847   99.76629639    4.90999985    2.32999992
   19.37666702  104.15599823    4.90999985    2.32999992
   19.37888908  104.54299927    4.90999985    2.32999992
   19.38222313  105.93399811    4.90999985    2.32999992
   19.38555527  105.43199921    4.90999985    2.32999992
   19.38861084  104.28199768    4.90999985    2.32999992
   19.39194489   99.23570251    4.90999985    2.32999992
   19.39527702  114.06700134    4.90999985    2.32999992
   19.40111160  114.06700134    4.90999985    2.32999992
   19.40527725  112.71700287    4.90999985    2.32999992
   19.40861130  112.97799683    4.90999985    2.32999992
   19.40999985  107.13200378    4.90999985    2.32999992
   19.41194344  107.71099854    4.90999985    2.32999992
   19.41527748  107.89299774    4.90999985    2.32999992
   19.41860962  106.66100311    4.90999985    2.32999992
   19.42194366  104.87599945    4.90999985    2.32999992
   19.42499924  109.32800293    4.90999985    2.32999992
   19.42833328  106.19400024    4.90999985    2.32999992
   19.43138885  109.19699860    4.90999985    2.32999992
   19.43472099  110.78600311    4.90999985    2.32999992
   19.43805504  115.33100128    4.90999985    2.32999992
   19.44416618  115.33100128    4.90999985    2.32999992
   19.44805527  104.19499969    4.90999985    2.32999992
   19.45138931  109.24299622    4.90999985    2.32999992
   19.45472336  120.29399872    4.90999985    2.32999992
   19.45777893  105.68199921    4.90999985    2.32999992
   19.46111107  109.00900269    4.90999985    2.32999992
   19.46444511  110.80500031    4.90999985    2.32999992
   19.46750069  113.51200104    4.90999985    2.32999992
   19.47083473  117.12100220    4.90999985    2.32999992
   19.47389030  110.12799835    4.90999985    2.32999992
   19.47666740  107.31099701    4.90999985    2.32999992
   19.49722290  107.31099701    4.90999985    2.32999992
   19.50138855   98.72579956    4.90999985    2.32999992
   19.50472260  102.08799744    4.90999985    2.32999992
   19.50777817  106.14800262    4.90999985    2.32999992
   19.51000023  116.94599915    4.90999985    2.32999992
   19.51166725  117.98300171    4.90999985    2.32999992
   19.51472282  114.81700134    4.90999985    2.32999992
   19.51805496  109.61199951    4.90999985    2.32999992
   19.52138901  108.18099976    4.90999985    2.32999992
   19.52444458  105.18399811    4.90999985    2.32999992
   19.52777672  113.53800201    4.90999985    2.32999992
   19.53111076  108.65000153    4.90999985    2.32999992
   19.53416634  106.50800323    4.90999985    2.32999992
   19.53999901  106.50800323    4.90999985    2.32999992
   19.54416656  111.26799774    4.90999985    2.32999992
   19.54749870  107.12100220    4.90999985    2.32999992
   19.55055428  108.48600006    4.90999985    2.32999992
   19.55388832  110.23000336    4.90999985    2.32999992
   19.55722237  117.30699921    4.90999985    2.32999992
   19.56027794  115.21299744    4.90999985    2.32999992
   19.56361008  122.34600067    4.90999985    2.32999992
   19.56666756  110.17199707    4.90999985    2.32999992
   19.57000160  108.36199951    4.90999985    2.32999992
   19.57333374  100.91200256    4.90999985    2.32999992
   19.57638931  111.51200104    4.90999985    2.32999992
   19.57694626  116.83899689    4.90999985    2.32999992
   19.58277893  116.83899689    4.90999985    2.32999992
   19.58694458  110.30699921    4.90999985    2.32999992
   19.59027863  113.97499847    4.90999985    2.32999992
   19.59333420  111.28500366    4.90999985    2.32999992
   19.59666824  109.18900299    4.90999985    2.32999992
   19.60000038  108.38800049    4.90999985    2.32999992
   19.60305595  111.48899841    4.90999985    2.32999992
   19.60639000  115.94799805    4.90999985    2.32999992
   19.60972214  121.63600159    4.90999985    2.32999992
   19.61027908  116.27799988    4.90999985    2.32999992
   19.61333466  117.81800079    4.90999985    2.32999992
   19.61666679  113.07399750    4.90999985    2.32999992
   19.61972237  103.65699768    4.90999985    2.32999992
   19.62583351  103.65699768    4.90999985    2.32999992
   19.62972260  106.70700073    4.90999985    2.32999992
   19.63305473  120.20099640    4.90999985    2.32999992
   19.63638878  110.16699982    4.90999985    2.32999992
   19.63944435  115.92800140    4.90999985    2.32999992
   19.64277840  116.35800171    4.90999985    2.32999992
   19.64361191  107.68599701    4.90999985    2.32999992
   19.64638901  120.17900085    4.90999985    2.32999992
   19.64972115  115.36000061    4.90999985    2.32999992
   19.65277672  111.24900055    4.90999985    2.32999992
   19.65611076  114.73000336    4.90999985    2.32999992
   19.65916634  118.12899780    4.90999985    2.32999992
   19.66250038  117.44300079    4.90999985    2.32999992
   19.66860962  117.44300079    4.90999985    2.32999992
   19.67277718  127.66899872    4.90999985    2.32999992
   19.67583275  114.59100342    4.90999985    2.32999992
   19.67694473  118.27500153    4.90999985    2.32999992
   19.67944336  114.45999908    4.90999985    2.32999992
   19.68277740  114.86799622    4.90999985    2.32999992
   19.68583298  113.76399994    4.90999985    2.32999992
   19.68916512  120.43000031    4.90999985    2.32999992
   19.69249916  112.22799683    4.90999985    2.32999992
   19.69555473  108.19999695    4.90999985    2.32999992
   19.69888878  106.53199768    4.90999985    2.32999992
   19.70194435  110.90299988    4.90999985    2.32999992
   19.70527840   87.11879730    4.90999985    2.32999992
   19.71138954   87.11879730    4.90999985    2.32999992
   19.71555710   83.04049683    4.90999985    2.32999992
   19.71888924   90.84880066    4.90999985    2.32999992
   19.72194481  102.27899933    4.90999985    2.32999992
   19.72527885  118.25399780    4.90999985    2.32999992
   19.72833443  140.81700134    4.90999985    2.32999992
   19.73166656  193.93899536    4.90999985    2.32999992
   19.73500061   -1.00000000    4.90999985    2.32999992
   19.73805618   -1.00000000    4.90999985    2.32999992
   19.74138832   -1.00000000    4.90999985    2.32999992
   19.74500084   -1.00000000    4.90999985    2.32999992
   19.74805641   -1.00000000    4.90999985    2.32999992
   19.75833321   -1.00000000    4.90999985    2.32999992
   19.76138878   -1.00000000    4.90999985    2.32999992
   19.76472282   -1.00000000    4.90999985    2.32999992
   19.76805496   -1.00000000    4.90999985    2.32999992
   19.77111053   -1.00000000    4.90999985    2.32999992
   19.77444458   -1.00000000    4.90999985    2.32999992
   19.77805519   -1.00000000    4.90999985    2.32999992
   19.78111076   -1.00000000    4.90999985    2.32999992
   19.78444481   -1.00000000    4.90999985    2.32999992
   19.78777695   -1.00000000    4.90999985    2.32999992
   19.79083252   -1.00000000    4.90999985    2.32999992
   19.80111122   -1.00000000    4.90999985    2.32999992
   19.80444336   -1.00000000    4.90999985    2.32999992
   19.80749893   -1.00000000    4.90999985    2.32999992
   19.81110954   -1.00000000    4.90999985    2.32999992
   19.81416512   -1.00000000    4.90999985    2.32999992
   19.81750107   -1.00000000    4.90999985    2.32999992
   19.82055664   -1.00000000    4.90999985    2.32999992
   19.82389069   -1.00000000    4.90999985    2.32999992
   19.82722282   -1.00000000    4.90999985    2.32999992
   19.83027840   -1.00000000    4.90999985    2.32999992
   19.83361244   -1.00000000    4.90999985    2.32999992
   19.84388924   -1.00000000    4.90999985    2.32999992
   19.84722328   -1.00000000    4.90999985    2.32999992
   19.85055542   -1.00000000    4.90999985    2.32999992
   19.85361099   -1.00000000    4.90999985    2.32999992
   19.85694504   -1.00000000    4.90999985    2.32999992
   19.86000061   -1.00000000    4.90999985    2.32999992
   19.86333466   -1.00000000    4.90999985    2.32999992
   19.86666679   -1.00000000    4.90999985    2.32999992
   19.86972237   -1.00000000    4.90999985    2.32999992
   19.87305641   -1.00000000    4.90999985    2.32999992
   19.87638855   -1.00000000    4.90999985    2.32999992
   19.88694382   -1.00000000    4.90999985    2.32999992
   19.88999939   -1.00000000    4.90999985    2.32999992
   19.89333344   -1.00000000    4.90999985    2.32999992
   19.89638901   -1.00000000    4.90999985    2.32999992
   19.89972115   -1.00000000    4.90999985    2.32999992
   19.90305519   -1.00000000    4.90999985    2.32999992
   19.90611076   -1.00000000    4.90999985    2.32999992
   19.90944481   -1.00000000    4.90999985    2.32999992
   19.91305542   -1.00000000    4.90999985    2.32999992
   19.91611099   -1.00000000    4.90999985    2.32999992
   19.91944313   -1.00000000    4.90999985    2.32999992
   19.92972183   -1.00000000    4.90999985    2.32999992
   19.93277740   -1.00000000    4.90999985    2.32999992
   19.93610954   -1.00000000    4.90999985    2.32999992
   19.93944359   -1.00000000    4.90999985    2.32999992
   19.94249916   -1.00000000    4.90999985    2.32999992
   19.94610977   -1.00000000    4.90999985    2.32999992
   19.94916534   -1.00000000    4.90999985    2.32999992
   19.95250130   -1.00000000    4.90999985    2.32999992
   19.95583344   -1.00000000    4.90999985    2.32999992
   19.95888901   -1.00000000    4.90999985    2.32999992
   19.96222305   -1.00000000    4.90999985    2.32999992
   19.97249985   -1.00000000    4.90999985    2.32999992
   19.97583389   -1.00000000    4.90999985    2.32999992
   19.97944450   -1.00000000    4.90999985    2.32999992
   19.98250008   -1.00000000    4.90999985    2.32999992
   19.98583412   -1.00000000    4.90999985    2.32999992
   19.98916626   -1.00000000    4.90999985    2.32999992
   19.99222183   -1.00000000    4.90999985    2.32999992
   19.99555588   -1.00000000    4.90999985    2.32999992
   19.99888992   -1.00000000    4.90999985    2.32999992
   20.00194359   -1.00000000    4.90999985    2.32999992
   20.00527763   -1.00000000    4.90999985    2.32999992
   20.01527786   -1.00000000    4.90999985    2.32999992
   20.01861000   -1.00000000    4.90999985    2.32999992
   20.02194405   -1.00000000    4.90999985    2.32999992
   20.02499962   -1.00000000    4.90999985    2.32999992
   20.02833366   -1.00000000    4.90999985    2.32999992
   20.03138924   -1.00000000    4.90999985    2.32999992
   20.03472137   -1.00000000    4.90999985    2.32999992
   20.03805542   -1.00000000    4.90999985    2.32999992
   20.04111099   -1.00000000    4.90999985    2.32999992
   20.04472160   -1.00000000    4.90999985    2.32999992
   20.04777718   -1.00000000    4.90999985    2.32999992
   20.05833244   -1.00000000    4.90999985    2.32999992
   20.06138802   -1.00000000    4.90999985    2.32999992
   20.06472206   -1.00000000    4.90999985    2.32999992
   20.06777954   -1.00000000    4.90999985    2.32999992
   20.07111168   -1.00000000    4.90999985    2.32999992
   20.07444572   -1.00000000    4.90999985    2.32999992
   20.07805634   -1.00000000    4.90999985    2.32999992
   20.08111191   -1.00000000    4.90999985    2.32999992
   20.08444595   -1.00000000    4.90999985    2.32999992
   20.08777809   -1.00000000    4.90999985    2.32999992
   20.09083366   -1.00000000    4.90999985    2.32999992
   20.10111237   -1.00000000    4.90999985    2.32999992
   20.10416794   -1.00000000    4.90999985    2.32999992
   20.10750008   -1.00000000    4.90999985    2.32999992
   20.11111069   -1.00000000    4.90999985    2.32999992
   20.11416626   -1.00000000    4.90999985    2.32999992
   20.11750031   -1.00000000    4.90999985    2.32999992
   20.12083435   -1.00000000    4.90999985    2.32999992
   20.12388992   -1.00000000    4.90999985    2.32999992
   20.12722206   -1.00000000    4.90999985    2.32999992
   20.13055611   -1.00000000    4.90999985    2.32999992
   20.13361168   -1.00000000    4.90999985    2.32999992
   20.14388847   -1.00000000    4.90999985    2.32999992
   20.14722252   -1.00000000    4.90999985    2.32999992
   20.15027809   -1.00000000    4.90999985    2.32999992
   20.15361023   -1.00000000    4.90999985    2.32999992
   20.15694427   -1.00000000    4.90999985    2.32999992
   20.15999985   -1.00000000    4.90999985    2.32999992
   20.16333389   -1.00000000    4.90999985    2.32999992
   20.16638756   -1.00000000    4.90999985    2.32999992
   20.16972160   -1.00000000    4.90999985    2.32999992
   20.17305565   -1.00000000    4.90999985    2.32999992
   20.17611122   -1.00000000    4.90999985    2.32999992
   20.18666649   -1.00000000    4.90999985    2.32999992
   20.18999863   -1.00000000    4.90999985    2.32999992
   20.19333267   -1.00000000    4.90999985    2.32999992
   20.19638824   -1.00000000    4.90999985    2.32999992
   20.19972038   -1.00000000    4.90999985    2.32999992
   20.20277786   -1.00000000    4.90999985    2.32999992
   20.20611191   -1.00000000    4.90999985    2.32999992
   20.20944595   -1.00000000    4.90999985    2.32999992
   20.21305656   -1.00000000    4.90999985    2.32999992
   20.21638870   -1.00000000    4.90999985    2.32999992
   20.21944427   -1.00000000    4.90999985    2.32999992
   20.22972298   -1.00000000    4.90999985    2.32999992
   20.23277855   -1.00000000    4.90999985    2.32999992
   20.23611069   -1.00000000    4.90999985    2.32999992
   20.23916626   -1.00000000    4.90999985    2.32999992
   20.24250031   -1.00000000    4.90999985    2.32999992
   20.24611092   -1.00000000    4.90999985    2.32999992
   20.24944496   -1.00000000    4.90999985    2.32999992
   20.25250053   -1.00000000    4.90999985    2.32999992
   20.25583267   -1.00000000    4.90999985    2.32999992
   20.25888824   -1.00000000    4.90999985    2.32999992
   20.26222229   -1.00000000    4.90999985    2.32999992
   20.27249908   -1.00000000    4.90999985    2.32999992
   20.27555466   -1.00000000    4.90999985    2.32999992
   20.27916718   -1.00000000    4.90999985    2.32999992
   20.28249931   -1.00000000    4.90999985    2.32999992
   20.28555489   -1.00000000    4.90999985    2.32999992
   20.28888893   -1.00000000    4.90999985    2.32999992
   20.29194450   -1.00000000    4.90999985    2.32999992
   20.29527664   -1.00000000    4.90999985    2.32999992
   20.29861069   -1.00000000    4.90999985    2.32999992
   20.30166626   -1.00000000    4.90999985    2.32999992
   20.30499840   -1.00000000    4.90999985    2.32999992
   20.31527710   -1.00000000    4.90999985    2.32999992
   20.31861115   -1.00000000    4.90999985    2.32999992
   20.32166672   -1.00000000    4.90999985    2.32999992
   20.32500076   -1.00000000    4.90999985    2.32999992
   20.32833481   -1.00000000    4.90999985    2.32999992
   20.33139038   -1.00000000    4.90999985    2.32999992
   20.33472252   -1.00000000    4.90999985    2.32999992
   20.33777809   -1.00000000    4.90999985    2.32999992
   20.34111214   -1.00000000    4.90999985    2.32999992
   20.34472275   -1.00000000    4.90999985    2.32999992
   20.34805679   -1.00000000    4.90999985    2.32999992
   20.35805511   -1.00000000    4.90999985    2.32999992
   20.36138916   -1.00000000    4.90999985    2.32999992
   20.36472321   -1.00000000    4.90999985    2.32999992
   20.36777878   -1.00000000    4.90999985    2.32999992
   20.37111092   -1.00000000    4.90999985    2.32999992
   20.37416649   -1.00000000    4.90999985    2.32999992
   20.37777710   -1.00000000    4.90999985    2.32999992
   20.38111115   -1.00000000    4.90999985    2.32999992
   20.38416672   -1.00000000    4.90999985    2.32999992
   20.38750076   -1.00000000    4.90999985    2.32999992
   20.39055634   -1.00000000    4.90999985    2.32999992
   20.40111160   -1.00000000    4.90999985    2.32999992
   20.40416718   -1.00000000    4.90999985    2.32999992
   20.40749931   -1.00000000    4.90999985    2.32999992
   20.41110992   -1.00000000    4.90999985    2.32999992
   20.41444397   -1.00000000    4.90999985    2.32999992
   20.41749954   -1.00000000    4.90999985    2.32999992
   20.42083359   -1.00000000    4.90999985    2.32999992
   20.42388916   -1.00000000    4.90999985    2.32999992
   20.42722130   -1.00000000    4.90999985    2.32999992
   20.43055534   -1.00000000    4.90999985    2.32999992
   20.43361092   -1.00000000    4.90999985    2.32999992
   20.44388771   -1.00000000    4.90999985    2.32999992
   20.44694328   -1.00000000    4.90999985    2.32999992
   20.45027924   -1.00000000    4.90999985    2.32999992
   20.45361137   -1.00000000    4.90999985    2.32999992
   20.45666695   -1.00000000    4.90999985    2.32999992
   20.46000099   -1.00000000    4.90999985    2.32999992
   20.46333504   -1.00000000    4.90999985    2.32999992
   20.46638870   -1.00000000    4.90999985    2.32999992
   20.46972275   -1.00000000    4.90999985    2.32999992
   20.47277832   -1.00000000    4.90999985    2.32999992
   20.47611237   -1.00000000    4.90999985    2.32999992
   20.48666763   -1.00000000    4.90999985    2.32999992
   20.48999977   -1.00000000    4.90999985    2.32999992
   20.49305534   -1.00000000    4.90999985    2.32999992
   20.51305580   -1.00000000    4.90999985    2.32999992
   20.51611137   -1.00000000    4.90999985    2.32999992
   20.51944351   -1.00000000    4.90999985    2.32999992
   20.52972221   -1.00000000    4.90999985    2.32999992
   20.53277779   -1.00000000    4.90999985    2.32999992
   20.53610992   -1.00000000    4.90999985    2.32999992
   20.53944397   -1.00000000    4.90999985    2.32999992
   20.54249954   -1.00000000    4.90999985    2.32999992
   20.54611015   -1.00000000    4.90999985    2.32999992
   20.54944420   -1.00000000    4.90999985    2.32999992
   20.55277634   -1.00000000    4.90999985    2.32999992
   20.55583191   -1.00000000    4.90999985    2.32999992
   20.55916595   -1.00000000    4.90999985    2.32999992
   20.56250000   -1.00000000    4.90999985    2.32999992
   20.57250023   -1.00000000    4.90999985    2.32999992
   20.57555580   -1.00000000    4.90999985    2.32999992
   20.57916832   -1.00000000    4.90999985    2.32999992
   20.58250046   -1.00000000    4.90999985    2.32999992
   20.58583450   -1.00000000    4.90999985    2.32999992
   20.58889008   -1.00000000    4.90999985    2.32999992
   20.59222221   -1.00000000    4.90999985    2.32999992
   20.59555626   -1.00000000    4.90999985    2.32999992
   20.59861183   -1.00000000    4.90999985    2.32999992
   20.60194397   -1.00000000    4.90999985    2.32999992
   20.60499954   -1.00000000    4.90999985    2.32999992
   20.61527824   -1.00000000    4.90999985    2.32999992
   20.61861038   -1.00000000    4.90999985    2.32999992
   20.62166595   -1.00000000    4.90999985    2.32999992
   20.62500000   -1.00000000    4.90999985    2.32999992
   20.62833405   -1.00000000    4.90999985    2.32999992
   20.63138962   -1.00000000    4.90999985    2.32999992
   20.63472176   -1.00000000    4.90999985    2.32999992
   20.63805580   -1.00000000    4.90999985    2.32999992
   20.64111137   -1.00000000    4.90999985    2.32999992
   20.64472198   -1.00000000    4.90999985    2.32999992
   20.64805603   -1.00000000    4.90999985    2.32999992
   20.65805435   -1.00000000    4.90999985    2.32999992
   20.66138840   -1.00000000    4.90999985    2.32999992
   20.66472244   -1.00000000    4.90999985    2.32999992
   20.66777802   -1.00000000    4.90999985    2.32999992
   20.67111015   -1.00000000    4.90999985    2.32999992
   20.67444420   -1.00000000    4.90999985    2.32999992
   20.67777634   -1.00000000    4.90999985    2.32999992
   20.68111038   -1.00000000    4.90999985    2.32999992
   20.68444443   -1.00000000    4.90999985    2.32999992
   20.68750000   -1.00000000    4.90999985    2.32999992
   20.69083214   -1.00000000    4.90999985    2.32999992
   20.70111275   -1.00000000    4.90999985    2.32999992
   20.70416832   -1.00000000    4.90999985    2.32999992
   20.70750046   -1.00000000    4.90999985    2.32999992
   20.71083450   -1.00000000    4.90999985    2.32999992
   20.71416664   -1.00000000    4.90999985    2.32999992
   20.71750069   -1.00000000    4.90999985    2.32999992
   20.72055626   -1.00000000    4.90999985    2.32999992
   20.72389030   -1.00000000    4.90999985    2.32999992
   20.72694588   -1.00000000    4.90999985    2.32999992
   20.73027802   -1.00000000    4.90999985    2.32999992
   20.73361206   -1.00000000    4.90999985    2.32999992
   20.74416733   -1.00000000    4.90999985    2.32999992
   20.74749947   -1.00000000    4.90999985    2.32999992
   20.75083351   -1.00000000    4.90999985    2.32999992
   20.75388908   -1.00000000    4.90999985    2.32999992
   20.75722313   -1.00000000    4.90999985    2.32999992
   20.76055527   -1.00000000    4.90999985    2.32999992
   20.76361084   -1.00000000    4.90999985    2.32999992
   20.76694489   -1.00000000    4.90999985    2.32999992
   20.77000046   -1.00000000    4.90999985    2.32999992
   20.77333260   -1.00000000    4.90999985    2.32999992
   20.77666664   -1.00000000    4.90999985    2.32999992
   20.78666687   -1.00000000    4.90999985    2.32999992
   20.78999901   -1.00000000    4.90999985    2.32999992
   20.79305458   -1.00000000    4.90999985    2.32999992
   20.79638863   -1.00000000    4.90999985    2.32999992
   20.79972076   -1.00000000    4.90999985    2.32999992
   20.80277634   -1.00000000    4.90999985    2.32999992
   20.80611038   -1.00000000    4.90999985    2.32999992
   20.80944443   -1.00000000    4.90999985    2.32999992
   20.81277657   -1.00000000    4.90999985    2.32999992
   20.81611061   -1.00000000    4.90999985    2.32999992
   20.81944466   -1.00000000    4.90999985    2.32999992
   20.82944489   -1.00000000    4.90999985    2.32999992
   20.83277893   -1.00000000    4.90999985    2.32999992
   20.83611107   -1.00000000    4.90999985    2.32999992
   20.83916664   -1.00000000    4.90999985    2.32999992
   20.84250069   -1.00000000    4.90999985    2.32999992
   20.84611130   -1.00000000    4.90999985    2.32999992
   20.84916687   -1.00000000    4.90999985    2.32999992
   20.85250092   -1.00000000    4.90999985    2.32999992
   20.85555649   -1.00000000    4.90999985    2.32999992
   20.85888863   -1.00000000    4.90999985    2.32999992
   20.86222267   -1.00000000    4.90999985    2.32999992
   20.87249947   -1.00000000    4.90999985    2.32999992
   20.87555504   -1.00000000    4.90999985    2.32999992
   20.87916756   -1.00000000    4.90999985    2.32999992
   20.88222313   -1.00000000    4.90999985    2.32999992
   20.88555527   -1.00000000    4.90999985    2.32999992
   20.88861084   -1.00000000    4.90999985    2.32999992
   20.89194489   -1.00000000    4.90999985    2.32999992
   20.89527702   -1.00000000    4.90999985    2.32999992
   20.89833260   -1.00000000    4.90999985    2.32999992
   20.90166664   -1.00000000    4.90999985    2.32999992
   20.90472221   -1.00000000    4.90999985    2.32999992
   20.91527748   -1.00000000    4.90999985    2.32999992
   20.91833305   -1.00000000    4.90999985    2.32999992
   20.92166519   -1.00000000    4.90999985    2.32999992
   20.92499924   -1.00000000    4.90999985    2.32999992
   20.92805481   -1.00000000    4.90999985    2.32999992
   20.93138885   -1.00000000    4.90999985    2.32999992
   20.93472099   -1.00000000    4.90999985    2.32999992
   20.93777657   -1.00000000    4.90999985    2.32999992
   20.94111061   -1.00000000    4.90999985    2.32999992
   20.94472122   -1.00000000    4.90999985    2.32999992
   20.94777679   -1.00000000    4.90999985    2.32999992
   20.95805550   -1.00000000    4.90999985    2.32999992
   20.96138954   -1.00000000    4.90999985    2.32999992
   20.96444511   -1.00000000    4.90999985    2.32999992
   20.96777916   -1.00000000    4.90999985    2.32999992
   20.97083473   -1.00000000    4.90999985    2.32999992
   20.97416687   -1.00000000    4.90999985    2.32999992
   20.97777748   -1.00000000    4.90999985    2.32999992
