    HOUR (UT)   FLARE FACTOR    SKY TESTER    SUN TESTER
   13.17416668   -1.00000000   -1.00000000   -1.00000000
   13.21638870  126.26699829    2.67000008    2.69000006
   13.21972179  131.47500610    2.66000009    2.69000006
   13.22305489  126.34899902    2.64000010    2.69000006
   13.22611046  122.93299866    2.64000010    2.69000006
   13.22944355  128.45500183    2.66000009    2.69000006
   13.23277760  134.88000488    2.66000009    2.69000006
   13.23666668  134.88000488    2.66000009    2.69000006
   13.24083328  123.57199860    2.66000009    2.69000006
   13.24416733  128.41799927    2.64000010    2.67000008
   13.24750042  122.96499634    2.66000009    2.69000006
   13.24972248  124.33300018    2.64000010    2.69000006
   13.25083351  124.33399963    2.64000010    2.69000006
   13.25416660  131.32600403    2.64000010    2.69000006
   13.25749969  130.95399475    2.64000010    2.67000008
   13.26055527  132.03999329    2.64000010    2.67000008
   13.26388931  132.13499451    2.64000010    2.69000006
   13.26694393  136.41000366    2.64000010    2.69000006
   13.27027798  125.36499786    2.64000010    2.69000006
   13.27361107  129.08599854    2.64000010    2.67000008
   13.27972221  129.08599854    2.59999990    2.69000006
   13.28388977  124.70099640    2.59999990    2.69000006
   13.28694534  122.85700226    2.59999990    2.71000004
   13.29027843  119.58200073    2.59999990    2.71000004
   13.29333401  120.76499939    2.61999989    2.69000006
   13.29666710  127.28600311    2.61999989    2.69000006
   13.30000019  124.09400177    2.75000000    2.69000006
   13.30305576  122.23799896    2.64000010    2.71000004
   13.30638885  123.79100037    2.53999996    2.71000004
   13.30972195  125.63800049    2.53999996    2.71000004
   13.31277752  127.18099976    2.61999989    2.75000000
   13.31611156  119.09500122    4.90999985    2.75000000
   13.31666660  131.51800537    4.90999985    2.76999998
   13.32250023  131.51800537    4.90999985    2.73000002
   13.32666683  120.68399811    4.90999985    2.75000000
   13.32972240  122.76699829    3.57999992    2.78999996
   13.33305550  119.50800323    2.55999994    2.76999998
   13.33638859  125.52500153    2.51999998    2.76999998
   13.33944416  124.38099670    2.73000002    2.76999998
   13.34277725  124.07499695    4.90999985    2.76999998
   13.34611034  123.36199951    4.90999985    2.76999998
   13.34916592  125.57499695    4.48999977    2.76999998
   13.35000038  130.15100098    4.19999981    2.75000000
   13.35277843  117.88200378    3.76999998    2.75000000
   13.35611153  125.55100250    3.89000010    2.75000000
   13.35944462  115.97000122    2.91000009    2.71000004
   13.36527824  115.97000122    2.57999992    2.71000004
   13.36944485  126.54399872    2.59999990    2.71000004
   13.37277794  119.23500061    2.57999992    2.71000004
   13.37583351  123.58200073    2.61999989    2.71000004
   13.37916660  121.19499969    3.05999994    2.71000004
   13.38249969  123.41100311    4.53999996    2.75000000
   13.38333321  121.32800293    4.23999977    2.73000002
   13.38583279  114.96499634    4.90999985    2.75000000
   13.38916683  142.58399963    4.90999985    2.80999994
   13.39249992  168.56100464    4.90999985    2.53999996
   13.39555550  225.47300720    4.90999985    2.36999989
   13.39888859   -1.00000000    4.90999985    1.39999998
   13.40222168   -1.00000000    4.90999985    0.50000000
   13.40833282   -1.00000000    4.90999985    1.09000003
   13.41222191  131.81599426    4.90999985    2.66000009
   13.41555500  118.16400146    4.90999985    2.64000010
   13.41666698  248.18099976    4.90999985    2.39000010
   13.41916656  123.69899750    4.90999985    2.51999998
   13.42250061  126.80400085    4.90999985    2.76999998
   13.42583370  120.24700165    3.23000002    2.78999996
   13.42888927  124.27100372    4.90999985    2.80999994
   13.43222237  122.19999695    4.90999985    2.78999996
   13.43555546  133.24099731    4.90999985    2.80999994
   13.43861103  141.78500366    4.90999985    2.51999998
   13.44194412   -1.00000000    4.90999985    0.95999998
   13.44499969   -1.00000000    4.90999985    0.05000000
   13.45499992   -1.00000000    4.90999985    0.07000000
   13.45833302   -1.00000000    4.90999985    0.51999998
   13.46166611  182.28799438    4.90999985    0.88000000
   13.46472168  115.43399811    4.90999985    2.34999990
   13.46805477  130.16299438    4.90999985    2.82999992
   13.47138882  124.29199982    4.90999985    2.82999992
   13.47444439  220.36799622    4.90999985    2.82999992
   13.47777748  236.63800049    4.90999985    1.80999994
   13.48083305   -1.00000000    4.90999985    2.07999992
   13.48444462   -1.00000000    4.90999985    1.55999994
   13.48777771  204.57200623    4.90999985    1.86000001
   13.49388885  204.57200623    4.90999985    2.53999996
   13.49805546  124.12699890    4.90999985    2.80999994
   13.50111103  123.21900177    4.90999985    2.78999996
   13.50444412  124.00000000    4.90999985    2.78999996
   13.50777817  117.49800110    4.90999985    2.78999996
   13.51083374  123.10700226    4.90999985    2.76999998
   13.51416683  120.42800140    4.90999985    2.78999996
   13.51666641  120.19599915    4.90999985    2.76999998
   13.51805496  121.42800140    4.90999985    2.76999998
   13.52111053  116.78800201    4.53000021    2.76999998
   13.52444458  116.06999969    2.57999992    2.75000000
   13.52750015  127.88099670    2.28999996    2.75000000
   13.53083324  128.52400208    2.26999998    2.75000000
   13.53666687  128.52400208    2.28999996    2.75000000
   13.54083347  124.69200134    2.28999996    2.73000002
   13.54416752  122.48699951    2.26999998    2.75000000
   13.54750061  119.87000275    2.26999998    2.75000000
   13.55000019  114.23600006    2.25000000    2.75000000
   13.55111122  121.49800110    2.25000000    2.75000000
   13.55416679  121.77400208    2.25000000    2.75000000
   13.55749989  122.89600372    2.25000000    2.73000002
   13.56055546  120.89299774    2.23000002    2.75000000
   13.56388950  117.41699982    2.23000002    2.75000000
   13.56722260  117.59799957    2.23000002    2.75000000
   13.57027817  115.97299957    2.25000000    2.75000000
   13.57361126  122.93299866    2.25000000    2.75000000
   13.57972240  122.93299866    2.26999998    2.75000000
   13.58361053  116.61299896    2.25000000    2.75000000
   13.58694458  114.18000031    2.25000000    2.73000002
   13.59027767  114.87300110    2.25000000    2.75000000
   13.59333324  114.80599976    2.25000000    2.75000000
   13.59666634  114.94799805    2.23000002    2.75000000
   13.59972191  115.85700226    2.23000002    2.75000000
   13.60305595  114.96199799    2.23000002    2.75000000
   13.60638905  121.21199799    2.21000004    2.75000000
   13.60944462  111.33699799    2.21000004    2.75000000
   13.61277771  119.80400085    2.21000004    2.76999998
   13.61611176  112.56999969    2.21000004    2.75000000
   13.61666679  116.05599976    2.21000004    2.75000000
   13.62250042  116.05599976    2.21000004    2.76999998
   13.62666702  115.61699677    2.23000002    2.75000000
   13.62972260  109.35399628    2.21000004    2.76999998
   13.63305569  119.48000336    2.23000002    2.75000000
   13.63611126  111.95800018    2.23000002    2.75000000
   13.63944435  112.06199646    2.23000002    2.75000000
   13.64277744  116.18900299    2.21000004    2.75000000
   13.64583302  121.90499878    2.23000002    2.75000000
   13.64916611  125.77799988    2.21000004    2.76999998
   13.64999962  120.51999664    2.21000004    2.75000000
   13.65277767  135.00999451    2.21000004    2.75000000
   13.65583324  123.54499817    2.19000006    2.75000000
   13.65916634  116.46700287    2.19000006    2.75000000
   13.66527748  116.46700287    2.21000004    2.75000000
   13.66944504  115.35199738    2.25000000    2.73000002
   13.67277813  117.79199982    2.28999996    2.73000002
   13.67583370  144.45100403    2.30999994    2.73000002
   13.67916679  118.21399689    2.57999992    2.73000002
   13.68222237  126.43699646    2.42000008    2.75000000
   13.68333340  130.64399719    2.40000010    2.67000008
   13.68611145  117.58100128    3.05999994    2.75000000
   13.68916702  120.12899780    4.69999981    2.76999998
   13.69250011  124.37200165    4.90999985    2.80999994
   13.69555569  132.53599548    4.90999985    2.84999990
   13.69888878  193.10699463    4.90999985    2.00000000
   13.70222187   -1.00000000    4.90999985    1.28999996
   13.70805550   -1.00000000    4.90999985    1.03999996
   13.71222210  188.82499695    4.90999985    2.15000010
   13.71555519  206.12899780    4.90999985    2.55999994
   13.71666622  141.15699768    4.90999985    2.36999989
   13.71916580  187.14399719    4.90999985    1.98000002
   13.72222137  123.22699738    4.90999985    2.50000000
   13.72555542  204.14399719    4.90999985    2.19000006
   13.72861099  150.48300171    4.90999985    2.48000002
   13.73194408  114.22499847    4.90999985    2.59999990
   13.73527813  111.37799835    4.90999985    2.57999992
   13.73833370  115.88400269    4.90999985    2.75000000
   13.74166679  119.30000305    4.90999985    2.82999992
   13.74499989  116.49600220    4.90999985    2.86999989
   13.75111103  116.49600220    4.90999985    1.75000000
   13.75500011  324.04998779    4.90999985    2.32999992
   13.75722218  119.30000305    4.90999985    2.82999992
   13.75722218  116.49600220    4.90999985    2.86999989
   13.75722218  324.04998779    4.90999985    2.32999992
   13.75749969  123.22699738    4.90999985    2.50000000
   13.75749969  204.14399719    4.90999985    2.19000006
   13.75749969  150.48300171    4.90999985    2.48000002
   13.75777817  114.22499847    4.90999985    2.59999990
   13.75777817  111.37799835    4.90999985    2.57999992
   13.75777817  115.88400269    4.90999985    2.75000000
   13.75972176   -1.00000000    4.90999985    0.75000000
   13.76277733   -1.00000000    4.90999985    0.63000000
   13.76611137   -1.00000000    4.90999985    0.95999998
   13.76916599  142.94400024    4.90999985    0.95999998
   13.77250004   -1.00000000    4.90999985    1.21000004
   13.78194427   -1.00000000    4.90999985    0.19000000
   13.78500080   -1.00000000    4.90999985    0.07000000
   13.78833389   -1.00000000    4.90999985    0.05000000
   13.79194450   -1.00000000    2.28999996    0.03000000
   13.79500008   -1.00000000    1.44000006    0.01000000
   13.79833412   -1.00000000    1.25000000    0.01000000
   13.80138874   -1.00000000    1.28999996    0.01000000
   13.80472279   -1.00000000    1.53999996    0.01000000
   13.80805588   -1.00000000    3.00000000    0.03000000
   13.81111145   -1.00000000    4.90999985    0.05000000
   13.81444454   -1.00000000    4.90999985    0.07000000
   13.82472229   -1.00000000    4.90999985    0.17000000
   13.82805538   -1.00000000    4.90999985    0.25000000
   13.83111095  129.22500610    4.90999985    1.14999998
   13.83444405  111.05200195    4.90999985    2.17000008
   13.83777714  207.91999817    4.90999985    2.59999990
   13.84083271  141.87500000    4.90999985    2.51999998
   13.84416676  235.43800354    4.90999985    2.32999992
   13.84722233  108.38200378    4.90999985    2.21000004
   13.85055637  143.96200562    4.90999985    2.05999994
   13.85388947   -1.00000000    4.90999985    0.61000001
   13.85694504  214.74000549    4.90999985    1.25000000
   13.85750008  159.01199341    4.90999985    1.64999998
   13.86361122  159.01199341    4.90999985    2.78999996
   13.86777782   -1.00000000    4.90999985    1.69000006
   13.87083340   -1.00000000    4.90999985    0.31999999
   13.87416649   -1.00000000    4.90999985    0.17000000
   13.87750053   -1.00000000    4.90999985    0.13000000
   13.88055611   -1.00000000    4.90999985    0.07000000
   13.88388920   -1.00000000    4.90999985    0.05000000
   13.92611122  153.87100220    4.90999985    2.50000000
   13.92916679  131.67599487    4.90999985    1.94000006
   13.93249989  127.84500122    4.90999985    2.86999989
   13.93583298  130.36999512    4.90999985    2.84999990
   13.93888855  118.88200378    4.90999985    2.86999989
   13.94222260  130.97200012    4.36999989    2.84999990
   13.94638920  130.97200012    2.00000000    2.80999994
   13.95055580  121.84200287    2.03999996    2.78999996
   13.95361137  126.55699921    2.25000000    2.78999996
   13.95694447  122.59400177    2.30999994    2.78999996
   13.95944405  123.35900116    2.00000000    2.76999998
   13.96055508  109.88999939    1.98000002    2.78999996
   13.96388912  123.36599731    2.00000000    2.78999996
   13.96722221  131.32499695    2.07999992    2.76999998
   13.97027779  129.34399414    2.23000002    2.76999998
   13.97361088  129.27999878    2.13000011    2.76999998
   13.97694397  133.47599792    2.03999996    2.76999998
   14.08194447   -1.00000000   -1.00000000   -1.00000000
   14.21694374   -1.00000000   -1.00000000   -1.00000000
   14.37305546   -1.00000000   -1.00000000   -1.00000000
   14.60750008   69.98010254    1.78999996    2.82999992
   14.61083412  144.81799316    1.78999996    2.84999990
   14.61416721  114.11799622    1.88000000    2.84999990
   14.61722279  143.15800476    1.73000002    2.84999990
   14.62055588  151.79899597    1.73000002    2.82999992
   14.62388897  127.99600220    1.73000002    2.82999992
   14.62777805  127.99600220    1.75000000    2.82999992
   14.63194466  126.94000244    1.73000002    2.82999992
   14.63527775  125.11100006    1.75000000    2.82999992
   14.63861084  116.72599792    1.75000000    2.82999992
   14.64083290  113.20300293    1.76999998    2.80999994
   14.64222240  110.52400208    1.75000000    2.82999992
   14.64555550  113.58000183    1.76999998    2.80999994
   14.64861107  110.37799835    1.76999998    2.82999992
   14.65194416  112.20800018    1.76999998    2.82999992
   14.65527725  109.03800201    1.78999996    2.82999992
   14.65833282  109.79100037    1.75000000    2.82999992
   14.66166592  105.94999695    1.76999998    2.82999992
   14.66472149  109.86900330    1.80999994    2.82999992
   14.67083359  109.86900330    1.80999994    2.82999992
   14.67500019  113.05100250    1.80999994    2.82999992
   14.67805576  105.30999756    1.80999994    2.84999990
   14.68138885  109.26300049    1.80999994    2.84999990
   14.68472195  107.12200165    1.78999996    2.84999990
   14.68777752  110.89900208    1.78999996    2.82999992
   14.69111156  113.19799805    1.78999996    2.82999992
   14.69416714  116.55500031    1.78999996    2.82999992
   14.69750023  112.90299988    1.76999998    2.82999992
   14.70083332  121.09400177    1.73000002    2.84999990
   14.70388889  115.21299744    1.71000004    2.82999992
   14.70722198  112.70099640    1.71000004    2.84999990
   14.70777798  110.98100281    1.69000006    2.82999992
   14.71361065  110.98100281    1.71000004    2.84999990
   14.71777725  107.69499969    1.71000004    2.84999990
   14.72083282  109.58000183    1.71000004    2.84999990
   14.72416592  108.14800262    4.90999985    2.91000009
   14.72749996   -1.00000000    4.90999985    2.48000002
   14.73055553  105.56800079    4.90999985    1.71000004
   14.73388958  105.88899994    4.90999985    2.76999998
   14.73722267  103.22799683    4.48999977    2.89000010
   14.74027824  108.22799683    1.89999998    2.86999989
   14.74111176  109.90100098    1.71000004    2.84999990
   14.74416733  111.34700012    1.76999998    2.84999990
   14.74722290  105.96299744    1.75000000    2.84999990
   14.75055599  101.81099701    1.76999998    2.84999990
   14.75638866  101.81099701    1.75000000    2.84999990
   14.76055527  108.76599884    1.75000000    2.84999990
   14.76388931  102.26899719    1.75000000    2.82999992
   14.76694393  114.84300232    1.75000000    2.86999989
   14.77027798  102.08899689    1.75000000    2.84999990
   14.77361107  105.99900055    1.73000002    2.84999990
   14.77444458  110.74199677    1.75000000    2.82999992
   14.77722168  106.84400177    1.75000000    2.82999992
   14.78027725  107.31300354    1.75000000    2.82999992
   14.78361130  105.57700348    1.75000000    2.82999992
   14.78666687  107.08599854    1.75000000    2.82999992
   14.79000092  127.45200348    1.76999998    2.82999992
   14.79333401  114.09899902    1.71000004    2.84999990
   14.79916668  114.09899902    1.71000004    2.84999990
   14.80333328  119.73100281    1.71000004    2.82999992
   14.80666733  111.03399658    1.69000006    2.84999990
   14.80777836  117.53500366    1.66999996    2.82999992
   14.81027794  106.88300323    1.69000006    2.84999990
   14.81333351  104.88099670    1.64999998    2.84999990
   14.81666660  106.59200287    1.64999998    2.84999990
   14.81972218  118.23500061    1.64999998    2.84999990
   14.82305527  109.49700165    1.64999998    2.84999990
   14.82638836  106.94799805    1.64999998    2.84999990
   14.82944393  109.20400238    1.64999998    2.84999990
   14.83277798  108.59999847    1.64999998    2.84999990
   14.83611107  107.55999756    1.64999998    2.84999990
   14.84222221  107.55999756    1.64999998    2.84999990
   14.84638882  121.67700195    1.64999998    2.84999990
   14.84944439  118.92700195    1.63000000    2.84999990
   14.85277843  110.30699921    1.60000002    2.84999990
   14.85611153  110.76000214    1.61000001    2.84999990
   14.85916710  110.72699738    1.61000001    2.84999990
   14.86250019  106.24299622    1.63000000    2.84999990
   14.86583328  107.01899719    1.61000001    2.84999990
   14.86888885  109.62899780    1.61000001    2.84999990
   14.87222195  115.38800049    1.61000001    2.84999990
   14.87444496  119.82099915    1.61000001    2.84999990
   14.87583351  107.54599762    1.58000004    2.84999990
   14.87888908  110.21299744    1.58000004    2.84999990
   14.88500023  110.21299744    1.58000004    2.84999990
   14.88916683  115.14700317    1.58000004    2.84999990
   14.89249992  114.77100372    1.55999994    2.84999990
   14.89555550  116.36000061    1.55999994    2.86999989
   14.89888859  116.03099823    1.55999994    2.84999990
   14.90194416  113.84799957    1.58000004    2.84999990
   14.90527725  113.63899994    1.58000004    2.84999990
   14.90777779  108.42299652    1.58000004    2.84999990
   14.90916634  108.30000305    1.58000004    2.84999990
   14.91222191  110.53500366    1.55999994    2.84999990
   14.91555500  110.79299927    1.55999994    2.84999990
   14.91861153  108.80400085    1.53999996    2.84999990
   14.92194462  110.16699982    1.55999994    2.84999990
   14.92777824  110.16699982    1.60000002    2.84999990
   14.93194485  109.00700378    1.60000002    2.84999990
   14.93527794  103.31400299    1.60000002    2.84999990
   14.93833351  105.75499725    1.63000000    2.84999990
   14.94111156  103.84500122    1.64999998    2.84999990
   14.94222260  107.23200226    1.64999998    2.84999990
   14.94527817  112.72699738    1.66999996    2.84999990
   14.94861126  110.73200226    1.66999996    2.84999990
   14.95194435  108.97699738    1.66999996    2.82999992
   14.95499992  110.12999725    1.66999996    2.82999992
   14.95833302  107.81800079    1.69000006    2.84999990
   14.96138859  110.93199921    1.69000006    2.82999992
   14.96472168  109.62799835    1.71000004    2.84999990
   14.97055531  109.62799835    1.69000006    2.82999992
   14.97472191  105.61499786    1.69000006    2.84999990
   14.97805500  113.01799774    1.69000006    2.82999992
   14.98138809  106.68399811    1.73000002    2.84999990
   14.98444462  111.27899933    1.73000002    2.84999990
   14.98777771   -1.00000000    1.88000000    2.84999990
   14.99083328  215.85800171    4.90999985    0.75000000
   14.99416733   -1.00000000    4.90999985    0.55000001
   14.99750042   -1.00000000    4.90999985    0.05000000
   15.00055599   -1.00000000    4.90999985    0.05000000
   15.00388908   -1.00000000    4.90999985    0.05000000
   15.00722218   -1.00000000    4.73999977    0.03000000
   15.01361084   -1.00000000    4.90999985    0.41999999
   15.01777744  108.27700043    4.90999985    2.94000006
   15.02083302  119.14299774    4.90999985    2.86999989
   15.02416611  102.28199768    4.90999985    2.91000009
   15.02722168   -1.00000000    4.90999985    3.00000000
   15.03055573  120.06900024    4.90999985    1.61000001
   15.03388977  112.47599792    4.90999985    2.98000002
   15.03694534  116.37699890    4.90999985    2.89000010
   15.04027843   -1.00000000    4.90999985    1.80999994
   15.04361153   -1.00000000    4.90999985    0.25000000
   15.04694462   -1.00000000    4.90999985    0.25000000
   15.05027771  135.11199951    4.90999985    2.09999990
   15.05638885  135.11199951    4.90999985    2.91000009
   15.06055546  123.15899658    1.64999998    2.84999990
   15.06361103  133.98199463    1.61000001    2.84999990
   15.06694412  118.62500000    1.61000001    2.84999990
   15.07027817  122.47699738    1.63000000    2.84999990
   15.07333374  118.02700043    1.63000000    2.84999990
   15.07444477  125.27600098    1.61000001    2.84999990
   15.07722187  114.01399994    1.61000001    2.84999990
   15.08027744  118.45200348    1.61000001    2.84999990
   15.08361053  111.15200043    1.63000000    2.84999990
   15.08694458  114.79900360    1.66999996    2.84999990
   15.09000015  113.07399750    1.66999996    2.84999990
   15.09333324  115.58200073    1.64999998    2.84999990
   15.09916592  115.58200073    1.63000000    2.84999990
   15.10333347  109.02400208    1.61000001    2.84999990
   15.10666752  113.40699768    1.61000001    2.84999990
   15.10777855  119.25499725    1.61000001    2.84999990
   15.11027813  118.66899872    1.61000001    2.84999990
   15.11333370  118.08100128    1.60000002    2.86999989
   15.11666679  113.09400177    1.60000002    2.86999989
   15.11999989  107.07499695    1.61000001    2.84999990
   15.12305546  105.65799713    1.61000001    2.84999990
   15.12638855  104.55000305    1.61000001    2.84999990
   15.12944412  109.40000153    1.60000002    2.82999992
   15.13277817  108.05500031    1.58000004    2.84999990
   15.13611126  105.50000000    1.55999994    2.84999990
   15.14194393  105.50000000    1.51999998    2.86999989
   15.14611053  111.21900177    1.51999998    2.86999989
   15.14944458  105.02899933    1.51999998    2.86999989
   15.15277767  101.83300018    1.50000000    2.86999989
   15.15583324  109.89800262    1.50000000    2.86999989
   15.15916634  109.30500031    1.50000000    2.86999989
   15.16249943  116.40000153    1.50000000    2.86999989
   15.16555500  107.08699799    1.50000000    2.86999989
   15.16888905  115.30100250    1.50000000    2.86999989
   15.17194462  117.97000122    1.50000000    2.84999990
   15.17444515  111.78199768    1.50000000    2.86999989
   15.17583370  111.65200043    1.50000000    2.84999990
   15.17888927  109.04199982    1.53999996    2.86999989
   15.18500042  109.04199982    1.50000000    2.86999989
   15.18916702  112.84899902    1.50000000    2.86999989
   15.19222260  104.84200287    1.50000000    2.86999989
   15.19555569  104.29000092    1.51999998    2.86999989
   15.19861126  107.89900208    4.17999983    2.84999990
   15.20194435  106.09500122    1.63000000    2.84999990
   15.20527744  106.41300201    1.55999994    2.86999989
   15.20777798  105.35099792    1.55999994    2.86999989
   15.20888901  102.53199768    1.55999994    2.86999989
   15.21194458   97.94080353    1.55999994    2.86999989
   15.21527767  102.65699768    4.84999990    2.89000010
   15.21861076  134.35099792    4.90999985    2.44000006
   15.22166634  130.37399292    4.90999985    1.53999996
   15.23194408   -1.00000000    4.90999985    0.47999999
   15.23500061   -1.00000000    4.90999985    0.76999998
   15.23833370  104.32299805    4.90999985    2.51999998
   15.24111176  113.71299744    4.90999985    2.94000006
   15.24194431  106.14299774    4.90999985    2.94000006
   15.24499989  104.40899658    3.55999994    2.86999989
   15.24833393  138.27200317    3.07999992    2.89000010
   15.25166702   -1.00000000    4.90999985    2.91000009
   15.25472260   -1.00000000    4.90999985    0.41999999
   15.25805569   -1.00000000    4.90999985    1.14999998
   15.26111126   -1.00000000    4.90999985    2.11999989
   15.26444435  136.52400208    4.90999985    2.50000000
   15.27055550  136.52400208    4.90999985    2.86999989
   15.27472210  105.99099731    1.78999996    2.84999990
   15.27805519  109.89900208    1.66999996    2.84999990
   15.28111076  110.27899933    1.63000000    2.84999990
   15.28444481  101.79000092    1.63000000    2.84999990
   15.28777790  125.55500031    1.60000002    2.84999990
   15.29083347  112.57900238    1.61000001    2.84999990
   15.29416752  117.00000000    1.61000001    2.84999990
   15.29722309  110.32700348    1.61000001    2.86999989
   15.30055618   -1.00000000    4.90999985    0.69000000
   15.30388927   -1.00000000    4.90999985    0.81999999
   15.30694485  143.96299744    4.90999985    1.09000003
   15.30777836  123.17600250    4.90999985    1.41999996
   15.31333351  123.17600250    4.90999985    2.40000010
   15.31750011  115.63600159    1.71000004    2.84999990
   15.32083321  110.12699890    1.60000002    2.84999990
   15.32416630  113.05699921    1.61000001    2.84999990
   15.32722187  114.16899872    1.60000002    2.84999990
   15.33055592  108.83699799    1.61000001    2.84999990
   15.33388901  110.53199768    1.60000002    2.84999990
   15.33694458  117.09100342    1.55999994    2.84999990
   15.34027767  112.46800232    1.55999994    2.86999989
   15.34111118  111.52300262    1.55999994    2.86999989
   15.34388828  107.73100281    1.55999994    2.86999989
   15.34722233  106.63700104    1.51999998    2.86999989
   15.35027790  108.22000122    1.53999996    2.86999989
   15.35638905  108.22000122    1.55999994    2.84999990
   15.36055565  108.52700043    1.58000004    2.84999990
   15.36361122  106.96600342    1.58000004    2.84999990
   15.36694431  113.62999725    1.60000002    2.84999990
   15.36999989  100.68399811    1.61000001    2.84999990
   15.37333393  104.38999939    1.63000000    2.86999989
   15.37444496  108.02100372    1.63000000    2.86999989
   15.37694454  105.12599945    1.66999996    2.84999990
   15.38000011  106.04199982    1.63000000    2.84999990
   15.38333321  105.86399841    1.63000000    2.84999990
   15.38666630  106.17800140    1.66999996    2.84999990
   15.38972187  110.77100372    1.73000002    2.84999990
   15.39305496  120.65899658    1.73000002    2.84999990
   15.39916611  120.65899658    1.94000006    2.80999994
   15.40333271  105.73899841    1.73000002    2.84999990
   15.40666676  101.57700348    1.73000002    2.84999990
   15.40777779  103.96299744    1.73000002    2.84999990
   15.41027737  103.79499817    1.73000002    2.84999990
   15.41333294  127.34200287    1.73000002    2.84999990
   15.41666698  115.22200012    1.71000004    2.86999989
   15.42000008  140.65400696    1.71000004    2.84999990
   15.42305565  113.55000305    1.71000004    2.84999990
   15.42638874  108.00599670    1.71000004    2.84999990
   15.42972279  107.06999969    1.71000004    2.84999990
   15.43277836  112.66100311    1.73000002    2.84999990
   15.43611145  109.71900177    1.71000004    2.84999990
   15.44194412  109.71900177    1.71000004    2.84999990
   15.44611073  103.26499939    1.73000002    2.86999989
   15.44944477  102.30000305    1.73000002    2.86999989
   15.45249939  107.24900055    1.73000002    2.86999989
   15.45583344  107.11100006    1.73000002    2.84999990
   15.45916653  108.07700348    1.73000002    2.84999990
   15.46222210  104.73500061    1.73000002    2.84999990
   15.46555519   99.91280365    1.71000004    2.84999990
   15.46861076  108.40000153    1.69000006    2.84999990
   15.47194386  107.42299652    1.71000004    2.86999989
   15.47444439  108.39099884    1.71000004    2.86999989
   15.47555542  107.93399811    1.71000004    2.86999989
   15.47861099  105.14700317    1.69000006    2.84999990
   15.48472214  105.14700317    1.71000004    2.86999989
   15.48888874  112.26300049    1.71000004    2.84999990
   15.49222279  114.75199890    1.71000004    2.86999989
   15.49555588  113.90599823    1.73000002    2.84999990
   15.49861145  102.72799683    1.73000002    2.86999989
   15.50194454  112.90799713    1.75000000    2.84999990
   15.50500011  114.44400024    1.75000000    2.84999990
   15.50777817  111.04299927    1.75000000    2.84999990
   15.50888920  113.10600281    1.75000000    2.84999990
   15.51222229  103.72299957    1.75000000    2.86999989
   15.51527786  109.41500092    1.73000002    2.84999990
   15.51861095  118.82399750    1.73000002    2.84999990
   15.52166653  117.12899780    1.75000000    2.84999990
   15.52777767  117.12899780    1.78999996    2.84999990
   15.53194427  108.76300049    1.76999998    2.86999989
   15.53500080  108.79599762    1.75000000    2.84999990
   15.53833389  104.60500336    1.75000000    2.86999989
   15.54111195  115.51399994    1.73000002    2.86999989
   15.54194450  116.39199829    1.69000006    2.86999989
   15.54527855  111.44200134    1.71000004    2.86999989
   15.54833412  108.96399689    1.66999996    2.86999989
   15.55166721  102.86900330    1.69000006    2.84999990
   15.55472279  105.07399750    1.69000006    2.86999989
   15.55805588  105.04100037    1.69000006    2.86999989
   15.56138897  107.04299927    1.71000004    2.86999989
   15.56444454  117.55799866    1.71000004    2.86999989
   15.57055569  117.55799866    1.66999996    2.86999989
   15.57472229  110.20300293    1.66999996    2.86999989
   15.57805538  110.08499908    1.66999996    2.86999989
   15.58111095  107.04000092    1.64999998    2.86999989
   15.58444405  109.11900330    1.64999998    2.86999989
   15.58777714  108.40699768    1.64999998    2.86999989
   15.59083271  102.55999756    1.64999998    2.86999989
   15.59416676  100.56999969    1.61000001    2.86999989
   15.59749985  103.10900116    1.60000002    2.86999989
   15.60055637  107.98400116    1.60000002    2.86999989
   15.60388947  105.90899658    1.53999996    2.86999989
   15.60722256  102.80400085    1.51999998    2.86999989
   15.60777855  106.60700226    1.51999998    2.86999989
   15.62861156  106.60700226    1.46000004    2.89000010
   15.63277817  102.47799683    1.48000002    2.86999989
   15.63583279  108.63500214    1.46000004    2.89000010
   15.63916683  111.88600159    1.46000004    2.89000010
   15.64111137  102.85399628    1.46000004    2.86999989
   15.64277744  112.95099640    1.46000004    2.86999989
   15.64611053  110.15899658    1.41999996    2.89000010
   15.64916611  106.87100220    1.44000006    2.89000010
   15.65249920  109.37000275    1.44000006    2.89000010
   15.65583324  109.02200317    1.41999996    2.89000010
   15.65888882  115.94100189    1.41999996    2.86999989
   15.66222191  108.00800323    1.41999996    2.89000010
   15.66527748  114.18000031    1.41999996    2.89000010
   15.67138958  114.18000031    1.41999996    2.86999989
   15.67527771  106.83499908    1.39999998    2.89000010
   15.67861176  102.05300140    1.39999998    2.86999989
   15.68194485  104.49900055    1.39999998    2.89000010
   15.68500042  108.42099762    1.39999998    2.86999989
   15.68833351  114.44400024    1.38000000    2.86999989
   15.69166660  112.36199951    1.38000000    2.86999989
   15.69472218  104.62500000    1.39999998    2.89000010
   15.69805527  113.01999664    1.39999998    2.86999989
   15.70111084  106.96299744    1.39999998    2.89000010
   15.70444393  102.80699921    1.39999998    2.91000009
   15.70777798  106.49500275    1.39999998    2.91000009
   15.70833302  105.69699860    1.41999996    2.89000010
   15.71416664  105.69699860    1.41999996    2.89000010
   15.71833324  127.28700256    1.41999996    2.89000010
   15.72138882  102.21700287    1.39999998    2.89000010
   15.72472191  105.92299652    1.39999998    2.89000010
   15.72805500  101.18099976    1.41999996    2.89000010
   15.73111057  101.41600037    1.41999996    2.89000010
   15.73444462  104.27500153    1.41999996    2.89000010
   15.73750019  104.35900116    1.41999996    2.89000010
   15.74083328  103.02999878    1.41999996    2.86999989
   15.74166679  104.74199677    1.41999996    2.86999989
   15.74444485   98.48829651    1.41999996    2.89000010
   15.74777794  100.01699829    1.41999996    2.89000010
   15.75111103  102.12300110    1.41999996    2.89000010
   15.75694466  102.12300110    1.48000002    2.89000010
   15.76111126  102.30599976    1.46000004    2.89000010
   15.76416683  111.60500336    1.46000004    2.86999989
   15.76749992   98.25949860    1.44000006    2.86999989
   15.77083302  101.21399689    1.46000004    2.91000009
   15.77388859   97.36119843    1.44000006    2.89000010
   15.77499962   99.08139801    1.44000006    2.89000010
   15.77750015   97.38240051    1.44000006    2.86999989
   15.78083324  107.11000061    1.44000006    2.86999989
   15.78416729  107.32700348    1.44000006    2.86999989
   15.78722286  109.09200287    1.41999996    2.91000009
   15.79055595  106.77899933    1.41999996    2.89000010
   15.79361153  108.80000305    1.41999996    2.89000010
   15.79972267  108.80000305    1.39999998    2.86999989
   15.80388927  100.44599915    1.38000000    2.86999989
   15.80722237   98.46949768    1.39999998    2.89000010
   15.80833340  102.73799896    1.39999998    2.89000010
   15.81083393  106.47599792    1.38000000    2.89000010
   15.81416702  103.64499664    1.38000000    2.89000010
   15.81750011  103.62000275    1.34000003    2.89000010
   15.82055569  103.05500031    1.33000004    2.89000010
   15.82388878  104.75800323    1.33000004    2.89000010
   15.82694435  110.51300049    1.33000004    2.89000010
   15.83027744  105.83599854    1.30999994    2.89000010
   15.83361053  107.36299896    1.30999994    2.89000010
   15.83666611  107.06900024    1.28999996    2.89000010
   15.84249973  107.06900024    1.25000000    2.89000010
   15.84666634  104.94699860    1.21000004    2.91000009
   15.85000038  104.52600098    1.21000004    2.91000009
   15.85333347   97.67680359    1.23000002    2.89000010
   15.85638905   95.89540100    1.25000000    2.89000010
   15.85972214  105.43199921    1.26999998    2.91000009
   15.86305618  101.55699921    1.34000003    2.89000010
   15.86611176   97.23580170    1.33000004    2.89000010
   15.86944485   95.04859924    1.36000001    2.89000010
   15.87250042   93.66410065    1.38000000    2.86999989
   15.87500000  103.38700104    1.41999996    2.89000010
   15.87611103  104.11000061    1.44000006    2.91000009
   15.87944412   97.98069763    1.41999996    2.91000009
   15.88555527   97.98069763    1.41999996    2.89000010
   15.88972187   95.52700043    1.41999996    2.89000010
   15.89277744  100.91999817    1.41999996    2.89000010
   15.89611053   98.89859772    1.39999998    2.91000009
   15.89944458   94.11620331    1.39999998    2.91000009
   15.90249920   95.99019623    1.39999998    2.89000010
   15.90583324   96.18740082    1.39999998    2.89000010
   15.90833282   90.99800110    1.44000006    2.89000010
   15.90944386   99.56700134    1.44000006    2.89000010
   15.91277695   94.79010010    1.41999996    2.91000009
   15.91611099  102.69499969    1.39999998    2.91000009
   15.91916656   98.97139740    1.39999998    2.89000010
   15.92250061   96.44779968    1.39999998    2.89000010
   15.92833328   96.44779968    1.50000000    2.86999989
   15.93249989   97.76049805    1.51999998    2.89000010
   15.93583298  102.35099792    1.60000002    2.89000010
   15.93888855  100.66100311    1.63000000    2.86999989
   15.94166660  105.99199677    1.61000001    2.86999989
   15.94250011  104.39099884    1.61000001    2.86999989
   15.94583321  102.12200165    1.61000001    2.89000010
   15.94916630   97.11820221    1.63000000    2.89000010
   15.95222187   91.76740265    1.58000004    2.89000010
   15.95555496   96.18170166    1.60000002    2.89000010
   15.95861053   99.22489929    1.63000000    2.89000010
   15.96194458  106.75599670    1.64999998    2.89000010
   15.96527767   94.24210358    1.64999998    2.89000010
   15.97111034   94.24210358    1.76999998    2.86999989
   15.97527695   96.81780243    1.71000004    2.86999989
   15.97861099   98.17669678    1.66999996    2.86999989
   15.98166656   99.12059784    1.66999996    2.86999989
   15.98500061  102.41699982    1.69000006    2.86999989
   15.98833370  105.96600342    1.69000006    2.86999989
   15.99138927  106.62400055    1.69000006    2.86999989
   15.99472237   99.53150177    1.66999996    2.89000010
   15.99777794   98.86789703    1.66999996    2.86999989
   16.00111198  100.40100098    1.58000004    2.89000010
   16.00444412  100.19100189    1.58000004    2.86999989
   16.00749969   98.97969818    1.58000004    2.86999989
   16.00833321  104.01899719    1.58000004    2.86999989
   16.01388931  104.01899719    1.55999994    2.89000010
   16.01805496   91.76119995    1.58000004    2.89000010
   16.02138901   93.98310089    1.60000002    2.89000010
   16.02472115   93.45480347    1.60000002    2.89000010
   16.02777672   91.01129913    1.60000002    2.91000009
   16.03111076   95.95690155    1.63000000    2.89000010
   16.03444481   97.87229919    1.66999996    2.86999989
   16.03750038  100.33999634    1.69000006    2.86999989
   16.04083252   93.50689697    1.69000006    2.86999989
   16.04166603   95.20140076    1.69000006    2.86999989
   16.04444313   93.35870361    1.69000006    2.89000010
   16.04777718   97.24289703    1.73000002    2.86999989
   16.05111122   92.10150146    1.73000002    2.86999989
   16.05694389   92.10150146    1.71000004    2.89000010
   16.06110954   93.24539948    1.69000006    2.86999989
   16.06416512   91.62449646    1.69000006    2.86999989
   16.06750107   91.41719818    1.66999996    2.89000010
   16.07083511   94.53549957    1.66999996    2.89000010
   16.07389069   98.76210022    1.66999996    2.89000010
   16.07500076   98.29440308    1.66999996    2.89000010
   16.07750130   93.92639923    1.60000002    2.89000010
   16.08083344   96.11109924    1.58000004    2.89000010
   16.08416748  101.30300140    1.50000000    2.89000010
   16.08722305   94.80989838    1.50000000    2.89000010
   16.09055710   93.90720367    1.50000000    2.86999989
   16.09388924  101.02500153    1.48000002    2.89000010
   16.09972191  101.02500153    1.50000000    2.89000010
   16.10388947   97.67990112    1.51999998    2.89000010
   16.10694504   94.81130219    1.51999998    2.89000010
   16.10833359  101.15499878    1.51999998    2.89000010
   16.11055565   94.73850250    1.51999998    2.89000010
   16.11388969  100.56700134    1.50000000    2.89000010
   16.11722183   95.48989868    1.48000002    2.89000010
   16.12027740   97.29940033    1.48000002    2.89000010
   16.12361145   94.22200012    1.48000002    2.89000010
   16.12694550   96.83439636    1.55999994    2.86999989
   16.13000107   92.00209808    1.55999994    2.89000010
   16.13333321   97.31109619    1.55999994    2.89000010
   16.13638878  102.96800232    1.55999994    2.89000010
   16.14249992  102.96800232    1.66999996    2.86999989
   16.14666748   94.90319824    1.63000000    2.89000010
   16.14999962  102.50800323    1.61000001    2.91000009
   16.15305519  104.00599670    1.60000002    2.86999989
   16.15638924   94.17559814    1.60000002    2.86999989
   16.15972137  101.30999756    1.58000004    2.89000010
   16.16277695   97.15740204    1.58000004    2.86999989
   16.16611099   97.49320221    1.58000004    2.86999989
   16.16916656   97.47910309    1.60000002    2.89000010
   16.17249870   98.37920380    1.61000001    2.86999989
   16.17499924   96.44519806    1.60000002    2.86999989
   16.17611122   94.94490051    1.60000002    2.89000010
   16.17944336   93.79650116    1.60000002    2.89000010
   16.18527603   93.79650116    1.61000001    2.86999989
   16.18944359   96.41690063    1.61000001    2.86999989
   16.19277763   94.62439728    1.60000002    2.86999989
   16.19610977   95.81610107    1.60000002    2.86999989
   16.19916534   98.87560272    1.55999994    2.89000010
   16.20250130   99.58820343    1.55999994    2.89000010
   16.20555687   99.75689697    1.53999996    2.89000010
   16.20833397  101.34999847    1.53999996    2.86999989
   16.20916748   92.05470276    1.51999998    2.89000010
   16.21250153  100.43499756    1.53999996    2.86999989
   16.21583366   98.02110291    1.51999998    2.89000010
   16.21888924  104.58899689    1.48000002    2.89000010
   16.22222328   99.50029755    1.51999998    2.89000010
   16.22833443   99.50029755    1.53999996    2.89000010
   16.23222351   99.95850372    1.55999994    2.89000010
   16.23555565   91.78469849    1.60000002    2.89000010
   16.23888969   97.88369751    1.60000002    2.86999989
   16.24166679   95.51679993    1.60000002    2.86999989
   16.24222183   88.35949707    1.60000002    2.86999989
   16.24555588   95.09529877    1.63000000    2.86999989
   16.24888992   90.66829681    1.69000006    2.89000010
   16.25194359   99.05709839    1.69000006    2.86999989
   16.25527763   95.47419739    1.71000004    2.86999989
   16.25861168   97.56800079    1.71000004    2.86999989
   16.26166725   98.23670197    1.71000004    2.86999989
   16.26499939   94.70069885    1.75000000    2.86999989
   16.27111053   94.70069885    1.78999996    2.86999989
   16.27527809   92.67030334    1.83000004    2.86999989
   16.27833366   94.56459808    1.83000004    2.86999989
   16.28166580   97.16500092    1.83000004    2.86999989
   16.28499985   93.81510162    1.83000004    2.86999989
   16.28805542   94.30500031    1.83000004    2.86999989
   16.29138756   95.21690369    1.83000004    2.86999989
   16.29472160   93.38359833    1.76999998    2.86999989
   16.29777718   92.56970215    1.71000004    2.86999989
   16.30111122   89.77290344    1.71000004    2.86999989
   16.30444336   94.55319977    1.71000004    2.86999989
   16.30749893   94.83119965    1.66999996    2.89000010
   16.30833244   95.15019989    1.63000000    2.86999989
   16.31388855   95.15019989    1.64999998    2.86999989
   16.31805611   97.04429626    1.66999996    2.86999989
   16.32139015  104.62699890    1.66999996    2.89000010
   16.32444572  107.62899780    1.66999996    2.86999989
   16.32777786  124.98200226    1.69000006    2.89000010
   16.33111191  105.37400055    1.69000006    2.89000010
   16.33416748   99.83799744    1.66999996    2.86999989
   16.33750153  100.11900330    1.69000006    2.86999989
   16.34055710   96.10870361    1.71000004    2.89000010
   16.34166718   89.01730347    1.71000004    2.89000010
   16.34444427   96.72509766    1.71000004    2.89000010
   16.34749985   92.27690125    1.71000004    2.86999989
   16.35083389  100.04100037    1.71000004    2.86999989
   16.35666656  100.04100037    1.71000004    2.86999989
   16.36083412   91.75789642    1.73000002    2.86999989
   16.36416626   98.07170105    1.73000002    2.86999989
   16.36722183   96.14350128    1.66999996    2.86999989
   16.37055588   90.55560303    1.64999998    2.86999989
   16.37388992   90.92449951    1.64999998    2.86999989
   16.37500000   96.49259949    1.64999998    2.89000010
   16.37750053   93.75939941    1.64999998    2.89000010
   16.38055611   97.48799896    1.69000006    2.86999989
   16.38388824   95.66079712    1.66999996    2.86999989
   16.38694382   95.57050323    1.66999996    2.86999989
   16.39027786   98.95159912    1.64999998    2.89000010
   16.39361191  102.99700165    1.64999998    2.86999989
   16.39972115  102.99700165    1.64999998    2.89000010
   16.40388870   91.71910095    1.64999998    2.89000010
   16.40694427   93.63999939    1.64999998    2.86999989
   16.40833282   95.75849915    1.63000000    2.86999989
   16.41055489   93.68379974    1.63000000    2.86999989
   16.41388893   94.69979858    1.55999994    2.86999989
   16.41722107   93.89769745    1.53999996    2.89000010
   16.42027664   95.18910217    1.51999998    2.91000009
   16.42361069   97.14050293    1.51999998    2.91000009
   16.42694473   97.63890076    1.50000000    2.89000010
   16.43000031   96.58239746    1.50000000    2.89000010
   16.43333244   91.87169647    1.53999996    2.89000010
   16.43666649   94.91349792    1.53999996    2.89000010
   16.44249916   94.91349792    1.51999998    2.89000010
   16.44666672   96.18820190    1.55999994    2.86999989
   16.44972038   93.07579803    1.55999994    2.89000010
   16.45305634   91.33460236    1.58000004    2.89000010
   16.45639038   96.63800049    1.60000002    2.86999989
   16.45944595   99.97180176    1.61000001    2.89000010
   16.46277809   93.96849823    1.61000001    2.89000010
   16.46583366   92.74490356    1.64999998    2.89000010
   16.46916771   96.35140228    1.64999998    2.86999989
   16.47249985   97.15100098    1.66999996    2.89000010
   16.47500038   87.81089783    1.69000006    2.89000010
   16.47611237   89.64659882    1.69000006    2.86999989
   16.47916794   92.90760040    1.69000006    2.89000010
   16.48527718   92.90760040    1.71000004    2.89000010
   16.48944473   96.94950104    1.69000006    2.89000010
   16.49277878   89.33399963    1.69000006    2.89000010
   16.49583435   99.43019867    1.69000006    2.89000010
   16.49916649   96.89739990    1.73000002    2.89000010
   16.50222206   92.51560211    1.71000004    2.89000010
   16.50555611   94.01039886    1.73000002    2.86999989
   16.50833321   94.41280365    1.75000000    2.89000010
   16.50944519   96.74829865    1.75000000    2.89000010
   16.51250076   94.90579987    1.75000000    2.89000010
   16.51583290   97.70529938    1.75000000    2.89000010
   16.51888847   90.29570007    1.71000004    2.89000010
   16.52222252   94.02819824    1.69000006    2.86999989
   16.52805519   94.02819824    1.63000000    2.86999989
   16.53222275   93.33139801    1.58000004    2.89000010
   16.53555489   88.24970245    1.58000004    2.89000010
   16.53861046   96.14330292    1.58000004    2.86999989
   16.54166603   90.30039978    1.55999994    2.89000010
   16.54249954   87.26619720    1.55999994    2.91000009
   16.54555511   89.10459900    1.58000004    2.89000010
   16.54888916   88.09500122    1.60000002    2.91000009
   16.55194283   84.81780243    1.61000001    2.89000010
   16.55527687   93.17169952    1.61000001    2.89000010
   16.55861092   94.87280273    1.61000001    2.89000010
   16.56166649   88.10260010    1.60000002    2.86999989
   16.56499863   91.04889679    1.60000002    2.91000009
   16.57111168   91.04889679    1.60000002    2.89000010
   16.57500076   88.72239685    1.63000000    2.89000010
   16.57833481   90.01020050    1.63000000    2.91000009
   16.58166695   94.74199677    1.63000000    2.91000009
   16.58472252   88.67030334    1.66999996    2.91000009
   16.58805656   94.25270081    1.69000006    2.89000010
   16.59138870   88.08860016    1.69000006    2.91000009
   16.59444427   90.20729828    1.69000006    2.91000009
   16.59777832   93.59980011    1.66999996    2.91000009
   16.60083389   89.65470123    1.60000002    2.89000010
   16.60416794   94.60569763    1.60000002    2.89000010
   16.60750008   90.97139740    1.60000002    2.89000010
   16.60833359   95.52210236    1.60000002    2.89000010
   16.61388969   95.52210236    1.60000002    2.89000010
   16.61805534   92.20110321    1.58000004    2.89000010
   16.62111092   91.82740021    1.58000004    2.91000009
   16.62444496  103.00199890    1.58000004    2.91000009
   16.64222145  105.83699799    1.61000001    2.89000010
   16.64472198  100.73100281    1.61000001    2.89000010
   16.64805603  101.20899963    1.66999996    2.89000010
   16.65111160  114.21700287    1.66999996    2.89000010
   16.65694427  114.21700287    1.66999996    2.86999989
   16.66110992  103.15499878    1.73000002    2.89000010
   16.66416550  111.70500183    1.71000004    2.86999989
   16.66749954  101.84799957    1.71000004    2.89000010
   16.67083359   94.08200073    1.71000004    2.86999989
   16.67388916   93.05609894    1.73000002    2.89000010
   16.67527771  100.16300201    1.71000004    2.89000010
   16.67777634  102.89499664    1.69000006    2.89000010
   16.68083191   98.49220276    1.64999998    2.89000010
   16.68416595   95.38459778    1.64999998    2.86999989
   16.68750000   97.49900055    1.66999996    2.89000010
   16.69055557  106.13999939    1.66999996    2.89000010
   16.69388771  100.44699860    1.66999996    2.89000010
   16.69972038  100.44699860    1.63000000    2.91000009
   16.70388985   99.41840363    1.63000000    2.89000010
   16.70694542  102.84300232    1.63000000    2.89000010
   16.70861244  107.03600311    1.63000000    2.89000010
   16.71083450  109.61000061    1.61000001    2.89000010
   16.71389008  104.52400208    1.61000001    2.91000009
   16.71722221  103.63800049    1.61000001    2.91000009
   16.72055626  105.87300110    1.61000001    2.89000010
   16.72361183  106.03099823    1.63000000    2.89000010
   16.72694588   97.80110168    1.63000000    2.86999989
   16.73027802  109.87200165    1.63000000    2.86999989
   16.73333359  104.78900146    1.63000000    2.89000010
   16.73666763  106.94499969    1.60000002    2.89000010
   16.74250031  106.94499969    1.61000001    2.89000010
   16.74666786  105.34500122    1.60000002    2.89000010
   16.75000000  110.45200348    1.60000002    2.89000010
   16.75305557  107.51799774    1.58000004    2.89000010
   16.75638962  107.73400116    1.60000002    2.91000009
   16.75972176  123.70700073    1.60000002    2.89000010
   16.76277733  114.58200073    1.60000002    2.89000010
   16.76611137  104.94799805    1.58000004    2.89000010
   16.76916695  109.84300232    1.58000004    2.86999989
   16.77249908  116.16200256    1.58000004    2.89000010
   16.77527809  118.95600128    1.58000004    2.89000010
   16.77638817  115.56600189    1.60000002    2.86999989
   16.77944374  125.89600372    1.63000000    2.89000010
   16.78527641  125.89600372    1.69000006    2.89000010
   16.78944397  117.17800140    1.71000004    2.89000010
   16.79277802  113.80599976    1.71000004    2.89000010
   16.79611015  106.17800140    1.73000002    2.86999989
   16.79916573  106.18800354    1.71000004    2.86999989
   16.80249977  101.07499695    1.71000004    2.86999989
   16.80555534  103.69899750    1.66999996    2.86999989
   16.80861092   97.63420105    1.66999996    2.86999989
   16.80944443  101.64700317    1.66999996    2.89000010
   16.81250000  104.76999664    1.66999996    2.89000010
   16.81583214  102.95400238    1.66999996    2.89000010
   16.81916809  101.41600037    1.75000000    2.89000010
   16.82222366  100.11399841    1.76999998    2.86999989
   16.82833481  100.11399841    1.78999996    2.89000010
   16.83250046  109.46099854    1.78999996    2.86999989
   16.83555603  104.88700104    1.78999996    2.86999989
   16.83889008  103.91999817    1.83000004    2.86999989
   16.84194565  102.01300049    1.83000004    2.86999989
   16.84250069   99.61959839    1.91999996    2.86999989
   16.84555626  105.01899719    1.91999996    2.86999989
   16.84889030   99.23819733    1.96000004    2.86999989
   16.85222244  101.73300171    1.96000004    2.84999990
   16.85527802  102.61900330    1.98000002    2.89000010
   16.85861206  100.68099976    1.98000002    2.86999989
   16.86166763  104.73400116    2.00000000    2.86999989
   16.86499977  105.90399933    2.03999996    2.86999989
   16.87111092  105.90399933    2.07999992    2.86999989
   16.87527847  109.57499695    2.07999992    2.86999989
   16.87583351  111.91799927    2.07999992    2.86999989
   16.87888908  114.26300049    2.09999990    2.86999989
   16.88222313  120.96900177    2.21000004    2.86999989
   16.88555527  108.64099884    2.28999996    2.84999990
   16.88861084  105.30100250    2.48000002    2.86999989
   16.89194489  109.55300140    2.57999992    2.84999990
   16.89527702  105.96900177    2.42000008    2.84999990
   16.89833260   95.17400360    2.39000010    2.84999990
   16.90166664  105.58200073    2.39000010    2.86999989
   16.90472221  106.26799774    2.73000002    2.86999989
   16.90805435  102.70500183    2.51999998    2.86999989
   16.90861130   98.18470001    2.51999998    2.86999989
   16.91388893   98.18470001    2.30999994    2.86999989
   16.91805458  101.14600372    2.21000004    2.86999989
   16.92138863   99.03610229    2.11999989    2.86999989
   16.92444420  104.17900085    2.03999996    2.86999989
   16.92777634  101.82800293    2.01999998    2.86999989
   16.93111038  100.56199646    2.01999998    2.86999989
   16.93416595  104.88400269    2.01999998    2.86999989
   16.93750000  103.46800232    2.00000000    2.86999989
   16.94055557  114.48799896    1.96000004    2.86999989
   16.94194412  105.34799957    1.98000002    2.86999989
   16.94444275  108.37300110    1.98000002    2.86999989
   16.94749832  111.73400116    2.00000000    2.86999989
   16.95083427  101.45999908    1.96000004    2.86999989
   16.95666695  101.45999908    1.88000000    2.86999989
   16.96083450  113.26699829    1.85000002    2.86999989
   16.96416664  104.05999756    1.83000004    2.86999989
   16.96750069  111.39399719    1.80999994    2.86999989
   16.97055626  113.77799988    1.78999996    2.86999989
   16.97389030  117.45800018    1.78999996    2.89000010
   16.97527885  114.05000305    1.78999996    2.86999989
   16.97750092  109.51399994    1.78999996    2.91000009
   16.98083305  110.47799683    1.78999996    2.89000010
   16.98388863  112.89800262    1.80999994    2.86999989
   16.98722267  103.81300354    1.85000002    2.86999989
   16.99027824  100.27500153    1.86000001    2.89000010
   16.99361229  111.83399963    1.88000000    2.89000010
   16.99972153  111.83399963    1.96000004    2.86999989
   17.00388908  112.32299805    2.01999998    2.86999989
   17.00694466  102.30599976    2.01999998    2.86999989
   17.00861168  114.78399658    2.01999998    2.86999989
   17.01055527  113.79100037    2.03999996    2.86999989
   17.01361084  107.56300354    2.07999992    2.86999989
   17.01694489  119.11000061    2.11999989    2.86999989
   17.02027702  106.62500000    2.13000011    2.84999990
   17.02333260  119.14700317    2.15000010    2.86999989
   17.02666664  107.15599823    2.15000010    2.84999990
   17.03000069  114.52300262    2.19000006    2.84999990
   17.03305435  114.48000336    2.25000000    2.84999990
   17.03638840  108.64700317    2.25000000    2.84999990
   17.04249954  108.64700317    2.23000002    2.84999990
   17.04666710  113.20600128    0.23000000    0.50000000
   17.04972076  111.68499756    0.13000000    0.28000000
   17.05305481  108.84600067    0.13000000    0.28000000
   17.05638885  102.21499634    0.13000000    0.28000000
   17.05944443  114.14499664    0.13000000    0.28000000
   17.06277657  103.56500244    0.13000000    0.28000000
   17.06611061  106.66400146    0.13000000    0.28000000
   17.06916809  107.64499664    0.13000000    0.28000000
   17.07250023  111.62599945    0.13000000    0.28000000
   17.07527924  103.86799622    0.13000000    0.28000000
   17.07611275  106.46900177    0.13000000    0.28000000
   17.07916832   98.39230347    0.13000000    0.28000000
   17.08527756   98.39230347    0.13000000    0.28000000
   17.08944511  106.95700073    0.13000000    0.28000000
   17.09277916  101.27700043    0.13000000    0.28000000
   17.09583473  100.61199951    0.13000000    0.28000000
   17.09916687  103.33100128    0.13000000    0.28000000
   17.10222244   99.95079803    0.13000000    0.28000000
   17.10555649  105.18000031    0.13000000    0.28000000
   17.10861206  109.80400085    0.13000000    0.28000000
   17.10916710  113.00700378    0.13000000    0.28000000
   17.11222267  114.99099731    0.13000000    0.28000000
   17.11555672  105.21700287    0.13000000    0.28000000
   17.11888885  101.69999695    0.13000000    0.28000000
   17.12194443  111.58100128    0.13000000    0.28000000
   17.12805557  111.58100128    0.13000000    0.28000000
   17.13222313  111.45500183    0.13000000    0.28000000
   17.13555527  106.63999939    0.13000000    0.28000000
   17.13861084  104.62500000    0.13000000    0.28000000
   17.14194489  102.98500061    0.13000000    0.28000000
   17.14249992  109.48200226    0.13000000    0.28000000
   17.14555550  113.96399689    0.13000000    0.28000000
   17.14888954  108.04100037    0.13000000    0.28000000
   17.15222168  103.12500000    0.13000000    0.28000000
   17.15527725  120.83999634    0.13000000    0.28000000
   17.15861130  118.78800201    0.13000000    0.28000000
   17.16194344  116.86599731    0.13000000    0.28000000
   17.16499901  110.00499725    0.13000000    0.28000000
   17.17111015  110.00499725    0.13000000    0.28000000
   17.17499924  118.23300171    0.13000000    0.28000000
   17.17555428  114.66000366    0.13000000    0.28000000
   17.17888832  114.34300232    0.13000000    0.28000000
   17.18222237  113.46299744    0.13000000    0.28000000
   17.18527603  108.70300293    0.13000000    0.28000000
   17.18861008  104.92299652    0.13000000    0.28000000
   17.19194412  118.28099823    0.13000000    0.28000000
   17.19499969  112.65100098    0.13000000    0.28000000
   17.19833183  103.16999817    0.13000000    0.28000000
   17.20138931  105.94200134    0.13000000    0.28000000
   17.20472336  105.87899780    0.13000000    0.28000000
   17.20805550  105.43099976    0.13000000    0.28000000
   17.20888901  113.54100037    0.13000000    0.28000000
   17.21389008  113.54100037    0.13000000    0.28000000
   17.21805573  108.24600220    0.13000000    0.28000000
   17.22111130  105.34100342    0.13000000    0.28000000
   17.22444534  116.69000244    0.13000000    0.28000000
   17.22777748  112.44100189    0.13000000    0.28000000
   17.23083305  120.30999756    0.13000000    0.28000000
   17.23416710  114.86900330    0.13000000    0.28000000
   17.23750114  106.58799744    0.13000000    0.28000000
   17.24055672  106.86900330    0.13000000    0.28000000
   17.24222183  119.14099884    0.13000000    0.28000000
   17.24416733  116.53399658    0.13000000    0.28000000
   17.24749947  103.95300293    0.13000000    0.28000000
   17.25055504  107.83799744    0.13000000    0.28000000
   17.25666618  107.83799744    0.13000000    0.28000000
   17.26083374  104.09999847    0.13000000    0.28000000
   17.26416588  107.86100006    0.13000000    0.28000000
   17.26722145  105.48600006    0.13000000    0.28000000
   17.27055550  105.50099945    0.13000000    0.28000000
   17.27361107  106.52600098    0.13000000    0.28000000
   17.27555466  100.77799988    0.13000000    0.28000000
   17.27750015  104.34200287    0.13000000    0.28000000
   17.28083229  105.28900146    0.13000000    0.28000000
   17.28388786  115.19400024    0.13000000    0.28000000
   17.28722191  112.21499634    0.13000000    0.28000000
   17.29055595  108.95200348    0.13000000    0.28000000
   17.29361153  118.71299744    0.13000000    0.28000000
   17.29944420  118.71299744    0.13000000    0.28000000
   17.30360985  107.52700043    0.13000000    0.28000000
   17.30694389  109.46399689    0.13000000    0.28000000
   17.30888748  109.17900085    0.13000000    0.28000000
   17.31055450  101.61000061    0.13000000    0.28000000
   17.31388855  108.94400024    0.13000000    0.28000000
   17.31694603  105.26300049    0.13000000    0.28000000
   17.32027817  106.88999939    0.13000000    0.28000000
   17.32361221  108.96700287    0.13000000    0.28000000
   17.32666779  112.55000305    0.13000000    0.28000000
   17.33000183  105.91600037    0.13000000    0.28000000
   17.33305550  108.21299744    0.13000000    0.28000000
   17.33638954  107.88899994    0.13000000    0.28000000
   17.34250069  107.88899994    0.13000000    0.28000000
   17.34638977  107.64700317    0.13000000    0.28000000
   17.34972191  109.05899811    0.13000000    0.28000000
   17.35305595  105.09100342    0.13000000    0.28000000
   17.35611153  109.60700226    0.13000000    0.28000000
   17.35944557  108.61299896    0.13000000    0.28000000
   17.36277771  117.74600220    0.13000000    0.28000000
   17.36583328  109.41000366    0.13000000    0.28000000
   17.36916733  115.26300049    0.13000000    0.28000000
   17.37222290  108.08499908    0.13000000    0.28000000
   17.37555504  115.45600128    0.13000000    0.28000000
   17.37611198  113.33399963    0.13000000    0.28000000
   17.37944412  105.41500092    0.13000000    0.28000000
   17.38527679  105.41500092    0.13000000    0.28000000
   17.38944435  111.57599640    0.13000000    0.28000000
   17.39249992  105.46499634    0.13000000    0.28000000
   17.39583397  104.93099976    0.13000000    0.28000000
   17.39916611  107.94200134    0.13000000    0.28000000
   17.40222168  103.53600311    0.13000000    0.28000000
   17.40555573  103.08399963    0.13000000    0.28000000
   17.40861130  102.45300293    0.13000000    0.28000000
   17.40944481  106.95200348    0.13000000    0.28000000
   17.41250038  101.36499786    0.13000000    0.28000000
   17.41555595  104.92600250    0.13000000    0.28000000
   17.41888809  103.16600037    0.13000000    0.28000000
   17.42222214  112.15499878    0.13000000    0.28000000
   17.42805481  112.15499878    0.13000000    0.28000000
   17.43222237  106.02899933    0.13000000    0.28000000
   17.43555450   99.16999817    0.13000000    0.28000000
   17.43861008   98.53119659    0.13000000    0.28000000
   17.44194412  102.70600128    0.13000000    0.28000000
   17.44277763  102.77999878    0.13000000    0.28000000
   17.44555473  111.39099884    0.13000000    0.28000000
   17.44861031  107.19000244    0.13000000    0.28000000
   17.45194435  101.96399689    0.13000000    0.28000000
   17.45527840  104.57499695    0.13000000    0.28000000
   17.45833397  105.34100342    0.13000000    0.28000000
   17.46166801  105.99500275    0.13000000    0.28000000
   17.46472359  110.99400330    0.13000000    0.28000000
   17.47083473  110.99400330    0.13000000    0.28000000
   17.47500038  115.18399811    0.13000000    0.28000000
   17.47611237  117.69200134    0.13000000    0.28000000
   17.47888947  114.80500031    0.13000000    0.28000000
   17.48194504  111.90499878    0.13000000    0.28000000
   17.48527718  111.58899689    0.13000000    0.28000000
   17.48861122  111.98300171    0.13000000    0.28000000
   17.49166679  107.69899750    0.13000000    0.28000000
   17.49500084  112.35299683    0.13000000    0.28000000
   17.49805641  122.05400085    0.13000000    0.28000000
   17.50138855  113.70400238    0.13000000    0.28000000
   17.50472260  112.07599640    0.13000000    0.28000000
   17.50777817  111.85600281    0.13000000    0.28000000
   17.50944519  107.34200287    0.13000000    0.28000000
   17.51388931  107.34200287    0.13000000    0.28000000
   17.51777840  106.38999939    0.13000000    0.28000000
   17.52111053  115.58699799    0.13000000    0.28000000
   17.52444458  119.79799652    0.13000000    0.28000000
   17.52750015  122.03399658    0.13000000    0.28000000
   17.53083229  116.92299652    0.13000000    0.28000000
   17.53416634  120.25900269    0.13000000    0.28000000
   17.53722191  100.91600037    0.13000000    0.28000000
   17.54055595  117.51699829    0.13000000    0.28000000
   17.54277802  118.19999695    0.13000000    0.28000000
   17.54416656  112.96399689    0.13000000    0.28000000
   17.54722214  118.37599945    0.13000000    0.28000000
   17.55055428  106.11499786    0.13000000    0.28000000
   17.55666542  106.11499786    0.13000000    0.28000000
   17.56083298  113.72599792    0.13000000    0.28000000
   17.56388855  108.48699951    0.13000000    0.28000000
   17.56722260  119.37300110    0.13000000    0.28000000
   17.57055664  114.50900269    0.13000000    0.28000000
   17.57361221  107.23000336    0.13000000    0.28000000
   17.57611275  120.06999969    0.13000000    0.28000000
   17.57750130  104.01499939    0.13000000    0.28000000
   17.58055687  109.19699860    0.13000000    0.28000000
   17.58388901  118.36699677    0.13000000    0.28000000
   17.58722305  111.06300354    0.13000000    0.28000000
   17.59027863  119.60399628    0.13000000    0.28000000
   17.59361267  112.56199646    0.13000000    0.28000000
   17.59944534  112.56199646    0.13000000    0.28000000
   17.60361099  112.26300049    0.13000000    0.28000000
   17.60694504  114.73500061    0.13000000    0.28000000
   17.60944557  111.73100281    0.13000000    0.28000000
   17.61055565  114.29900360    0.13000000    0.28000000
   17.61361122  108.88200378    0.13000000    0.28000000
   17.61694527  114.75399780    0.13000000    0.28000000
   17.62027740  113.43199921    0.13000000    0.28000000
   17.62333298  103.66699982    0.13000000    0.28000000
   17.62666702  107.95600128    0.13000000    0.28000000
   17.62972260  105.65899658    0.13000000    0.28000000
   17.63305473  117.08699799    0.13000000    0.28000000
   17.63638878  107.57099915    0.13000000    0.28000000
   17.64222145  107.57099915    0.13000000    0.28000000
   17.66083336  117.69899750    0.13000000    0.28000000
   17.66388893  108.50399780    0.13000000    0.28000000
   17.66722107  102.45300293    0.13000000    0.28000000
   17.67027664  113.52500153    0.13000000    0.28000000
   17.67361069  113.68099976    0.13000000    0.28000000
   17.67694473  115.81500244    0.13000000    0.28000000
   17.68000031  110.74500275    0.13000000    0.28000000
   17.68499947  110.74500275    0.13000000    0.28000000
   17.68916512  118.57700348    0.13000000    0.28000000
   17.69249916  107.49700165    0.13000000    0.28000000
   17.69388771  120.73200226    0.13000000    0.28000000
   17.69610977  112.11699677    0.13000000    0.28000000
   17.69944382  115.60600281    0.13000000    0.28000000
   17.70250130  112.11299896    0.13000000    0.28000000
   17.70583344  115.78600311    0.13000000    0.28000000
   17.70916748  113.73600006    0.13000000    0.28000000
   17.71222305  113.44699860    0.13000000    0.28000000
   17.71555710  109.58200073    0.13000000    0.28000000
   17.71888924  124.66999817    0.13000000    0.28000000
   17.72194481  199.63900757    0.13000000    0.28000000
   17.72805595  199.63900757    0.13000000    0.28000000
   17.73222351  104.76999664    0.13000000    0.28000000
   17.73527718  106.85500336    0.13000000    0.28000000
   17.73861122  108.24199677    0.13000000    0.28000000
   17.74194527  117.38200378    0.13000000    0.28000000
   17.74500084  116.53700256    0.13000000    0.28000000
   17.74833298  116.83599854    0.13000000    0.28000000
   17.75166702  112.43900299    0.13000000    0.28000000
   17.75472260  110.50399780    0.13000000    0.28000000
   17.75805473  107.78800201    0.13000000    0.28000000
   17.76055527  107.68599701    0.13000000    0.28000000
   17.76166725  104.96199799    0.13000000    0.28000000
   17.76499939  103.72899628    0.13000000    0.28000000
   17.77083397  103.72899628    0.13000000    0.28000000
   17.77499962  104.26200104    0.13000000    0.28000000
   17.77805519  116.73600006    0.13000000    0.28000000
   17.78138924  103.34999847    0.13000000    0.28000000
   17.78472137  102.17199707    0.13000000    0.28000000
   17.78777695  105.39099884    0.13000000    0.28000000
   17.79111099  103.86699677    0.13000000    0.28000000
   17.79388809  101.22000122    0.13000000    0.28000000
   17.79472160  103.92900085    0.13000000    0.28000000
   17.79805565  102.04499817    0.13000000    0.28000000
   17.80111122  106.58599854    0.13000000    0.28000000
   17.80444336  103.97799683    0.13000000    0.28000000
   17.80777740  100.69100189    0.13000000    0.28000000
   17.81361008  100.69100189    0.13000000    0.28000000
   17.81777954  105.51999664    0.13000000    0.28000000
   17.82111168  106.10500336    0.13000000    0.28000000
   17.82416725  104.37200165    0.13000000    0.28000000
   17.82722282   98.03559875    0.13000000    0.28000000
   17.82777786  107.79799652    0.13000000    0.28000000
   17.83111191  108.24500275    0.13000000    0.28000000
   17.83444595  105.87100220    0.13000000    0.28000000
   17.83750153   99.26640320    0.13000000    0.28000000
   17.84083366  100.63200378    0.13000000    0.28000000
   17.84388924  106.13999939    0.13000000    0.28000000
   17.84722328  102.48799896    0.13000000    0.28000000
   17.85055542   98.94239807    0.13000000    0.28000000
   17.85639000   98.94239807    0.13000000    0.28000000
   17.86055565  105.33999634    0.13000000    0.28000000
   17.86388969  101.98799896    0.13000000    0.28000000
   17.86722183   98.81490326    0.13000000    0.28000000
   17.87027740  106.09400177    0.13000000    0.28000000
   17.87361145  104.60199738    0.13000000    0.28000000
   17.87666702  102.19300079    0.13000000    0.28000000
   17.88000107   99.08979797    0.13000000    0.28000000
   17.88333321  109.23600006    0.13000000    0.28000000
   17.88638878  117.80500031    0.13000000    0.28000000
   17.88972282   99.78559875    0.13000000    0.28000000
   17.89305496  112.05500031    0.13000000    0.28000000
   17.89388847  106.60399628    0.13000000    0.28000000
   17.89944458  106.60399628    0.13000000    0.28000000
   17.90361023  111.28700256    0.13000000    0.28000000
   17.90666580  102.04399872    0.13000000    0.28000000
   17.90999985  106.42500305    0.13000000    0.28000000
   17.91333389  105.95099640    0.13000000    0.28000000
   17.91638756  111.21600342    0.13000000    0.28000000
   17.91972160  108.96299744    0.13000000    0.28000000
   17.92277718  105.69100189    0.13000000    0.28000000
   17.92611122  108.07199860    0.13000000    0.28000000
   17.92722130  105.11699677    0.13000000    0.28000000
   17.92972183  101.79199982    0.13000000    0.28000000
   17.93305397  103.47200012    0.13000000    0.28000000
   17.93638802  103.28399658    0.13000000    0.28000000
   17.94222069  103.28399658    0.13000000    0.28000000
   17.94638824  105.68399811    0.13000000    0.28000000
   17.94944382  104.37999725    0.13000000    0.28000000
   17.95277786  100.89800262    0.13000000    0.28000000
   17.95611191  101.86000061    0.13000000    0.28000000
   17.95916748  110.69999695    0.13000000    0.28000000
   17.96055603  113.57399750    0.13000000    0.28000000
   17.96277809  103.06500244    0.13000000    0.28000000
   17.96611214  110.36100006    0.13000000    0.28000000
   17.96944427  109.88899994    0.13000000    0.28000000
   17.97249985  113.55300140    0.13000000    0.28000000
   17.97583389  113.66899872    0.13000000    0.28000000
   17.97888947  106.40699768    0.13000000    0.28000000
   17.98500061  106.40699768    0.13000000    0.28000000
   17.98916626  103.93399811    0.13000000    0.28000000
   17.99250031  105.08999634    0.13000000    0.28000000
   17.99388885  103.62699890    0.13000000    0.28000000
   17.99583435  107.48500061    0.13000000    0.28000000
   17.99916649  109.69599915    0.13000000    0.28000000
   18.00250053  101.99099731    0.13000000    0.28000000
   18.00555611   97.23529816    0.13000000    0.28000000
   18.00888824   97.48120117    0.13000000    0.28000000
   18.01194382   97.90840149    0.13000000    0.28000000
   18.01527786  103.04900360    0.13000000    0.28000000
   18.01861000  103.50499725    0.13000000    0.28000000
   18.02166557  107.88600159    0.13000000    0.28000000
   18.02805519  107.88600159    0.13000000    0.28000000
   18.03194427  110.17600250    0.13000000    0.28000000
   18.03527641  103.55799866    0.13000000    0.28000000
   18.03861046  116.09799957    0.13000000    0.28000000
   18.04166603  105.98400116    0.13000000    0.28000000
   18.04500008  112.32800293    0.13000000    0.28000000
   18.04833221  120.68399811    0.13000000    0.28000000
   18.05138779  119.54599762    0.13000000    0.28000000
   18.05472183  108.16699982    0.13000000    0.28000000
   18.05777740  114.46800232    0.13000000    0.28000000
   18.06055450  107.74199677    0.13000000    0.28000000
   18.06138802  105.60199738    0.13000000    0.28000000
   18.06472206  110.50900269    0.13000000    0.28000000
   18.07083511  110.50900269    0.13000000    0.28000000
   18.07500076  100.50700378    0.13000000    0.28000000
   18.07805634   94.42810059    0.13000000    0.28000000
   18.08139038  100.47599792    0.13000000    0.28000000
   18.08472252  116.80100250    0.13000000    0.28000000
   18.08777809  107.83799744    0.13000000    0.28000000
   18.09111214  106.24099731    0.13000000    0.28000000
   18.09388924  101.81400299    0.13000000    0.28000000
   18.09472275  104.90100098    0.13000000    0.28000000
   18.09805679   97.44229889    0.13000000    0.28000000
   18.10138893   97.72619629    0.13000000    0.28000000
   18.10444450  113.46700287    0.13000000    0.28000000
   18.10777855   99.66159821    0.13000000    0.28000000
   18.11361122   99.66159821    0.13000000    0.28000000
   18.11777878  100.53900146    0.13000000    0.28000000
   18.12083435  102.66200256    0.13000000    0.28000000
   18.12416649  104.95999908    0.13000000    0.28000000
   18.12722206   97.20439911    0.13000000    0.28000000
   18.12777710  108.36299896    0.13000000    0.28000000
   18.13111115  102.71600342    0.13000000    0.28000000
   18.13444519  110.07199860    0.13000000    0.28000000
   18.13750076  108.89700317    0.13000000    0.28000000
   18.14083290  101.09100342    0.13000000    0.28000000
   18.14388847  103.78299713    0.13000000    0.28000000
   18.14722252   99.43879700    0.13000000    0.28000000
   18.15055466  105.57099915    0.13000000    0.28000000
   18.15638924  105.57099915    0.13000000    0.28000000
   18.16055489  109.25700378    0.13000000    0.28000000
   18.16388893  111.47399902    0.13000000    0.28000000
   18.16722107   99.16049957    0.13000000    0.28000000
   18.17027664  105.89499664    0.13000000    0.28000000
   18.17361069  108.69000244    0.13000000    0.28000000
   18.17666626  103.62100220    0.13000000    0.28000000
   18.18000031  101.78600311    0.13000000    0.28000000
   18.18333244  100.81999969    0.13000000    0.28000000
   18.18638802  108.18099976    0.13000000    0.28000000
   18.18972206   96.44819641    0.13000000    0.28000000
   18.19305420  100.04799652    0.13000000    0.28000000
   18.19388771  107.78600311    0.13000000    0.28000000
   18.19916534  107.78600311    0.13000000    0.28000000
   18.20333481  100.62400055    0.13000000    0.28000000
   18.20666695   96.30639648    0.13000000    0.28000000
   18.21000099  104.19699860    0.13000000    0.28000000
   18.21305656  105.15599823    0.13000000    0.28000000
   18.21638870  104.23600006    0.13000000    0.28000000
   18.21944427  100.82199860    0.13000000    0.28000000
   18.22277832  105.97599792    0.13000000    0.28000000
   18.22611237  105.63700104    0.13000000    0.28000000
   18.22722244  102.61399841    0.13000000    0.28000000
   18.22944450  109.92800140    0.13000000    0.28000000
   18.23277855  109.45600128    0.13000000    0.28000000
   18.23611069  107.60900116    0.13000000    0.28000000
   18.24222183  107.60900116    0.13000000    0.28000000
   18.24638939  111.76499939    0.13000000    0.28000000
   18.24944496  103.42299652    0.13000000    0.28000000
   18.25277710  106.86799622    0.13000000    0.28000000
   18.25583267  108.87000275    0.13000000    0.28000000
   18.25916672  103.83000183    0.13000000    0.28000000
   18.26055527  117.67099762    0.13000000    0.28000000
   18.26277733  109.22899628    0.13000000    0.28000000
   18.26611137  114.88400269    0.13000000    0.28000000
   18.26944351   97.54940033    0.13000000    0.28000000
   18.27249908  105.62400055    0.13000000    0.28000000
   18.27583313   99.94259644    0.13000000    0.28000000
   18.27916718   96.23889923    0.13000000    0.28000000
   18.28499985   96.23889923    0.13000000    0.28000000
   18.28916550   97.27770233    0.13000000    0.28000000
   18.29222107  110.04100037    0.13000000    0.28000000
   18.29388809  105.37799835    0.13000000    0.28000000
   18.29583359  106.39800262    0.13000000    0.28000000
   18.29916573  113.10199738    0.13000000    0.28000000
   18.30249977  120.79699707    0.13000000    0.28000000
   18.30555534  105.86699677    0.13000000    0.28000000
   18.30888748  116.32399750    0.13000000    0.28000000
   18.31222153  103.18699646    0.13000000    0.28000000
   18.31527710  108.21900177    0.13000000    0.28000000
   18.31861115  115.84500122    0.13000000    0.28000000
   18.32166672  102.34999847    0.13000000    0.28000000
   18.32777786  102.34999847    0.13000000    0.28000000
   18.33194542  110.85900116    0.13000000    0.28000000
   18.33527756  122.68800354    0.13000000    0.28000000
   18.33833313  117.45400238    0.13000000    0.28000000
   18.34166718  106.15899658    0.13000000    0.28000000
   18.34500122  118.93399811    0.13000000    0.28000000
   18.34805679  110.39900208    0.13000000    0.28000000
   18.35138893  109.10299683    0.13000000    0.28000000
   18.35444450  103.69300079    0.13000000    0.28000000
   18.35777855  107.11199951    0.13000000    0.28000000
   18.36055565  104.10099792    0.13000000    0.28000000
   18.36166763  111.59799957    0.13000000    0.28000000
   18.36472321  109.19100189    0.13000000    0.28000000
   18.37055588  109.19100189    0.13000000    0.28000000
   18.37472153  104.60199738    0.13000000    0.28000000
   18.37805557  105.87100220    0.13000000    0.28000000
   18.38138962   98.24690247    0.13000000    0.28000000
   18.38444519   99.42939758    0.13000000    0.28000000
   18.38777733   94.90489960    0.13000000    0.28000000
   18.39083290   97.19609833    0.13000000    0.28000000
   18.39388847  101.29000092    0.13000000    0.28000000
   18.39472198  105.91799927    0.13000000    0.28000000
   18.39777756  105.12599945    0.13000000    0.28000000
   18.40111160   91.73660278    0.13000000    0.28000000
   18.40416718  109.14600372    0.13000000    0.28000000
   18.40749931  106.26699829    0.13000000    0.28000000
   18.41361046  106.26699829    0.13000000    0.28000000
   18.41777802   98.49700165    0.13000000    0.28000000
   18.42083359  102.16600037    0.13000000    0.28000000
   18.42416573  107.78700256    0.13000000    0.28000000
   18.42722130  111.49199677    0.13000000    0.28000000
   18.42777634   98.35959625    0.13000000    0.28000000
   18.43083191   96.16709900    0.13000000    0.28000000
   18.43416595   99.22139740    0.13000000    0.28000000
   18.43722153  100.79000092    0.13000000    0.28000000
   18.44055557  100.53199768    0.13000000    0.28000000
   18.44388771   97.85410309    0.13000000    0.28000000
   18.44694328  102.16699982    0.13000000    0.28000000
   18.45027924  111.74299622    0.13000000    0.28000000
   18.45639038  111.74299622    0.13000000    0.28000000
   18.46055603  116.17199707    0.13000000    0.28000000
   18.46111107  105.92500305    0.13000000    0.28000000
   18.46416664  112.55400085    0.13000000    0.28000000
   18.46750069  111.64399719    0.13000000    0.28000000
   18.47055626  107.93800354    0.13000000    0.28000000
   18.47389030  106.58399963    0.13000000    0.28000000
   18.47722244  102.46700287    0.13000000    0.28000000
   18.48027802  109.14199829    0.13000000    0.28000000
   18.48361206  104.67900085    0.13000000    0.28000000
   18.48694420   98.37439728    0.13000000    0.28000000
   18.48999977  110.58599854    0.13000000    0.28000000
   18.49333382  105.80999756    0.13000000    0.28000000
   18.49388885   97.73310089    0.13000000    0.28000000
   18.49916649   97.73310089    0.13000000    0.28000000
   18.50333405  102.28199768    0.13000000    0.28000000
   18.50666618  104.32700348    0.13000000    0.28000000
   18.50972176  105.29100037    0.13000000    0.28000000
   18.51305580  110.04699707    0.13000000    0.28000000
   18.51638794   98.33899689    0.13000000    0.28000000
   18.51944351  105.46800232    0.13000000    0.28000000
   18.52277756  100.15599823    0.13000000    0.28000000
   18.52611160   97.41570282    0.13000000    0.28000000
   18.52722168  112.33300018    0.13000000    0.28000000
   18.52972221  105.59200287    0.13000000    0.28000000
   18.53277779  113.39700317    0.13000000    0.28000000
   18.53610992  107.57099915    0.13000000    0.28000000
   18.54194450  107.57099915    0.13000000    0.28000000
   18.54611015  102.75299835    0.13000000    0.28000000
   18.54944420  104.45500183    0.13000000    0.28000000
   18.55277634  106.03199768    0.13000000    0.28000000
   18.55583191  103.99800110    0.13000000    0.28000000
   18.55916595  111.99800110    0.13000000    0.28000000
   18.56055450   96.48259735    0.13000000    0.28000000
   18.56277657  112.13099670    0.13000000    0.28000000
   18.56583214  110.13800049    0.13000000    0.28000000
   18.56916809   98.41230011    0.13000000    0.28000000
   18.57250023   92.06800079    0.13000000    0.28000000
   18.57555580  108.66000366    0.13000000    0.28000000
   18.57888985  105.94200134    0.13000000    0.28000000
   18.58500099  105.94200134    0.13000000    0.28000000
   18.58916664  111.98400116    0.13000000    0.28000000
   18.59222221  104.07599640    0.13000000    0.28000000
   18.59388924  115.21800232    0.13000000    0.28000000
   18.59611130  111.11299896    0.13000000    0.28000000
   18.59916687  105.72599792    0.13000000    0.28000000
   18.60250092  110.76899719    0.13000000    0.28000000
   18.60583305  113.82499695    0.13000000    0.28000000
   18.60888863   98.89779663    0.13000000    0.28000000
   18.61222267   88.86160278    0.13000000    0.28000000
   18.61527824   94.76280212    0.13000000    0.28000000
   18.61861038  115.08599854    0.13000000    0.28000000
   18.62194443  117.11299896    0.13000000    0.28000000
   18.62777710  117.11299896    0.13000000    0.28000000
   18.63194466  119.61799622    0.13000000    0.28000000
   18.63500023  107.46399689    0.13000000    0.28000000
   18.63833237  111.60700226    0.13000000    0.28000000
   18.64166641  116.52899933    0.13000000    0.28000000
   18.64472198  112.85299683    0.13000000    0.28000000
   18.64805603  107.68800354    0.13000000    0.28000000
   18.65138817  104.25499725    0.13000000    0.28000000
   18.65444374  105.84799957    0.13000000    0.28000000
   18.65777779   98.49019623    0.13000000    0.28000000
   18.66055489  111.20400238    0.13000000    0.28000000
   18.67749977  104.58399963    0.13000000    0.28000000
   18.68166542  104.58399963    0.13000000    0.28000000
   18.68583298  111.08499908    0.13000000    0.28000000
   18.68888855  113.47200012    0.13000000    0.28000000
   18.69222069   98.22049713    0.13000000    0.28000000
   18.69416618  103.21199799    0.13000000    0.28000000
   18.69610977   99.76319885    0.13000000    0.28000000
   18.69916534   98.42099762    0.13000000    0.28000000
   18.70250130  107.49800110    0.13000000    0.28000000
   18.70555687  112.11599731    0.13000000    0.28000000
   18.70888901  107.21700287    0.13000000    0.28000000
   18.71222305  109.24199677    0.13000000    0.28000000
   18.71527863  106.86199951    0.13000000    0.28000000
   18.71861076   96.41130066    0.13000000    0.28000000
   18.72444534   96.41130066    0.13000000    0.28000000
   18.72861099  105.59799957    0.13000000    0.28000000
   18.73194504  106.55200195    0.13000000    0.28000000
   18.73500061  102.39700317    0.13000000    0.28000000
   18.73833275  109.36799622    0.13000000    0.28000000
   18.74166679  107.01999664    0.13000000    0.28000000
   18.74472237  105.57099915    0.13000000    0.28000000
   18.74805641  105.65299988    0.13000000    0.28000000
   18.75111198  119.15599823    0.13000000    0.28000000
   18.75444412  109.62500000    0.13000000    0.28000000
   18.75777817  106.33799744    0.13000000    0.28000000
   18.76083374  105.53600311    0.13000000    0.28000000
   18.76111031  112.91500092    0.13000000    0.28000000
   18.76722145  112.91500092    0.13000000    0.28000000
   18.77138901  101.94499969    0.13000000    0.28000000
   18.77472115  109.82800293    0.13000000    0.28000000
   18.77805519  114.09200287    0.13000000    0.28000000
   18.78111076  103.51599884    0.13000000    0.28000000
   18.78444481  105.06199646    0.13000000    0.28000000
   18.78777695  101.75800323    0.13000000    0.28000000
   18.79083252  117.38899994    0.13000000    0.28000000
   18.79416656  110.73699951    0.13000000    0.28000000
   18.79444313  119.99400330    0.13000000    0.28000000
   18.79777718  105.93499756    0.13000000    0.28000000
   18.80111122  106.67800140    0.13000000    0.28000000
   18.80416679  101.66200256    0.13000000    0.28000000
   18.81027794  101.66200256    0.13000000    0.28000000
   18.81444359  123.02999878    0.13000000    0.28000000
   18.81750107  105.20300293    0.13000000    0.28000000
   18.82083511  111.08999634    0.13000000    0.28000000
   18.82389069  105.83300018    0.13000000    0.28000000
   18.82722282  118.89600372    0.13000000    0.28000000
   18.82777786  116.36499786    0.13000000    0.28000000
   18.83111191  111.00900269    0.13000000    0.28000000
   18.83416748  110.77400208    0.13000000    0.28000000
   18.83750153  113.41200256    0.13000000    0.28000000
   18.84083366  123.97200012    0.13000000    0.28000000
   18.84388924  116.04499817    0.13000000    0.28000000
   18.84722328  113.92199707    0.13000000    0.28000000
   18.85305595  113.92199707    0.13000000    0.28000000
   18.85722351  113.45700073    0.13000000    0.28000000
   18.86027908  107.23899841    0.13000000    0.28000000
   18.86111069  115.94300079    0.13000000    0.28000000
   18.86416626  110.27500153    0.13000000    0.28000000
   18.86722183  108.30799866    0.13000000    0.28000000
   18.87055588  102.29100037    0.13000000    0.28000000
   18.87388992  104.76899719    0.13000000    0.28000000
   18.87694550  105.11299896    0.13000000    0.28000000
   18.88027763  110.73100281    0.13000000    0.28000000
   18.88361168  107.72200012    0.13000000    0.28000000
   18.88666725  114.42500305    0.13000000    0.28000000
   18.88999939  106.79399872    0.13000000    0.28000000
   18.89583397  106.79399872    0.13000000    0.28000000
   18.89999962  110.59100342    0.13000000    0.28000000
   18.90333366  109.02999878    0.13000000    0.28000000
   18.90638924  113.86599731    0.13000000    0.28000000
   18.90972137  113.16600037    0.13000000    0.28000000
   18.91305542  106.87300110    0.13000000    0.28000000
   18.91611099  118.65499878    0.13000000    0.28000000
   18.91944313  109.35500336    0.13000000    0.28000000
   18.92249870  107.47699738    0.13000000    0.28000000
   18.92583275  114.62100220    0.13000000    0.28000000
   18.92777634  116.24500275    0.13000000    0.28000000
   18.92972183  113.58100128    0.13000000    0.28000000
   18.93277740  112.37100220    0.13000000    0.28000000
   18.93861008  112.37100220    0.13000000    0.28000000
   18.94277763  104.87799835    0.13000000    0.28000000
   18.94610977  104.02100372    0.13000000    0.28000000
   18.94944382  103.70300293    0.13000000    0.28000000
   18.95250130  121.91899872    0.13000000    0.28000000
   18.95583344  111.79299927    0.13000000    0.28000000
   18.95916748  108.20999908    0.13000000    0.28000000
   18.96111107  120.28500366    0.13000000    0.28000000
   18.96277809  112.14399719    0.13000000    0.28000000
   18.96583366  116.65699768    0.13000000    0.28000000
   18.96916771  106.66500092    0.13000000    0.28000000
   18.97249985  115.90599823    0.13000000    0.28000000
   18.97555542  112.30100250    0.13000000    0.28000000
   18.98166656  112.30100250    0.13000000    0.28000000
   18.98583412  110.49700165    0.13000000    0.28000000
   18.98888969  114.32700348    0.13000000    0.28000000
   18.99222183  113.38500214    0.13000000    0.28000000
   18.99444389  109.11900330    0.13000000    0.28000000
   18.99583435  116.26000214    0.13000000    0.28000000
   18.99888992  107.71199799    0.13000000    0.28000000
   19.00222206  106.56900024    0.13000000    0.28000000
   19.00555611  112.03500366    0.13000000    0.28000000
   19.00861168  113.11199951    0.13000000    0.28000000
   19.01194382  105.94200134    0.13000000    0.28000000
   19.01499939  109.40599823    0.13000000    0.28000000
   19.01833344  116.03700256    0.13000000    0.28000000
   19.02444458  116.03700256    0.13000000    0.28000000
   19.02861023  120.84899902    0.13000000    0.28000000
   19.03166580  120.74800110    0.13000000    0.28000000
   19.03499985  108.22200012    0.13000000    0.28000000
   19.03833199  105.57399750    0.13000000    0.28000000
   19.04138756  127.27999878    0.13000000    0.28000000
   19.04472160  122.98400116    0.13000000    0.28000000
   19.04805565  109.65299988    0.13000000    0.28000000
   19.05111122  121.09700012    0.13000000    0.28000000
   19.05444336  114.92800140    0.13000000    0.28000000
   19.05749893  109.56600189    0.13000000    0.28000000
   19.06083298  125.45200348    0.13000000    0.28000000
   19.06138802  115.79599762    0.13000000    0.28000000
   19.06722260  115.79599762    0.13000000    0.28000000
   19.07139015  108.70200348    0.13000000    0.28000000
   19.07472229  117.61900330    0.13000000    0.28000000
   19.07777786  117.32199860    0.13000000    0.28000000
   19.08111191  105.09100342    0.13000000    0.28000000
   19.08444595  117.80500031    0.13000000    0.28000000
   19.08750153  124.46499634    0.13000000    0.28000000
   19.09083366  116.05699921    0.13000000    0.28000000
   19.09388924  120.19999695    0.13000000    0.28000000
   19.09472275  121.79900360    0.13000000    0.28000000
   19.09777832  119.97299957    0.13000000    0.28000000
   19.10083389  120.59999847    0.13000000    0.28000000
   19.10416794  105.50800323    0.13000000    0.28000000
   19.11000061  105.50800323    0.13000000    0.28000000
   19.11416626  122.82199860    0.13000000    0.28000000
   19.11750031  123.92800140    0.13000000    0.28000000
   19.12083435  117.44799805    0.13000000    0.28000000
   19.12388992  115.52999878    0.13000000    0.28000000
   19.12722206  112.08399963    0.13000000    0.28000000
   19.12805557  120.44400024    0.13000000    0.28000000
   19.13083267  121.91500092    0.13000000    0.28000000
   19.13388824  129.40499878    0.13000000    0.28000000
   19.13722229  122.64700317    0.13000000    0.28000000
   19.14055634  126.02200317    0.13000000    0.28000000
