    HOUR (UT)   FLARE FACTOR    SKY TESTER    SUN TESTER
   11.40416622   -1.00000000   -1.00000000   -1.00000000
   11.53249931   87.70999908    4.90999985    1.91999996
   11.53555584   90.99060059    4.90999985    1.94000006
   11.53888893   91.01599884    4.90999985    1.91999996
   11.54222298   90.20700073    4.90999985    1.94000006
   11.54527855   96.69869995    4.90999985    1.94000006
   11.54861164   95.31359863    4.90999985    1.94000006
   11.55305576   95.31359863    4.90999985    1.94000006
   11.55722237   93.14980316    4.90999985    1.94000006
   11.56027794  104.94200134    4.90999985    1.96000004
   11.56361103   95.50019836    4.90999985    1.96000004
   11.56583309   96.52200317    4.90999985    1.96000004
   11.56722260   97.68119812    4.90999985    1.96000004
   11.57055569  103.87500000    4.90999985    1.96000004
   11.57361126   94.60050201    4.90999985    1.98000002
   11.57694435   95.07589722    4.90999985    1.98000002
   11.58027744   93.79979706    4.90999985    1.98000002
   11.58333302   95.36810303    4.90999985    1.98000002
   11.58666611   96.70089722    4.90999985    1.98000002
   11.59000015   97.99649811    4.90999985    2.00000000
   11.59555531   97.99649811    4.90999985    2.00000000
   11.59972191   88.75869751    4.90999985    2.01999998
   11.60277843   95.89569855    4.90999985    2.00000000
   11.60611153   91.12709808    4.90999985    2.01999998
   11.60944462   89.59410095    4.90999985    2.01999998
   11.61250019   91.93450165    4.90999985    2.01999998
   11.61583328   93.40319824    4.90999985    2.01999998
   11.61916637   92.85739899    4.90999985    2.01999998
   11.62222195   89.95120239    4.90999985    2.01999998
   11.62555599   91.65070343    4.90999985    2.03999996
   11.62861156   98.62570190    4.90999985    2.03999996
   11.63194466   88.58769989    4.90999985    2.03999996
   11.63249969   91.34200287    4.90999985    2.03999996
   11.63833332   91.34200287    4.90999985    2.03999996
   11.64249992   94.81710052    4.90999985    2.03999996
   11.64583302   87.71849823    4.90999985    2.01999998
   11.64888859   88.90660095    4.90999985    1.98000002
   11.65222168   98.88120270    4.90999985    1.96000004
   11.65555477   89.76239777    4.90999985    1.96000004
   11.65861034  102.65799713    4.90999985    1.94000006
   11.66194439   97.91449738    4.90999985    1.94000006
   11.66499996  100.50900269    4.90999985    1.94000006
   11.66583252   94.80570221    4.90999985    1.94000006
   11.66888905   88.09420013    4.90999985    1.96000004
   11.67194462   90.54399872    4.90999985    2.01999998
   11.67527771   93.60500336    4.90999985    2.05999994
   11.68111134   93.60500336    4.90999985    2.05999994
   11.68527794   92.79360199    4.90999985    2.05999994
   11.68861103   99.44909668    4.90999985    2.05999994
   11.69194412   93.45110321    4.90999985    2.05999994
   11.69499969   88.51640320    4.90999985    2.05999994
   11.69833374   95.32659912    4.90999985    2.07999992
   11.69916630   93.33679962    4.90999985    2.07999992
   11.70194435  100.70300293    4.90999985    2.07999992
   11.70499992   97.72000122    4.90999985    2.09999990
   11.70833302   87.88430023    4.90999985    2.09999990
   11.71166611   84.19010162    4.90999985    2.11999989
   11.71472168   90.37210083    4.90999985    2.11999989
   11.71805477   87.92070007    4.90999985    2.11999989
   11.72416592   87.92070007    4.90999985    2.13000011
   11.72833252   95.90080261    4.90999985    2.13000011
   11.73138809   86.65940094    4.90999985    2.13000011
   11.73249912   86.25409698    4.90999985    2.13000011
   11.73527813   84.32170105    4.90999985    2.13000011
   11.73833370   89.41960144    4.90999985    2.15000010
   11.74166679   91.67449951    4.90999985    2.15000010
   11.74499989   96.01280212    4.90999985    2.13000011
   11.74805546   93.71150208    4.90999985    2.15000010
   11.75138855   93.44419861    4.90999985    2.15000010
   11.75444412   96.84850311    4.90999985    2.17000008
   11.75777817   95.54049683    4.90999985    2.17000008
   11.76111126   90.04360199    4.90999985    2.17000008
   11.76694393   90.04360199    4.90999985    2.17000008
   11.77111053   98.43740082    4.90999985    2.17000008
   11.77444458  101.77200317    4.90999985    2.17000008
   11.77750015   99.03140259    4.90999985    2.17000008
   11.78083324   88.65309906    4.90999985    2.19000006
   11.78388977   98.80549622    4.90999985    2.19000006
   11.78722286   99.44889832    4.90999985    2.19000006
   11.79055595  107.06600189    4.90999985    2.19000006
   11.79361153   99.66919708    4.90999985    2.19000006
   11.79694462   89.57129669    4.90999985    2.19000006
   11.79916668  106.84799957    4.90999985    2.21000004
   11.80055618  101.60800171    4.90999985    2.21000004
   11.80361176  107.46600342    4.90999985    2.19000006
   11.80972195  107.46600342    4.90999985    2.21000004
   11.81388950   91.96389771    4.90999985    2.21000004
   11.81722260   92.16040039    4.90999985    2.21000004
   11.82027817   91.09439850    4.90999985    2.21000004
   11.82361126   83.93139648    4.90999985    2.23000002
   11.82694435   93.13819885    4.90999985    2.21000004
   11.82999992   85.43280029    4.90999985    2.23000002
   11.83249950   87.73349762    4.90999985    2.23000002
   11.83388901   92.47010040    4.90999985    2.23000002
   11.83694458   94.08219910    4.90999985    2.23000002
   11.84027767   89.22859955    4.90999985    2.23000002
   11.84361076   88.71369934    4.90999985    2.23000002
   11.84666634   85.23899841    4.90999985    2.25000000
   11.85249996   85.23899841    4.90999985    2.23000002
   11.85666752   92.86139679    4.90999985    2.25000000
   11.86000061   85.94629669    4.90999985    2.23000002
   11.86333370   91.66000366    4.90999985    2.25000000
   11.86583328   85.34480286    4.90999985    2.25000000
   11.86694431   94.40869904    4.90999985    2.25000000
   11.86999989   92.54630280    4.90999985    2.25000000
   11.87333393   84.21389771    4.90999985    2.25000000
   11.87666702   87.39910126    4.90999985    2.26999998
   11.87972260   97.97530365    4.90999985    2.26999998
   11.88305569   94.75240326    4.90999985    2.26999998
   11.88611126   85.40219879    4.90999985    2.26999998
   11.88944435   94.05280304    4.90999985    2.26999998
   11.89555550   94.05280304    4.90999985    2.26999998
   11.89972210   88.85970306    4.90999985    2.26999998
   11.90277767   98.45839691    4.90999985    2.26999998
   12.10722256   -1.00000000   -1.00000000   -1.00000000
   12.12805557  104.72599792    4.90999985    2.28999996
   12.13972187  115.22699738    4.90999985    2.28999996
   12.14305496  105.32800293    4.90999985    2.28999996
   12.14611053  101.50000000    4.90999985    2.28999996
   12.14944458  100.98500061    4.90999985    2.28999996
   12.15277767  115.86499786    4.90999985    2.28999996
   12.15694427  115.86499786    4.90999985    2.28999996
   12.16111088  104.59899902    4.90999985    2.28999996
   12.16166592   97.40940094    4.90999985    2.28999996
   12.16472149  101.13500214    4.90999985    2.28999996
   12.16805553  100.29399872    4.90999985    2.28999996
   12.17111111   98.75550079    4.90999985    2.28999996
   12.17444515   97.89800262    4.90999985    2.28999996
   12.17777824   92.57209778    4.90999985    2.28999996
   12.18083382   99.33409882    4.90999985    2.28999996
   12.18416691  117.78199768    4.90999985    2.28999996
   12.18722248   87.02899933    4.90999985    2.28999996
   12.19055557  102.14600372    4.90999985    2.28999996
   12.19388866  101.98999786    4.90999985    2.28999996
   12.19499969   85.67259979    4.90999985    2.28999996
   12.19999981   85.67259979    4.90999985    2.28999996
   12.20416641   91.98750305    4.90999985    2.28999996
   12.20722198   96.31040192    4.90999985    2.28999996
   12.21055508   92.06860352    4.90999985    2.28999996
   12.21361065   89.15950012    4.90999985    2.28999996
   12.21694374   92.84300232    4.90999985    2.28999996
   12.22027779   88.37100220    4.90999985    2.28999996
   12.22333336   85.67919922    4.90999985    2.28999996
   12.22666645   86.13300323    4.90999985    2.28999996
   12.22833252   89.72229767    4.90999985    2.28999996
   12.23027706   83.86119843    4.90999985    2.28999996
   12.23361111   86.90899658    4.90999985    2.28999996
   12.23666668   89.97609711    4.90999985    2.28999996
   12.24277782   89.97609711    4.90999985    2.28999996
   12.24694443   92.97480011    4.90999985    2.28999996
   12.25000000   91.33570099    4.90999985    2.28999996
   12.25333309   93.91149902    4.90999985    2.28999996
   12.25666714   87.17739868    4.90999985    2.28999996
   12.25972176   98.80819702    4.90999985    2.28999996
   12.26166630   86.78820038    4.90999985    2.28999996
   12.26333332   88.78639984    4.90999985    2.28999996
   12.26666641   86.88310242    4.90999985    2.28999996
   12.26972198   88.80139923    4.90999985    2.28999996
   12.27305508   85.77880096    4.90999985    2.28999996
   12.27638817   90.31710052    4.90999985    2.28999996
   12.27944374   91.03459930    4.90999985    2.28999996
   12.28555584   91.03459930    4.90999985    2.28999996
   12.28972244   84.72200012    4.90999985    2.28999996
   12.29305553   84.18689728    4.90999985    2.28999996
   12.29527855   85.97750092    4.90999985    2.28999996
   12.29666710   84.07089996    4.90999985    2.28999996
   12.30000019   85.92639923    4.90999985    2.28999996
   12.30305576   85.13099670    4.90999985    2.28999996
   12.30638885   84.15579987    4.90999985    2.28999996
   12.30972195   84.82530212    4.90999985    2.28999996
   12.31277752   86.23130035    4.90999985    2.28999996
   12.31611156   86.05310059    4.90999985    2.28999996
   12.31944466   84.82479858    4.90999985    2.28999996
   12.32250023   87.79879761    4.90999985    2.28999996
   12.32833290   87.79879761    4.90999985    2.28999996
   12.33249950   99.21900177    4.90999985    2.28999996
   12.33583260   92.70580292    4.90999985    2.28999996
   12.33916664   88.35669708    4.90999985    2.28999996
   12.34222221   98.02490234    4.90999985    2.28999996
   12.34555531   85.51889801    4.90999985    2.28999996
   12.34861088   89.68190002    4.90999985    2.28999996
   12.35194492   87.65850067    4.90999985    2.28999996
   12.35527802   87.95110321    4.90999985    2.28999996
   12.35833359   88.87960052    4.90999985    2.28999996
   12.36166668   86.01280212    4.90999985    2.28999996
   12.36361122   86.16570282    4.90999985    2.28999996
   12.36527824   92.29440308    4.90999985    2.28999996
   12.37138939   92.29440308    4.90999985    2.28999996
   12.37555599   93.72660065    4.90999985    2.28999996
   12.37861156   97.88610077    4.90999985    2.28999996
   12.38194466   88.65080261    4.90999985    2.28999996
   12.38500023   89.40059662    4.90999985    2.28999996
   12.38833332   95.12049866    4.90999985    2.28999996
   12.39166641   88.25509644    4.90999985    2.28999996
   12.39472198   89.69850159    4.90999985    2.28999996
   12.39694405   87.34100342    4.90999985    2.28999996
   12.39833355   95.24469757    4.90999985    2.28999996
   12.40166664   88.17720032    4.90999985    2.28999996
   12.40472221   89.19730377    4.90999985    2.28999996
   12.40805531   97.66889954    4.90999985    2.28999996
   12.41416645   97.66889954    4.90999985    2.28999996
   12.41833401   87.69650269    4.90999985    2.28999996
   12.42138958   90.67479706    4.90999985    2.28999996
   12.42472267  100.00800323    4.90999985    2.28999996
   12.42805576   84.36779785    4.90999985    2.28999996
   12.43027782   86.74530029    4.90999985    2.28999996
   12.43166733   87.00779724    4.90999985    2.28999996
   12.43500042   96.61640167    4.90999985    2.28999996
   12.43805599   94.20829773    4.90999985    2.28999996
   12.44138908   88.41459656    4.90999985    2.28999996
   12.44444466   90.54859924    4.90999985    2.28999996
   12.44777775   95.51809692    4.90999985    2.28999996
   12.45111084   91.92019653    4.90999985    2.28999996
   12.45694447   91.92019653    4.90999985    2.28999996
   12.46111107   93.28559875    4.90999985    2.28999996
   12.46361065   94.99150085    4.90999985    2.28999996
   12.46472168   85.37960052    4.90999985    2.28999996
   12.46805477   95.77559662    4.90999985    2.28999996
   12.47111034   87.95749664    4.90999985    2.28999996
   12.47444439   94.78269958    4.90999985    2.28999996
   12.47749996   93.94789886    4.90999985    2.28999996
   12.48083305   89.50879669    4.90999985    2.28999996
   12.48416710  101.58000183    4.90999985    2.28999996
   12.48722267   83.65699768    4.90999985    2.28999996
   12.49055576   87.76470184    4.90999985    2.28999996
   12.49388885   93.89880371    4.90999985    2.28999996
   12.49972248   93.89880371    4.90999985    2.28999996
   12.50388908   94.85209656    4.90999985    2.28999996
   12.50722218   98.28690338    4.90999985    2.28999996
   12.51027775   84.22450256    4.90999985    2.28999996
   12.51361084   84.94120026    4.90999985    2.28999996
   12.51694393   89.33779907    4.90999985    2.28999996
   12.51999950   88.74990082    4.90999985    2.28999996
   12.52333355   84.55989838    4.90999985    2.28999996
   12.52666664   87.32180023    4.90999985    2.28999996
   12.52972221   89.33799744    4.90999985    2.28999996
   12.53083324   99.48970032    4.90999985    2.28999996
   12.53333378   92.08679962    4.90999985    2.28999996
   12.53666687   88.34919739    4.90999985    2.28999996
   12.54277802   88.34919739    4.90999985    2.28999996
   12.54666710   98.05229950    4.90999985    2.28999996
   12.55000019   90.36250305    4.90999985    2.28999996
   12.55333328   86.18229675    4.90999985    2.28999996
   12.55638885   92.71080017    4.90999985    2.28999996
   12.55972195   93.10880280    4.90999985    2.28999996
   12.56305599   92.31819916    4.90999985    2.28999996
   12.56416702   88.97630310    4.90999985    2.28999996
   12.56638908   99.08869934    4.90999985    2.28999996
   12.56972218   92.22530365    4.90999985    2.28999996
   12.57305527   89.40170288    4.90999985    2.28999996
   12.57611084   99.85759735    4.90999985    2.28999996
   12.57944393   94.13279724    4.90999985    2.28999996
   12.58555508   94.13279724    4.90999985    2.28999996
   12.58972168   89.79399872    4.90999985    2.28999996
   12.59277725  102.72399902    4.90999985    2.28999996
   12.59611034   85.59380341    4.90999985    2.28999996
   12.59749985  101.87300110    4.90999985    2.28999996
   12.59972191   92.17620087    4.90999985    2.28999996
   12.60305595   97.78330231    4.90999985    2.28999996
   12.60611153   82.16790009    4.90999985    2.28999996
   12.60944462   90.61509705    4.90999985    2.28999996
   12.61277771   90.48840332    4.90999985    2.28999996
   12.61583328   89.98979950    4.90999985    2.28999996
   12.61916637   93.74939728    4.90999985    2.28999996
   12.62250042   86.58630371    4.90999985    2.28999996
   12.62833309   86.58630371    4.90999985    2.28999996
   12.63249969   95.28440094    4.90999985    2.28999996
   12.63583279   92.84030151    4.90999985    2.28999996
   12.63888836   85.87069702    4.90999985    2.28999996
   12.64222240  103.32099915    4.90999985    2.28999996
   12.64555550   88.79599762    4.90999985    2.28999996
   12.64861107   89.48660278    4.90999985    2.28999996
   12.65194416   93.56130219    4.90999985    2.28999996
   12.65527725   97.81230164    4.90999985    2.28999996
   12.65833282   84.58940125    4.90999985    2.28999996
   12.66166592   95.12259674    4.90999985    2.28999996
   12.66416645   95.66819763    4.90999985    2.28999996
   12.66527748   92.64499664    4.90999985    2.28999996
   12.67111111   92.64499664    4.90999985    2.28999996
   12.67527771   89.34790039    4.90999985    2.28999996
   12.67861176   89.89109802    4.90999985    2.28999996
   12.68194485   92.57340240    4.90999985    2.28999996
   12.68500042   91.43920135    4.90999985    2.28999996
   12.68833351   87.84750366    4.90999985    2.28999996
   12.69138908  105.09799957    4.90999985    2.28999996
   12.69472218   88.84059906    4.90999985    2.28999996
   12.69750023   91.02130127    4.90999985    2.28999996
   12.69833374   97.54419708    4.90999985    2.28999996
   12.70166683   93.70649719    4.90999985    2.28999996
   12.70472240   92.96209717    4.90999985    2.28999996
   12.70805550   93.75679779    4.90999985    2.28999996
   12.71416664   93.75679779    4.90999985    2.28999996
   12.71833324   92.23100281    4.90999985    2.28999996
   12.72138882   99.17559814    4.90999985    2.28999996
   12.72472191   90.45379639    4.90999985    2.28999996
   12.72777748   96.78700256    4.90999985    2.28999996
   12.73083305   87.91549683    4.90999985    2.28999996
   12.73166656   94.38120270    4.90999985    2.28999996
   12.73500061   91.51879883    4.90999985    2.28999996
   12.73805618   96.28579712    4.90999985    2.28999996
   12.74138927   93.87349701    4.90999985    2.28999996
   12.74472237   97.84790039    4.90999985    2.28999996
   12.74777794  101.27300262    4.90999985    2.28999996
   12.75111103   89.06349945    4.90999985    2.28999996
   12.75694466   89.06349945    4.90999985    2.28999996
   12.76111126   95.79170227    4.90999985    2.28999996
   12.76444435   89.68509674    4.90999985    2.28999996
   12.76472187   87.92479706    4.90999985    2.28999996
   12.76805496   88.17410278    4.90999985    2.28999996
   12.77111053   86.47160339    4.90999985    2.28999996
   12.77444458   90.55970001    4.90999985    2.28999996
   12.77777767   89.23639679    4.90999985    2.28999996
   12.78083324   90.00119781    4.90999985    2.28999996
   12.78416729   86.98020172    4.90999985    2.28999996
   12.78750038   87.13310242    4.90999985    2.28999996
   12.79055595   91.71219635    4.90999985    2.28999996
   12.79388905   86.69059753    4.90999985    2.28999996
   12.79972267   86.69059753    4.90999985    2.28999996
   12.80388927   82.86840057    4.90999985    2.28999996
   12.80722237   87.04039764    4.90999985    2.28999996
   12.81027794   88.00650024    4.90999985    2.28999996
   12.81361103   91.40709686    4.90999985    2.28999996
   12.81694412   92.10500336    4.90999985    2.28999996
   12.81999969   88.30229950    4.90999985    2.28999996
   12.82333374   88.63529968    4.90999985    2.28999996
   12.82638836   91.03649902    4.90999985    2.28999996
   12.82972240   86.09429932    4.90999985    2.28999996
   12.83111095   90.24459839    4.90999985    2.28999996
   12.83333302   87.67449951    4.90999985    2.28999996
   12.83666611   87.47480011    4.90999985    2.28999996
   12.84249973   87.47480011    4.90999985    2.28999996
   12.84666634   90.92739868    4.90999985    2.28999996
   12.85000038   89.24639893    4.90999985    2.28999996
   12.85333347   90.09940338    4.90999985    2.28999996
   12.85638905   83.20200348    4.90999985    2.28999996
   12.85972214   91.41300201    4.90999985    2.28999996
   12.86277771   89.54029846    4.90999985    2.28999996
   12.86444473   92.12750244    4.90999985    2.28999996
   12.86638927   87.43280029    4.90999985    2.28999996
   12.86972237   88.86599731    4.90999985    2.28999996
   12.87277794   89.76799774    4.90999985    2.28999996
   12.87611103   80.26770020    4.90999985    2.28999996
   12.87944412   94.96800232    4.90999985    2.28999996
   12.88555527   94.96800232    4.90999985    2.28999996
   12.88972187   84.14939880    4.90999985    2.28999996
   12.89277744   82.94349670    4.90999985    2.28999996
   12.89611053   83.92729950    4.90999985    2.28999996
   12.89777756   85.91169739    4.90999985    2.28999996
   12.89972210   91.51429749    4.90999985    2.28999996
   12.90305519   85.19799805    4.90999985    2.28999996
   12.90611076   91.56520081    4.90999985    2.28999996
   12.90944386   86.31659698    4.90999985    2.28999996
   12.91277695   92.01360321    4.90999985    2.28999996
   12.91583252   84.55940247    4.90999985    2.28999996
   12.91916656   84.89399719    4.90999985    2.28999996
   12.92222214   85.70709991    4.90999985    2.28999996
   12.92833328   85.70709991    4.90999985    2.28999996
   12.93249989   86.65019989    4.90999985    2.28999996
   12.93555546   93.73789978    4.90999985    2.28999996
   12.93888855   84.03130341    4.90999985    2.28999996
   12.94222260   90.18540192    4.90999985    2.28999996
   12.94527817   86.29010010    4.90999985    2.28999996
   12.94861126   85.51779938    4.90999985    2.28999996
   12.95194435   85.91049957    4.90999985    2.28999996
   12.95499992   86.17800140    4.90999985    2.28999996
   12.95833302   86.02149963    4.90999985    2.28999996
   12.96138859   86.62030029    4.90999985    2.28999996
   12.96444416   89.50420380    4.90999985    2.28999996
   12.96500015   85.39250183    4.90999985    2.28999996
   12.97111034   85.39250183    4.90999985    2.28999996
   12.97527695   85.84480286    4.90999985    2.28999996
   12.97861099   88.01909637    4.90999985    2.28999996
   12.98166656   84.57730103    4.90999985    2.28999996
   12.98500061   85.33599854    4.90999985    2.28999996
   12.98833370   84.96829987    4.90999985    2.28999996
   12.99138927   83.29959869    4.90999985    2.28999996
   12.99472237   84.84359741    4.90999985    2.28999996
   12.99777794   85.91419983    4.90999985    2.28999996
   12.99833393   84.98269653    4.90999985    2.28999996
   13.00166702   97.05100250    4.90999985    2.28999996
   13.00472260   88.39669800    4.90999985    2.28999996
   13.00805569   88.40899658    4.90999985    2.28999996
   13.01388931   88.40899658    4.90999985    2.28999996
   13.01805496   83.36630249    4.90999985    2.28999996
   13.02138901   84.20200348    4.90999985    2.28999996
   13.02472210   86.51399994    4.90999985    2.28999996
   13.02777767   92.57279968    4.90999985    2.28999996
   13.03111076   84.90070343    4.90999985    2.28999996
   13.03166676   85.38230133    4.90999985    2.28999996
   13.03472233   83.39289856    4.90999985    2.28999996
   13.03805637   84.43039703    4.90999985    2.28999996
   13.04138947   84.49349976    4.90999985    2.28999996
   13.04444504   84.36019897    4.90999985    2.28999996
   13.04777813   85.16639709    4.90999985    2.28999996
   13.05083370   82.22959900    4.90999985    2.28999996
   13.05694485   82.22959900    4.90999985    2.28999996
   13.06111145   81.01480103    4.90999985    2.28999996
   13.06416702   86.07140350    4.90999985    2.28999996
   13.06500053   81.83650208    4.90999985    2.28999996
   13.06777763   79.67050171    4.90999985    2.28999996
   13.07111073   82.05239868    4.90999985    2.28999996
   13.07444477   91.93779755    4.90999985    2.28999996
   13.07750034   87.13729858    4.90999985    2.28999996
   13.08083344   80.79589844    4.90999985    2.28999996
   13.08388901   88.21489716    4.90999985    2.28999996
   13.08722210  100.79299927    4.90999985    2.28999996
   13.09055519   82.16709900    4.90999985    2.28999996
   13.09361076   83.01480103    4.90999985    2.28999996
   13.09972191   83.01480103    4.90999985    2.28999996
   13.10388947   82.41010284    4.90999985    2.28999996
   13.10694504   83.82630157    4.90999985    2.28999996
   13.11027813   80.50910187    4.90999985    2.28999996
   13.11361122   79.12380219    4.90999985    2.28999996
   13.11666679   91.42089844    4.90999985    2.28999996
   13.11999989   82.99099731    4.90999985    2.28999996
   13.12333393   79.91239929    4.90999985    2.28999996
   13.12638855   79.51869965    4.90999985    2.28999996
   13.12972260   81.02449799    4.90999985    2.28999996
   13.13166714   79.24549866    4.90999985    2.28999996
   13.13333321   79.85630035    4.90999985    2.28999996
   13.13666630   82.49430084    4.90999985    2.28999996
   13.15777779   82.49430084    4.90999985    2.28999996
   13.16194439   86.75879669    4.90999985    2.28999996
   13.16499996   79.80159760    0.15000001    0.01000000
   13.16555500   82.17060089    0.15000001    0.01000000
   13.16861153   82.30120087    0.11000000    0.20999999
   13.17194462   82.51599884    0.11000000    0.20999999
   13.17527771   82.50180054    0.17000000    0.58999997
   13.17833328   88.66400146    0.38000000    2.64000010
   13.18166733   80.24919891    0.41999999    2.64000010
   13.18472195   82.67459869    0.44000000    2.66000009
   13.18805599   85.41500092    0.41999999    2.66000009
   13.19138908   80.64920044    0.40000001    2.66000009
   13.19444466   89.89849854    0.41999999    2.66000009
   13.20055580   89.89849854    0.44000000    2.66000009
   13.20444393   81.49810028    0.46000001    2.66000009
   13.20777798   82.08249664    0.47999999    2.66000009
   13.21111107   83.89330292    0.47999999    2.66000009
   13.21416664   87.68099976    0.46000001    2.66000009
   13.21749973   87.38870239    0.44000000    2.66000009
   13.22083282   82.11109924    0.44000000    2.66000009
   13.22388840   85.75129700    0.41999999    2.67000008
   13.22722149   84.07939911    0.44000000    2.67000008
   13.23055553   85.63590240    0.41999999    2.67000008
   13.23166656   79.05290222    0.41999999    2.67000008
   13.23416710   91.51719666    0.41999999    2.67000008
   13.23722267   80.97930145    0.40000001    2.67000008
   13.24333382   80.97930145    0.40000001    2.67000008
   13.24750042   93.09249878    0.40000001    2.67000008
   13.25055599   82.16549683    0.40000001    2.67000008
   13.25388908   95.50330353    0.40000001    2.67000008
   13.25722218   84.94460297    0.40000001    2.67000008
   13.26027775   82.45069885    0.40000001    2.67000008
   13.26361084   82.48509979    0.40000001    2.67000008
   13.26500034   85.16200256    0.40000001    2.67000008
   13.26722240   80.93820190    0.40000001    2.67000008
   13.27027798   78.14559937    0.38000000    2.67000008
   13.27361107   78.09149933    0.38000000    2.67000008
   13.27694416   84.01219940    0.40000001    2.67000008
   13.27999973   83.60829926    0.40000001    2.67000008
   13.28611183   83.60829926    0.40000001    2.67000008
   13.29027843   87.16390228    0.40000001    2.67000008
   13.29361153   80.45919800    0.40000001    2.67000008
   13.29666710   80.35849762    0.40000001    2.67000008
   13.29861164   87.10800171    0.40000001    2.69000006
   13.30027771   79.93740082    0.40000001    2.69000006
   13.30361176   91.95069885    0.40000001    2.69000006
   13.30694485   79.81189728    0.38000000    2.67000008
   13.31000042   80.67530060    0.36000001    2.69000006
   13.31333351   77.80609894    0.36000001    2.69000006
   13.31638908   87.04989624    0.34000000    2.67000008
   13.31972218   81.98660278    0.34000000    2.67000008
   13.32305527   93.42299652    0.34000000    2.69000006
   13.32888889   93.42299652    0.34000000    2.69000006
   13.33305550   91.11669922    0.34000000    2.69000006
   13.33638859   79.82250214    0.36000001    2.69000006
   13.33944416   83.58940125    0.36000001    2.69000006
   13.34277725   88.15249634    0.36000001    2.69000006
   13.34611034   82.78379822    0.38000000    2.69000006
   13.34916592   87.28320313    0.38000000    2.69000006
   13.35249996   82.56510162    0.36000001    2.69000006
   13.35583401   84.97530365    0.36000001    2.69000006
   13.35888958   80.22779846    0.36000001    2.69000006
   13.36222267   83.11910248    0.36000001    2.69000006
   13.36527824   86.04609680    0.36000001    2.69000006
   13.36583328   82.06169891    0.36000001    2.69000006
   13.37194443   82.06169891    0.36000001    2.69000006
   13.37583351   85.99729919    0.36000001    2.69000006
   13.37916660   81.46679688    0.36000001    2.71000004
   13.38249969   84.63369751    0.36000001    2.69000006
   13.38555527   82.68979645    0.36000001    2.69000006
   13.38888836   84.46990204    0.36000001    2.69000006
   13.39222240   93.65370178    0.36000001    2.69000006
   13.39527798   79.54579926    0.34000000    2.69000006
   13.39861107   75.77860260    0.34000000    2.71000004
   13.39888859   79.49659729    0.34000000    2.69000006
   13.40222168   84.29499817    0.34000000    2.69000006
   13.40555477   83.27480316    0.34000000    2.71000004
   13.40861034   78.00379944    0.34000000    2.69000006
   13.41472149   78.00379944    0.34000000    2.69000006
   13.41888905   85.39920044    0.31999999    2.69000006
   13.42194462   84.45829773    0.31999999    2.69000006
   13.42527771   85.14959717    0.31999999    2.69000006
   13.42833328   92.53269958    0.31999999    2.71000004
   13.43166733   78.68399811    0.34000000    2.71000004
   13.43222237   81.49700165    0.34000000    2.71000004
   13.43555546   84.12960052    0.34000000    2.71000004
   13.43861103   81.38179779    0.31999999    2.71000004
   13.44194412   84.79579926    0.31999999    2.69000006
   13.44499969   79.20829773    0.31999999    2.71000004
   13.44833374   80.50240326    0.31999999    2.71000004
   13.45166683   83.78179932    0.30000001    2.71000004
   13.45749950   83.78179932    0.30000001    2.71000004
   13.46166611   90.06250000    0.31999999    2.71000004
   13.46472168   96.11060333    0.31999999    2.71000004
   13.46555519   95.93569946    0.31999999    2.71000004
   13.46861076   88.02249908    0.30000001    2.71000004
   13.47166634   91.14659882    0.30000001    2.71000004
   13.47499943   88.10299683    0.30000001    2.71000004
   13.47805500   86.64270020    0.30000001    2.71000004
   13.48138809   88.38870239    0.31999999    2.71000004
   13.48472214   82.98600006    0.31999999    2.71000004
   13.48777771   82.04660034    0.31999999    2.71000004
   13.49111176   87.22039795    0.31999999    2.71000004
   13.49444485   89.60540009    0.31999999    2.71000004
   13.50027752   89.60540009    0.31999999    2.71000004
   13.50444412   92.61869812    0.31999999    2.71000004
   13.50777817   90.12709808    0.34000000    2.71000004
   13.51083374   87.02739716    0.34000000    2.71000004
   13.51416683   92.47499847    0.34000000    2.71000004
   13.51749992   92.87599945    0.34000000    2.71000004
   13.52083302   89.36209869    0.36000001    2.71000004
   13.52388859   87.79720306    0.36000001    2.71000004
   13.52722168   93.69370270    0.36000001    2.71000004
   13.53055573   92.22419739    0.34000000    2.71000004
   13.53222179   84.92169952    0.34000000    2.71000004
   13.53416729   82.98339844    0.34000000    2.71000004
   13.53722286   87.68540192    0.36000001    2.71000004
   13.54305553   87.68540192    0.38000000    2.71000004
   13.54722309   91.34179688    0.41999999    2.71000004
   13.55055618   94.07980347    0.44000000    2.71000004
   13.55361176   96.72059631    0.44000000    2.71000004
   13.55694485   92.89830017    0.41999999    2.71000004
   13.56027794   99.46970367    0.41999999    2.71000004
   13.56333351   99.84369659    0.41999999    2.71000004
   13.56555557   88.78730011    0.40000001    2.71000004
   13.56722260   91.98349762    0.40000001    2.71000004
   13.57027817   92.44280243    0.40000001    2.71000004
   13.57361126   96.08319855    0.38000000    2.71000004
   13.57666683   93.75730133    0.40000001    2.71000004
   13.57999992   97.17549896    0.40000001    2.71000004
   13.58611107   97.17549896    0.41999999    2.73000002
   13.59000015   91.06479645    0.40000001    2.71000004
   13.59333324   84.98259735    0.31999999    2.71000004
   13.59666634   94.50789642    0.31999999    2.71000004
   13.59888840   88.32810211    0.31999999    2.73000002
   13.60027790  100.79199982    0.31999999    2.71000004
   13.60333347   93.65119934    0.31999999    2.73000002
   13.60666752   84.64540100    0.31999999    2.73000002
   13.60972214   89.25630188    0.31999999    2.73000002
   13.61305618   95.11969757    0.31999999    2.73000002
   13.61638927   98.54530334    0.34000000    2.73000002
   13.61944485   87.20159912    0.34000000    2.71000004
   13.62277794   90.44740295    0.34000000    2.73000002
   13.62888908   90.44740295    0.34000000    2.73000002
   13.63305569   94.28099823    0.34000000    2.73000002
   13.63611126   85.14150238    0.34000000    2.73000002
   13.63944435   90.72370148    0.34000000    2.71000004
   13.64277744   94.51979828    0.31999999    2.73000002
   13.64583302   87.61170197    0.31999999    2.73000002
   13.64916611   91.79519653    0.31999999    2.73000002
   13.65249920   93.40740204    0.31999999    2.73000002
   13.65555477   93.39189911    0.31999999    2.73000002
   13.65888882  107.84899902    0.31999999    2.73000002
   13.66194439   93.77700043    0.34000000    2.73000002
   13.66527748   88.78510284    0.31999999    2.73000002
   13.66583252   86.31250000    0.31999999    2.73000002
   13.67166710   86.31250000    0.31999999    2.73000002
   13.67583370   94.35679626    0.31999999    2.71000004
   13.67916679   95.87899780    0.30000001    2.73000002
   13.68222237   94.98269653    0.30000001    2.73000002
   13.68555546   97.62629700    0.30000001    2.73000002
   13.68888855   97.47039795    0.31999999    2.73000002
   13.69194412   89.83630371    0.30000001    2.73000002
   13.69527817   99.03179932    0.30000001    2.73000002
   13.69833374   97.76860046    0.30000001    2.73000002
   13.69916630   87.34700012    0.30000001    2.73000002
   13.70222187   87.41999817    0.30000001    2.75000000
   13.70527744  106.71399689    0.30000001    2.73000002
   13.70861053  104.96099854    0.31999999    2.73000002
   13.71444416  104.96099854    0.31999999    2.75000000
   13.71861076   95.19619751    0.31999999    2.73000002
   13.72194386   97.61499786    0.30000001    2.75000000
   13.72499943   98.09700012    0.31999999    2.73000002
   13.72833252  101.46399689    0.30000001    2.73000002
   13.73166656  101.30000305    0.31999999    2.73000002
   13.73249912   92.87580109    0.31999999    2.73000002
   13.73527813   98.61949921    0.31999999    2.73000002
   13.73833370  102.95200348    0.31999999    2.73000002
   13.74166679   99.11029816    0.31999999    2.73000002
   13.74472237   96.66220093    0.34000000    2.75000000
   13.74805546  101.66000366    0.34000000    2.73000002
   13.75138855  110.28399658    0.34000000    2.73000002
   13.75749969  110.28399658    0.34000000    2.75000000
   13.76138878   95.87740326    0.31999999    2.73000002
   13.76472187   92.13909912    0.31999999    2.73000002
   13.76583290  100.90799713    0.31999999    2.73000002
   13.76861095  110.57800293    0.31999999    2.73000002
   13.77166653  103.54799652    0.31999999    2.73000002
   13.77499962  108.23999786    0.34000000    2.75000000
   13.77805519  105.22899628    0.36000001    2.73000002
   13.78138828  105.98799896    0.34000000    2.73000002
   13.78472233  110.08499908    0.34000000    2.75000000
   13.78777790  116.61100006    0.34000000    2.75000000
   13.79111195  118.76699829    0.34000000    2.73000002
   13.79444504  102.70500183    0.34000000    2.73000002
   13.80027771  102.70500183    0.34000000    2.73000002
   13.80444431  102.96499634    0.34000000    2.73000002
   13.80749989   94.97339630    0.34000000    2.73000002
   13.81083393  100.30000305    0.34000000    2.75000000
   13.81416702  100.75900269    0.34000000    2.75000000
   13.81722260   96.12239838    0.31999999    2.75000000
   13.82055569   98.01319885    0.31999999    2.75000000
   13.82361126   95.37129974    0.31999999    2.75000000
   13.82694435   94.12419891    0.30000001    2.75000000
   13.83027744   94.38590240    0.31999999    2.75000000
   13.83249950  103.80200195    0.31999999    2.73000002
   13.83388901   98.84750366    0.31999999    2.75000000
   13.83694458  105.65399933    0.31999999    2.75000000
   13.84305477  105.65399933    0.31999999    2.75000000
   13.84722233  108.03199768    0.31999999    2.75000000
   13.85055637   99.75610352    0.31999999    2.75000000
   13.85361195  105.66500092    0.31999999    2.75000000
   13.85694504  105.89700317    0.31999999    2.75000000
   13.86027813  105.38500214    0.30000001    2.75000000
   13.86333370   98.97480011    0.31999999    2.75000000
   13.86583328  100.77999878    0.30000001    2.75000000
   13.86722279   91.05539703    0.30000001    2.75000000
   13.87027836   97.27230072    0.30000001    2.75000000
   13.87361145   98.12400055    0.30000001    2.75000000
   13.87694454   93.38289642    0.30000001    2.75000000
   13.88000011   97.72429657    0.30000001    2.75000000
   13.88583279   97.72429657    0.31999999    2.75000000
   13.89000034   90.32180023    0.30000001    2.75000000
   13.89333344   96.64399719    0.31999999    2.75000000
   13.89638901  104.23200226    0.31999999    2.75000000
   13.89916611  102.11199951    0.31999999    2.75000000
   13.90027714  104.24900055    0.31999999    2.75000000
   13.90333271   95.67590332    0.30000001    2.75000000
   13.90666676   98.15409851    0.30000001    2.75000000
   13.90972137  100.49700165    0.30000001    2.75000000
   13.91305542   91.96250153    0.31999999    2.75000000
   13.91638851   93.97270203    0.31999999    2.75000000
   13.91944504  109.10299683    0.31999999    2.75000000
   13.92277813   97.09269714    0.31999999    2.75000000
   13.92888927   97.09269714    0.31999999    2.75000000
   13.93277836   95.58740234    0.30000001    2.75000000
   13.93611145   92.86920166    0.30000001    2.75000000
   13.93944454   87.13919830    0.30000001    2.76999998
   13.94250011   96.86260223    0.31999999    2.75000000
   13.94583321   92.11440277    0.31999999    2.75000000
   13.94916630   97.38040161    0.30000001    2.75000000
   13.95222187   96.61270142    0.30000001    2.75000000
   13.95555496   93.60739899    0.30000001    2.76999998
   13.95888901  106.48600006    0.30000001    2.75000000
   13.96194458   98.45320129    0.31999999    2.75000000
   13.96527767   90.19039917    0.30000001    2.75000000
   13.96583271  110.79399872    0.30000001    2.75000000
   13.97166634  110.79399872    0.31999999    2.76999998
   13.97583294   96.64409637    0.31999999    2.76999998
   13.97888851  106.83799744    0.31999999    2.75000000
   13.98222160  104.54900360    0.30000001    2.76999998
   13.98555565   96.04789734    0.31999999    2.75000000
   13.98861122  106.37899780    0.31999999    2.75000000
   13.99194431  106.30300140    0.30000001    2.75000000
   13.99527836  114.39099884    0.30000001    2.75000000
   13.99833393  114.70300293    0.30000001    2.75000000
   13.99916649  107.77799988    0.30000001    2.76999998
   14.00222206  108.63999939    0.30000001    2.75000000
   14.00527763  115.67800140    0.30000001    2.75000000
   14.00861073   86.99389648    0.31999999    2.75000000
   14.01444435   86.99389648    0.30000001    2.76999998
   14.01861095  102.86699677    0.31999999    2.76999998
   14.02194405   91.03929901    0.30000001    2.75000000
   14.02499962   96.83339691    0.31999999    2.75000000
   14.02833271  101.34100342    0.31999999    2.76999998
   14.03138828   98.27279663    0.30000001    2.76999998
   14.03249931   99.37129974    0.30000001    2.75000000
   14.03527832  104.52100372    0.30000001    2.76999998
   14.03833389  105.54499817    0.31999999    2.75000000
   14.04166698  112.69200134    0.31999999    2.76999998
   14.04500008  108.34200287    0.30000001    2.76999998
   14.04805565   96.53320313    0.30000001    2.76999998
   14.05138874   93.72769928    0.30000001    2.76999998
   14.05722237   93.72769928    0.28000000    2.75000000
   14.06138897  103.18199921    0.28000000    2.76999998
   14.06472206  109.05300140    0.28000000    2.76999998
   14.06583309  114.61699677    0.28000000    2.76999998
   14.06833363  100.24500275    0.30000001    2.76999998
   14.07138920  102.40100098    0.28000000    2.76999998
   14.07472229  100.27700043    0.28000000    2.76999998
   14.07805538  102.00399780    0.28000000    2.75000000
   14.08111095  113.76899719    0.30000001    2.75000000
   14.08444405  112.93699646    0.28000000    2.76999998
   14.08749962  105.62999725    0.28000000    2.76999998
   14.09083271   99.38240051    0.28000000    2.76999998
   14.09416676   88.91390228    0.28000000    2.76999998
   14.10027790   88.91390228    0.28000000    2.76999998
   14.10416698   94.46309662    0.28000000    2.76999998
   14.10750008   95.98280334    0.28000000    2.76999998
   14.11083412  110.73999786    0.28000000    2.76999998
   14.11388969  104.41100311    0.28000000    2.76999998
   14.11722279   90.70420074    0.28000000    2.76999998
   14.12027836  101.39800262    0.28000000    2.76999998
   14.12361145  110.24800110    0.30000001    2.76999998
   14.12694454  108.39600372    0.30000001    2.76999998
   14.13000011  107.67400360    0.30000001    2.76999998
   14.13249969  106.99800110    0.30000001    2.76999998
   14.13388920  111.72899628    0.30000001    2.76999998
   14.13694477  104.47699738    0.30000001    2.76999998
   14.14305496  104.47699738    0.30000001    2.76999998
   14.14722252   98.12419891    0.30000001    2.76999998
   14.15027714  113.01499939    0.30000001    2.76999998
   14.15361118  119.73699951    0.30000001    2.76999998
   14.17111111  110.73600006    0.30000001    2.76999998
   14.17361164  114.65299988    0.30000001    2.76999998
   14.17694473   99.35359955    0.30000001    2.76999998
   14.18000031  117.62699890    0.31999999    2.76999998
   14.18611145  117.62699890    0.30000001    2.76999998
   14.19000053  105.11100006    0.30000001    2.76999998
   14.19333363  110.55999756    0.30000001    2.76999998
   14.19666672  107.77500153    0.31999999    2.76999998
   14.19972229   95.07700348    0.31999999    2.76999998
   14.20305538   93.76010132    0.31999999    2.76999998
   14.20444393   93.28440094    0.31999999    2.76999998
   14.20666695   99.98310089    0.31999999    2.76999998
   14.20972157   89.04840088    0.31999999    2.76999998
   14.21305561  104.82099915    0.30000001    2.76999998
   14.21611118   96.77570343    0.30000001    2.76999998
   14.21944427   92.84269714    0.30000001    2.76999998
   14.22277737  103.57700348    0.31999999    2.76999998
   14.22888851  103.57700348    0.31999999    2.76999998
   14.23305511   97.70939636    0.31999999    2.76999998
   14.23611164   97.53199768    0.31999999    2.78999996
   14.23777771   95.86299896    0.31999999    2.78999996
   14.24000072   91.57199860    0.31999999    2.78999996
   14.24305534  100.45999908    0.30000001    2.78999996
   14.24638939  102.01899719    0.30000001    2.76999998
   14.24944496  109.15799713    0.30000001    2.78999996
   14.25277805   91.75669861    0.30000001    2.78999996
   14.25611115   92.45980072    0.30000001    2.76999998
   14.25916672  108.90899658    0.30000001    2.78999996
   14.26249981  100.08699799    0.28000000    2.78999996
   14.26583290   97.75849915    0.30000001    2.76999998
   14.27166653   97.75849915    0.30000001    2.76999998
   14.27583313  100.61499786    0.28000000    2.78999996
   14.27916622  105.44599915    0.28000000    2.78999996
   14.28222179  110.81900024    0.30000001    2.78999996
   14.28555584  110.63700104    0.28000000    2.78999996
   14.28861141  109.08399963    0.28000000    2.78999996
   14.29194450  110.60500336    0.28000000    2.78999996
   14.29527855  121.41799927    0.28000000    2.78999996
   14.29833412  124.75700378    0.30000001    2.76999998
   14.30166721  125.63899994    0.28000000    2.78999996
   14.30444431  134.46400452    0.30000001    2.78999996
   14.30527782  130.63000488    0.28000000    2.78999996
   14.30833340  112.53500366    0.28000000    2.78999996
   14.31444454  112.53500366    0.30000001    2.78999996
   14.31861115  115.99600220    0.28000000    2.78999996
   14.32194424  114.88099670    0.28000000    2.76999998
   14.32499981  114.29399872    0.28000000    2.78999996
   14.32833290  108.63400269    0.28000000    2.78999996
   14.33166695  105.66100311    0.28000000    2.76999998
   14.33472157  128.40299988    0.28000000    2.78999996
   14.33777714  110.41100311    0.28000000    2.78999996
   14.33861065  106.58100128    0.28000000    2.76999998
   14.34166622  102.71800232    0.30000001    2.78999996
   14.34499931  110.51899719    0.30000001    2.78999996
   14.34833336  114.58100128    0.30000001    2.78999996
   14.35138893  133.42900085    0.31999999    2.78999996
   14.35750008  133.42900085    0.30000001    2.78999996
   14.36138916  139.27600098    0.30000001    2.78999996
   14.36472225  124.82800293    0.30000001    2.78999996
   14.36805534  139.27699280    0.30000001    2.78999996
   14.37111092  113.21800232    0.30000001    2.78999996
   14.37166691  141.21099854    0.30000001    2.78999996
   14.37472248  130.56900024    0.30000001    2.78999996
   14.37805557  156.20500183    0.30000001    2.78999996
   14.38111115  128.99699402    0.30000001    2.78999996
   14.38444424  116.76499939    0.31999999    2.78999996
   14.38777733  126.10099792    0.30000001    2.78999996
   14.39083290  117.82299805    0.30000001    2.78999996
   14.39416695  127.59400177    0.30000001    2.78999996
   14.40027714  127.59400177    0.31999999    2.78999996
   14.40444374  138.70599365    0.30000001    2.78999996
   14.40499973  144.34199524    0.30000001    2.78999996
   14.40805531  155.50300598    0.30000001    2.78999996
   14.41138840  126.51300049    0.30000001    2.78999996
   14.41444397  148.83299255    0.28000000    2.78999996
   14.41777802  128.15600586    0.28000000    2.78999996
   14.42111111  129.19200134    0.28000000    2.78999996
   14.42416668  136.13299561    0.31999999    2.80999994
   14.42750072  136.98899841    0.31999999    2.78999996
   14.43083382  117.93599701    0.31999999    2.78999996
   14.43388939  111.26399994    0.31999999    2.78999996
   14.43722248  120.21700287    0.30000001    2.80999994
   14.43777752  142.18099976    0.30000001    2.80999994
   14.44305515  142.18099976    0.30000001    2.78999996
   14.44722271  136.76400757    0.30000001    2.78999996
   14.45055580  100.80999756    0.31999999    2.78999996
   14.45361137  136.00900269    0.31999999    2.78999996
   14.45694447  138.85600281    0.31999999    2.78999996
   14.46000004  115.38700104    0.31999999    2.78999996
   14.46333313  123.29499817    0.31999999    2.78999996
   14.46666622  109.46900177    0.31999999    2.78999996
   14.46972179  114.00000000    0.31999999    2.78999996
   14.47111034  113.19799805    0.31999999    2.78999996
   14.47361088  133.63499451    0.31999999    2.80999994
   14.47666645  124.62300110    0.30000001    2.78999996
   14.47999954  125.80200195    0.30000001    2.78999996
   14.48583317  125.80200195    0.30000001    2.78999996
   14.49000072  111.34100342    0.31999999    2.80999994
   14.49333382  137.18899536    0.31999999    2.78999996
   14.49638939  108.86699677    0.34000000    2.78999996
   14.49972248  129.89100647    0.34000000    2.78999996
   14.50305557  100.44999695    0.34000000    2.80999994
   14.50444412  122.16600037    0.34000000    2.78999996
   14.50666714  120.82199860    0.34000000    2.78999996
   14.50972176  104.04399872    0.34000000    2.78999996
   14.51305580  104.43399811    0.34000000    2.78999996
   14.51638889  113.38400269    0.34000000    2.78999996
   14.51944447  126.29699707    0.31999999    2.78999996
   14.52277756  106.57299805    0.31999999    2.80999994
   14.52888870  106.57299805    0.31999999    2.78999996
   14.53277779  125.03500366    0.34000000    2.78999996
   14.53611183  106.30200195    0.34000000    2.78999996
   14.53777790  120.37599945    0.34000000    2.78999996
   14.53972244  111.09999847    0.31999999    2.80999994
   14.54277802  117.74099731    0.31999999    2.80999994
   14.54611111  119.55799866    0.31999999    2.80999994
   14.54944515  104.01899719    0.31999999    2.78999996
   14.55249977  107.75000000    0.31999999    2.80999994
   14.55583382  108.75000000    0.31999999    2.80999994
   14.55888939  111.90799713    0.30000001    2.80999994
   14.56222248  102.36599731    0.31999999    2.80999994
   14.56555557   97.59220123    0.31999999    2.80999994
   14.57166672   97.59220123    0.31999999    2.80999994
   14.57583332  102.36599731    0.30000001    2.80999994
   14.57888889   98.63349915    0.30000001    2.80999994
   14.58222198  102.51200104    0.30000001    2.80999994
   14.58555508  114.08000183    0.30000001    2.78999996
   14.58861065  107.65799713    0.30000001    2.80999994
   14.59194374   88.55030060    0.30000001    2.80999994
   14.59527779   97.18150330    0.30000001    2.80999994
   14.59833336  116.75299835    0.30000001    2.80999994
   14.60166740   96.38880157    0.30000001    2.80999994
   14.60444450  105.81800079    0.30000001    2.80999994
   14.60527802  110.51200104    0.30000001    2.80999994
   14.60833359   99.94460297    0.31999999    2.78999996
   14.61444473   99.94460297    0.30000001    2.78999996
   14.61861134   99.59230042    0.30000001    2.80999994
   14.62194443  104.40399933    0.30000001    2.80999994
   14.62500000  106.04399872    0.31999999    2.80999994
   14.62833309  101.40399933    0.31999999    2.80999994
   14.63138866  104.22000122    0.31999999    2.80999994
   14.63472176  102.25800323    0.31999999    2.80999994
   14.63777733  104.71199799    0.31999999    2.80999994
   14.63833332  106.44300079    0.31999999    2.80999994
   14.64138889   96.86609650    0.30000001    2.80999994
   14.64472198  104.37999725    0.31999999    2.80999994
   14.64805508  110.30799866    0.31999999    2.80999994
   14.65111065   98.03060150    0.31999999    2.80999994
   14.65722179   98.03060150    0.31999999    2.80999994
   14.66138840  105.30400085    0.34000000    2.80999994
   14.66472149   90.58260345    0.36000001    2.78999996
   14.66777802   95.70300293    0.34000000    2.82999992
   14.67111111  102.51200104    0.36000001    2.80999994
   14.67166710  101.43299866    0.36000001    2.80999994
   14.67472267  106.96800232    0.36000001    2.80999994
   14.67805576  109.14499664    0.36000001    2.80999994
   14.68138885   91.47979736    0.36000001    2.82999992
   14.68444443  103.56700134    0.36000001    2.82999992
   14.68777752   96.37049866    0.34000000    2.80999994
   14.69083309   95.15799713    0.34000000    2.80999994
   14.69416714  103.41200256    0.34000000    2.80999994
   14.70027733  103.41200256    0.36000001    2.80999994
   14.70416641  100.34600067    0.36000001    2.80999994
   14.70472240   98.53320313    0.36000001    2.80999994
   14.70805550  101.79199982    0.36000001    2.80999994
   14.71138859  103.53600311    0.36000001    2.80999994
   14.71444416   99.06999969    0.36000001    2.80999994
   14.71777725   96.40889740    0.36000001    2.80999994
   14.72111034  103.75499725    0.34000000    2.80999994
   14.72416592  101.70300293    0.34000000    2.80999994
   14.72749996  104.78500366    0.34000000    2.80999994
   14.73055553   98.53399658    0.34000000    2.82999992
   14.73388958  101.02899933    0.34000000    2.80999994
   14.73722267  109.92099762    0.34000000    2.80999994
   14.73805618  110.71700287    0.34000000    2.80999994
   14.74305534  110.71700287    0.34000000    2.80999994
   14.74722290  101.29599762    0.34000000    2.80999994
   14.75027752  106.80500031    0.34000000    2.80999994
   14.75361156  104.01000214    0.34000000    2.80999994
   14.75694466  105.10099792    0.31999999    2.80999994
   14.76027775  110.66899872    0.31999999    2.80999994
   14.76333332  104.01200104    0.31999999    2.82999992
   14.76666641   95.97920227    0.31999999    2.82999992
   14.76972198   98.18240356    0.31999999    2.82999992
   14.77138901  101.81700134    0.31999999    2.80999994
   14.77361107   95.65950012    0.31999999    2.80999994
   14.77694416   94.39219666    0.31999999    2.80999994
   14.77999973   98.91210175    0.31999999    2.80999994
   14.78583336   98.91210175    0.31999999    2.80999994
   14.79000092  102.26200104    0.31999999    2.80999994
   14.79333401   97.49649811    0.30000001    2.80999994
   14.79638958  109.55799866    0.30000001    2.80999994
   14.79972267   99.23059845    0.28000000    2.82999992
   14.80277824  102.38300323    0.28000000    2.82999992
   14.80472279  100.40899658    0.28000000    2.80999994
   14.80666733  103.32900238    0.28000000    2.80999994
   14.81000042  104.84100342    0.28000000    2.80999994
   14.81305599  105.98799896    0.30000001    2.82999992
   14.81638908  104.54100037    0.30000001    2.82999992
   14.81972218   98.46769714    0.28000000    2.82999992
   14.82277775  112.45400238    0.28000000    2.80999994
   14.82861137  112.45400238    0.30000001    2.80999994
   14.83277798   98.79090118    0.30000001    2.80999994
   14.83611107  102.64900208    0.30000001    2.82999992
   14.83805561   93.36289978    0.30000001    2.82999992
   14.83972168   91.80419922    0.31999999    2.80999994
   14.84305477  104.43299866    0.31999999    2.82999992
   14.84611034   93.98400116    0.31999999    2.82999992
   14.84944439   97.03060150    0.31999999    2.82999992
   14.85277843  102.31199646    0.31999999    2.82999992
   14.85583401   98.52850342    0.31999999    2.82999992
   14.85916710  110.03299713    0.31999999    2.82999992
   14.86222267   93.04689789    0.31999999    2.82999992
   14.86555576   96.00129700    0.31999999    2.82999992
   14.87166691   96.00129700    0.31999999    2.82999992
   14.87555599   99.60089874    0.31999999    2.82999992
   14.87888908   95.13490295    0.31999999    2.82999992
   14.88222218  102.76000214    0.34000000    2.82999992
   14.88527775  104.52500153    0.34000000    2.80999994
   14.88861084  111.99400330    0.34000000    2.80999994
   14.89194393  104.69100189    0.34000000    2.80999994
   14.89499950  103.25700378    0.34000000    2.80999994
   14.89833355  108.10299683    0.34000000    2.80999994
   14.90138817  101.14299774    0.34000000    2.80999994
   14.90472221  113.89299774    0.34000000    2.82999992
   14.90527725  104.97299957    0.34000000    2.82999992
   14.90861034  105.57700348    0.34000000    2.80999994
   14.91444397  105.57700348    0.34000000    2.82999992
   14.91861153  108.76899719    0.34000000    2.82999992
   14.92166710  111.94599915    0.34000000    2.80999994
   14.92500019  100.76399994    0.34000000    2.82999992
   14.92833328   97.59780121    0.34000000    2.82999992
   14.93138885  115.87899780    0.31999999    2.82999992
   14.93472195   98.98280334    0.31999999    2.82999992
   14.93805599   95.78829956    0.31999999    2.82999992
   14.93861103   95.10710144    0.31999999    2.82999992
   14.94166660   89.23179626    0.34000000    2.82999992
   14.94472218  101.83699799    0.34000000    2.82999992
   14.94805527  109.30599976    0.34000000    2.80999994
   14.95138836  105.85299683    0.34000000    2.82999992
   14.95722198  105.85299683    0.34000000    2.82999992
   14.96138859  102.29599762    0.34000000    2.82999992
   14.96472168   96.67990112    0.34000000    2.82999992
   14.96777725  118.27100372    0.34000000    2.82999992
   14.97111034  104.47899628    0.34000000    2.82999992
   14.97194386  109.35900116    0.31999999    2.82999992
   14.97472191   92.20819855    0.31999999    2.82999992
   14.97777748   98.79679871    0.31999999    2.82999992
   14.98111057  107.83100128    0.30000001    2.82999992
   14.98444462  101.33699799    0.28000000    2.82999992
   14.98750019  112.85600281    0.28000000    2.80999994
   14.99083328   97.18530273    0.28000000    2.84999990
   14.99388885  100.16799927    0.28000000    2.82999992
   15.00000000  100.16799927    0.28000000    2.82999992
   15.00416660  107.47799683    0.28000000    2.82999992
   15.00527763   98.98590088    0.28000000    2.82999992
   15.00805569  102.15699768    0.28000000    2.82999992
   15.01111126  117.08399963    0.30000001    2.82999992
   15.01444435  100.30699921    0.30000001    2.82999992
   15.01777744  105.55000305    0.30000001    2.82999992
   15.02083302   94.87850189    0.30000001    2.82999992
   15.02416611  100.71800232    0.30000001    2.82999992
   15.02750015  107.04299927    0.30000001    2.82999992
   15.03055573  104.98600006    0.30000001    2.82999992
   15.03388977  111.06900024    0.30000001    2.82999992
   15.03694534  107.10099792    0.30000001    2.82999992
   15.03861141  106.14099884    0.31999999    2.82999992
   15.04305553  106.14099884    0.31999999    2.82999992
   15.04694462   95.32230377    0.31999999    2.82999992
   15.05027771  100.50099945    0.31999999    2.82999992
   15.05361176  119.88700104    0.34000000    2.82999992
   15.05666733  103.90299988    0.34000000    2.82999992
   15.06000042  101.39600372    0.36000001    2.82999992
   15.06333351   98.57140350    0.38000000    2.82999992
   15.06638908   99.66549683    0.38000000    2.82999992
   15.06972218   99.38539886    0.40000001    2.82999992
   15.07194424  105.50099945    0.40000001    2.82999992
   15.07333374  107.09600067    0.40000001    2.80999994
   15.07666683  105.10299683    0.41999999    2.82999992
   15.07972240  106.86499786    0.40000001    2.80999994
   15.08583260  106.86499786    0.40000001    2.82999992
   15.09000015   97.27880096    0.41999999    2.82999992
   15.09305477   95.74610138    0.41999999    2.82999992
   15.09638882   94.51799774    0.44000000    2.82999992
   15.09972191   86.77189636    0.44000000    2.82999992
   15.10277843   93.50820160    0.44000000    2.82999992
   15.10527802  111.45800018    0.44000000    2.82999992
   15.10666752  112.27999878    0.44000000    2.82999992
   15.10972214   98.83270264    0.47999999    2.82999992
   15.11305618   96.92009735    0.50000000    2.82999992
   15.11638927  110.22799683    0.47999999    2.82999992
   15.11944485   93.24510193    0.47999999    2.82999992
   15.12277794  101.37400055    0.47999999    2.82999992
   15.12861156  101.37400055    0.44000000    2.82999992
   15.13277817  113.36100006    0.40000001    2.82999992
   15.13611126   95.50730133    0.40000001    2.82999992
   15.13861084   98.41790009    0.44000000    2.80999994
   15.13972187  117.71900177    0.44000000    2.82999992
   15.14277744  106.15000153    0.44000000    2.82999992
   15.14611053  102.39800262    0.46000001    2.82999992
   15.14944458   96.62270355    0.47999999    2.82999992
   15.15249920  110.21199799    0.46000001    2.82999992
   15.15583324  101.32499695    0.44000000    2.82999992
   15.15888882   92.74909973    0.44000000    2.82999992
   15.16222191   98.09909821    0.47999999    2.82999992
   15.16555500   93.24579620    0.51999998    2.82999992
   15.17138958   93.24579620    0.47999999    2.82999992
   15.18972206   98.54750061    0.55000001    2.82999992
   15.19305515   92.25720215    0.52999997    2.82999992
   15.19638920   95.52079773    0.52999997    2.82999992
   15.19944477  104.18599701    0.52999997    2.82999992
   15.20277786   94.11630249    0.51999998    2.82999992
   15.20611095  103.51999664    0.51999998    2.84999990
   15.20916653   97.53299713    0.51999998    2.82999992
   15.21444416   97.53299713    0.51999998    2.82999992
   15.21861076  102.52500153    0.47999999    2.82999992
   15.22194386  107.47499847    0.46000001    2.84999990
   15.22277737   93.26309967    0.46000001    2.84999990
   15.22555542   98.17579651    0.44000000    2.82999992
   15.22888851   99.92189789    0.41999999    2.82999992
   15.23194408   94.68800354    0.40000001    2.82999992
   15.23527813   93.49729919    0.38000000    2.82999992
   15.23861122   94.26860046    0.34000000    2.82999992
   15.38527775   -1.00000000   -1.00000000   -1.00000000
   15.50638866   -1.00000000   -1.00000000   -1.00000000
   15.58416653   81.81980133    0.28000000    2.86999989
   15.58749962  117.20600128    0.28000000    2.86999989
   15.59055519  110.90499878    0.28000000    2.84999990
   15.59388828  115.11900330    0.28000000    2.84999990
   15.59694386  110.21800232    0.28000000    2.86999989
   15.60027790  103.03199768    0.28000000    2.84999990
   15.60444450  103.03199768    0.30000001    2.84999990
   15.60861111  108.13899994    0.28000000    2.84999990
   15.61166668   98.70269775    0.28000000    2.84999990
   15.61500072  108.02799988    0.30000001    2.86999989
   15.61750031  100.18699646    0.30000001    2.86999989
   15.61888885  100.94899750    0.30000001    2.86999989
   15.62194443   95.45030212    0.28000000    2.86999989
   15.62527752   96.27639771    0.28000000    2.84999990
   15.62833309  105.86100006    0.28000000    2.86999989
   15.63166714   95.72660065    0.30000001    2.84999990
   15.63500023  110.30999756    0.28000000    2.84999990
   15.63805580   94.65850067    0.28000000    2.84999990
   15.64138889   93.79750061    0.28000000    2.86999989
   15.64722252   93.79750061    0.28000000    2.86999989
   15.65138817   97.65589905    0.28000000    2.86999989
   15.65472221   92.17299652    0.30000001    2.84999990
   15.65777779   89.70529938    0.28000000    2.86999989
   15.66111088   99.04460144    0.28000000    2.84999990
   15.66444397   87.93840027    0.28000000    2.84999990
   15.66750050   97.41809845    0.28000000    2.84999990
   15.67083359  103.31999969    0.30000001    2.84999990
   15.67388916  101.99600220    0.28000000    2.86999989
   15.67722225  101.78600311    0.30000001    2.84999990
   15.68055630   86.75219727    0.28000000    2.84999990
   15.68361092  103.91000366    0.28000000    2.86999989
   15.68416691  106.75800323    0.28000000    2.86999989
   15.69000053  106.75800323    0.28000000    2.84999990
   15.69416714  107.87200165    0.28000000    2.84999990
   15.69750023   94.54920197    0.28000000    2.84999990
   15.70083332   98.87310028    0.28000000    2.86999989
   15.70388889  101.98000336    0.28000000    2.84999990
   15.70722198   97.21170044    0.28000000    2.84999990
   15.71027756  112.86599731    0.28000000    2.84999990
   15.71361065   92.86660004    0.28000000    2.84999990
   15.71694374   99.83260345    0.28000000    2.84999990
   15.71749973  103.18800354    0.28000000    2.84999990
   15.72055531  100.02300262    0.28000000    2.84999990
   15.72361088   95.87809753    0.28000000    2.86999989
   15.72694397   98.22579956    0.28000000    2.86999989
   15.73305511   98.22579956    0.28000000    2.84999990
   15.73722267   95.18720245    0.31999999    2.84999990
   15.74027824   89.74320221    0.34000000    2.86999989
   15.74361134   93.10590363    0.38000000    2.84999990
   15.74666691   93.36830139    0.36000001    2.84999990
   15.75000000   89.29029846    0.38000000    2.84999990
   15.75083351   96.20050049    0.36000001    2.84999990
   15.75361156   92.31439972    0.36000001    2.84999990
   15.75694466  100.92099762    0.36000001    2.84999990
   15.76000023  104.85500336    0.44000000    2.86999989
   15.76333332   92.95970154    0.44000000    2.84999990
   15.76666641   89.16359711    0.46000001    2.84999990
   15.76972198  100.90399933    0.44000000    2.84999990
   15.77583313  100.90399933    0.40000001    2.84999990
   15.77999973   84.41770172    0.40000001    2.84999990
   15.78305531   96.54139709    0.38000000    2.84999990
   15.78416729   97.41999817    0.38000000    2.84999990
   15.78694534   88.82869720    0.38000000    2.84999990
   15.79027843   96.77899933    0.40000001    2.84999990
   15.79333401   96.70069885    0.40000001    2.84999990
   15.79666710   91.88719940    0.40000001    2.84999990
   15.79972267  101.55699921    0.36000001    2.84999990
   15.80305576   95.85350037    0.38000000    2.84999990
   15.80638885   93.27210236    0.36000001    2.84999990
   15.80944443   88.88880157    0.36000001    2.86999989
   15.81277752   89.37300110    0.36000001    2.86999989
   15.81861115   89.37300110    0.44000000    2.84999990
   15.82277775   90.91819763    0.41999999    2.84999990
   15.82611084   93.71559906    0.47999999    2.86999989
   15.82916641   93.00830078    0.51999998    2.84999990
   15.83249950   93.25379944    0.51999998    2.86999989
   15.83583260   99.55269623    0.63000000    2.84999990
   15.83888817   94.24710083    0.64999998    2.86999989
   15.84222221  102.40799713    0.75000000    2.84999990
   15.84527779   89.91880035    0.76999998    2.84999990
   15.84861088   90.56610107    0.76999998    2.84999990
   15.85083389   97.38480377    0.76999998    2.84999990
   15.85222244   94.00939941    0.76999998    2.84999990
   15.85555553   84.47540283    0.69000000    2.86999989
   15.86138916   84.47540283    0.63000000    2.86999989
   15.86555576   93.32150269    0.56999999    2.84999990
   15.86888885   92.05300140    0.51999998    2.84999990
   15.87222195   97.69779968    0.47999999    2.84999990
   15.87527752   92.32820129    0.47999999    2.84999990
   15.87861156  106.03700256    0.52999997    2.84999990
   15.88166714  105.42400360    0.52999997    2.84999990
   15.88416672   83.92919922    0.51999998    2.84999990
   15.88555527  110.43800354    0.51999998    2.84999990
   15.88888836   93.94390106    0.51999998    2.84999990
   15.89194393   99.12020111    0.46000001    2.86999989
   15.89527798   91.36450195    0.46000001    2.84999990
   15.89833355   87.19319916    0.31999999    2.86999989
   15.90444374   87.19319916    0.28000000    2.84999990
   15.90833282   93.96559906    0.25999999    2.84999990
   15.91166592  103.01699829    0.25999999    2.86999989
   15.91499996   99.85700226    0.25000000    2.86999989
   15.91750050   91.23580170    0.25999999    2.86999989
   15.91861153   96.07109833    0.25999999    2.86999989
   15.92194462   89.84140015    0.25999999    2.86999989
   15.92500019   86.45259857    0.25999999    2.86999989
   15.92833328   91.20639801    0.28000000    2.84999990
   15.93138885   94.74060059    0.28000000    2.86999989
   15.93472195   93.22000122    0.28000000    2.86999989
   15.93805599   96.21769714    0.28000000    2.86999989
   15.94111156   98.98660278    0.30000001    2.86999989
   15.94722271   98.98660278    0.34000000    2.86999989
   15.95138836   88.96209717    0.34000000    2.84999990
   15.95444393   86.41220093    0.31999999    2.86999989
   15.95777798   91.93250275    0.31999999    2.86999989
   15.96111107   89.40519714    0.38000000    2.86999989
   15.96416664   84.59899902    0.38000000    2.86999989
   15.96749973   93.09960175    0.40000001    2.86999989
   15.97083282  101.75199890    0.40000001    2.86999989
   15.97388840   96.99579620    0.40000001    2.86999989
   15.97722149   87.37920380    0.40000001    2.86999989
   15.98027706   88.67189789    0.40000001    2.84999990
   15.98361111   95.70639801    0.40000001    2.86999989
   15.98416710   90.10540009    0.41999999    2.84999990
   15.99000072   90.10540009    0.44000000    2.84999990
   15.99416733   87.90570068    0.46000001    2.84999990
   15.99750042   84.13800049    0.46000001    2.86999989
   16.00055504   80.30840302    0.47999999    2.84999990
   16.00388908   89.15879822    0.50000000    2.86999989
   16.00694466   84.89129639    0.50000000    2.86999989
   16.01027870   81.64360046    0.52999997    2.86999989
   16.01361084   82.50749969    0.52999997    2.86999989
   16.01666641   83.35469818    0.52999997    2.86999989
   16.01749992   88.73789978    0.52999997    2.86999989
   16.02027702   99.73010254    0.55000001    2.84999990
   16.02361107   86.62449646    0.56999999    2.84999990
   16.02666664   83.39299774    0.52999997    2.86999989
   16.03277779   83.39299774    0.51999998    2.86999989
   16.03694344   78.81040192    0.51999998    2.84999990
   16.04027748   92.51339722    0.47999999    2.86999989
   16.04333305   84.22470093    0.47999999    2.84999990
   16.04666710   90.08419800    0.44000000    2.86999989
   16.04999924  100.56999969    0.44000000    2.86999989
   16.05111122   91.70829773    0.44000000    2.84999990
   16.05360985   90.19300079    0.41999999    2.86999989
   16.05694389   84.85829926    0.41999999    2.86999989
   16.05999947   97.08249664    0.41999999    2.86999989
   16.06333351   91.02380371    0.41999999    2.86999989
   16.06666756   93.26879883    0.41999999    2.86999989
   16.07000160   89.99130249    0.41999999    2.84999990
   16.07583427   89.99130249    0.41999999    2.86999989
   16.08000183   90.41010284    0.40000001    2.86999989
   16.08305550   97.10489655    0.38000000    2.84999990
   16.08416748   99.12660217    0.38000000    2.86999989
   16.08666801   92.12940216    0.41999999    2.86999989
   16.09000015   93.86190033    0.40000001    2.84999990
   16.09305573   96.48580170    0.40000001    2.86999989
   16.09638977  105.77500153    0.38000000    2.86999989
   16.09972191   99.83129883    0.38000000    2.86999989
   16.10277748   96.84600067    0.36000001    2.84999990
   16.10611153  101.13800049    0.38000000    2.86999989
   16.10916710   80.92070007    0.38000000    2.86999989
   16.11250114   96.03890228    0.38000000    2.86999989
   16.11861038   96.03890228    0.38000000    2.86999989
   16.12277794   97.06580353    0.36000001    2.86999989
   16.12611198   87.71140289    0.36000001    2.84999990
   16.12944412   96.54930115    0.34000000    2.84999990
   16.13249969  109.29499817    0.34000000    2.86999989
   16.13583374  105.05999756    0.36000001    2.86999989
   16.13888931  104.19100189    0.36000001    2.86999989
   16.14222145   89.40709686    0.36000001    2.86999989
   16.14555550   86.45339966    0.40000001    2.86999989
   16.14861107   92.44460297    0.40000001    2.86999989
   16.15083313   82.27200317    0.40000001    2.86999989
   16.15222168  106.29499817    0.41999999    2.86999989
   16.15555573   90.49579620    0.41999999    2.86999989
   16.16166687   90.49579620    0.41999999    2.84999990
   16.16583252   99.48539734    0.41999999    2.86999989
   16.16888809   80.84670258    0.46000001    2.86999989
   16.17222214   94.80539703    0.46000001    2.84999990
   16.17527771   98.79750061    0.47999999    2.86999989
   16.17860985  102.28199768    0.46000001    2.84999990
   16.18194389   95.78880310    0.46000001    2.86999989
   16.18416595   90.12319946    0.47999999    2.86999989
   16.18555450   84.70200348    0.47999999    2.86999989
   16.18888855  102.56999969    0.47999999    2.86999989
   16.19194412   90.05229950    0.50000000    2.86999989
   16.19527626  106.63300323    0.50000000    2.86999989
   16.19861031   94.64939880    0.51999998    2.84999990
   16.20444489   94.64939880    0.51999998    2.86999989
   16.20861244   91.91459656    0.51999998    2.86999989
   16.21166801   93.47920227    0.51999998    2.84999990
   16.21500015   93.70069885    0.52999997    2.86999989
   16.21777916   84.81860352    0.52999997    2.86999989
   16.21861076   88.94450378    0.51999998    2.86999989
   16.22194481   87.07170105    0.50000000    2.86999989
   16.22500038   97.46720123    0.51999998    2.86999989
   16.22833443  108.11199951    0.55000001    2.86999989
   16.23166656   93.18830109    0.51999998    2.84999990
   16.23472214   93.51490021    0.51999998    2.86999989
   16.23805618   99.99120331    0.51999998    2.84999990
   16.24138832   96.55570221    0.50000000    2.86999989
   16.24722290   96.55570221    0.44000000    2.86999989
   16.25138855  114.89700317    0.44000000    2.86999989
   16.25472260   93.49109650    0.44000000    2.86999989
   16.25777817  102.58300018    0.44000000    2.84999990
   16.26111031   87.46649933    0.41999999    2.86999989
   16.26444435  105.70200348    0.41999999    2.84999990
   16.26749992  100.15399933    0.41999999    2.86999989
   16.27083397  102.56999969    0.41999999    2.84999990
   16.27416611   99.10990143    0.40000001    2.84999990
   16.27722168   98.80680084    0.40000001    2.84999990
   16.28055573   93.34690094    0.41999999    2.86999989
   16.28361130   94.75440216    0.41999999    2.86999989
   16.28444481  100.66899872    0.41999999    2.86999989
   16.28999901  100.66899872    0.41999999    2.86999989
   16.29416656  100.69000244    0.41999999    2.86999989
   16.29749870  104.01699829    0.41999999    2.84999990
   16.30083275  101.91799927    0.41999999    2.86999989
   16.30388832   94.10690308    0.41999999    2.86999989
   16.30722237   99.61039734    0.44000000    2.86999989
   16.31027794   93.47579956    0.41999999    2.86999989
   16.31361008  101.40699768    0.40000001    2.86999989
   16.31694603   97.35579681    0.40000001    2.86999989
   16.31777954   95.74079895    0.40000001    2.86999989
   16.32055664  103.62200165    0.40000001    2.86999989
   16.32389069   96.95690155    0.38000000    2.86999989
   16.32694626   87.21939850    0.38000000    2.86999989
   16.33305550   87.21939850    0.34000000    2.86999989
   16.33722305   96.67420197    0.31999999    2.86999989
   16.34027863   98.64430237    0.31999999    2.86999989
   16.34361267   88.89189911    0.34000000    2.86999989
   16.34666824   94.27619934    0.34000000    2.86999989
   16.35000038   87.58630371    0.34000000    2.86999989
   16.35111237   94.64409637    0.34000000    2.86999989
   16.35361099   89.64040375    0.34000000    2.86999989
   16.35694504   91.82170105    0.34000000    2.86999989
   16.36027908   94.97250366    0.34000000    2.86999989
   16.36333466  119.97699738    0.34000000    2.86999989
   16.36666679  103.11299896    0.38000000    2.86999989
   16.37000084   92.12999725    0.38000000    2.86999989
   16.37583351   92.12999725    0.41999999    2.84999990
   16.38000107  102.73300171    0.41999999    2.84999990
   16.38333321  100.14700317    0.41999999    2.84999990
   16.38444519   91.03170013    0.44000000    2.86999989
   16.38666725   89.03549957    0.44000000    2.86999989
   16.38999939  102.42900085    0.50000000    2.84999990
   16.39333344   86.96420288    0.47999999    2.86999989
   16.39638901  110.63300323    0.50000000    2.86999989
   16.39972115   90.79149628    0.51999998    2.84999990
   16.40277672  106.90799713    0.52999997    2.84999990
   16.40611076   89.22540283    0.58999997    2.86999989
   16.40944481   89.41560364    0.58999997    2.84999990
   16.41250038   90.88500214    0.52999997    2.86999989
   16.41860962   90.88500214    0.73000002    2.84999990
   16.42277718  105.26999664    1.39999998    2.86999989
   16.42611122   94.04199982    1.30999994    2.86999989
   16.42916679   98.51210022    1.26999998    2.86999989
   16.43249893   94.95149994    1.00000000    2.84999990
   16.43583298  102.97599792    1.00000000    2.84999990
   16.43888855  103.85500336    0.98000002    2.84999990
   16.44222069   99.82859802    0.98000002    2.84999990
   16.44555473   90.83860016    0.98000002    2.84999990
   16.44861031   97.68669891    0.92000002    2.84999990
   16.45111275   90.65270233    0.86000001    2.84999990
   16.45222282   97.71450043    0.86000001    2.86999989
   16.45555687   89.28669739    0.86000001    2.86999989
   16.46138954   89.28669739    0.76999998    2.86999989
   16.46555710   96.77919769    0.75000000    2.86999989
   16.46888924   97.61319733    0.69000000    2.86999989
   16.47194481   93.69080353    0.69000000    2.84999990
   16.47527885   90.71690369    0.67000002    2.84999990
   16.47861099   92.71739960    0.64999998    2.86999989
   16.48166656   86.67970276    0.64999998    2.86999989
   16.48444557   90.69010162    0.67000002    2.86999989
   16.48527718   87.59909821    0.67000002    2.86999989
   16.48861122   81.15450287    0.67000002    2.86999989
   16.49166679   90.07890320    0.69000000    2.84999990
   16.49500084   89.61229706    0.69000000    2.86999989
   16.49833298   97.68070221    0.73000002    2.84999990
   16.50444412   97.68070221    0.73000002    2.86999989
   16.50861168   90.27839661    0.69000000    2.84999990
   16.51166725   83.53720093    0.61000001    2.84999990
   16.51499939   93.27580261    0.58999997    2.86999989
   16.51777840  101.95899963    0.56999999    2.86999989
   16.51861000   97.16979980    0.56999999    2.86999989
   16.52194405   98.07319641    0.55000001    2.86999989
   16.52499962   87.86640167    0.55000001    2.84999990
   16.52833366   92.29299927    0.58999997    2.86999989
   16.53166580   85.51309967    0.56999999    2.86999989
   16.53472137   86.49449921    0.56999999    2.86999989
   16.53805542   85.13379669    0.55000001    2.86999989
   16.54138756   85.22709656    0.55000001    2.86999989
   16.54722214   85.22709656    0.52999997    2.84999990
   16.55138779   85.98480225    0.51999998    2.86999989
   16.55444336   85.97720337    0.51999998    2.86999989
   16.55777740   94.87770081    0.51999998    2.84999990
   16.56110954   95.68409729    0.50000000    2.86999989
   16.56416512  107.37899780    0.50000000    2.86999989
   16.56750107   92.25640106    0.50000000    2.86999989
   16.57055664   92.98190308    0.50000000    2.86999989
   16.57389069   94.77110291    0.50000000    2.86999989
   16.57722282   92.14309692    0.47999999    2.86999989
   16.58027840   92.33000183    0.46000001    2.84999990
   16.58361244   96.62909698    0.46000001    2.84999990
   16.58444595  100.51699829    0.46000001    2.84999990
   16.60499954  100.51699829    0.38000000    2.86999989
   16.60916710   98.00250244    0.40000001    2.86999989
   16.61222267   93.92780304    0.40000001    2.86999989
   16.61555672   98.00689697    0.40000001    2.84999990
   16.61777878   95.78220367    0.38000000    2.86999989
   16.61944389   91.67579651    0.38000000    2.84999990
   16.62249947   97.43910217    0.38000000    2.84999990
   16.62583351   88.61450195    0.38000000    2.84999990
   16.62888908   99.49900055    0.38000000    2.86999989
   16.63222313   93.20179749    0.40000001    2.86999989
   16.63555527   83.37680054    0.40000001    2.86999989
   16.63861084   95.24639893    0.40000001    2.86999989
   16.64194489   90.94460297    0.41999999    2.86999989
   16.64777756   90.94460297    0.40000001    2.86999989
   16.65194321   96.89739990    0.40000001    2.86999989
   16.65499878   92.55599976    0.38000000    2.86999989
   16.65833282  102.21800232    0.38000000    2.86999989
   16.66166687   96.69930267    0.36000001    2.86999989
   16.66472244   98.29039764    0.36000001    2.84999990
   16.66805458  102.75499725    0.36000001    2.84999990
   16.67111015   94.97000122    0.36000001    2.86999989
   16.67444420   97.78939819    0.36000001    2.86999989
   16.67777634  101.11499786    0.36000001    2.86999989
   16.68083191   95.90019989    0.36000001    2.86999989
   16.68416595   98.73259735    0.34000000    2.86999989
   16.68472099   98.12039948    0.34000000    2.86999989
   16.69055557   98.12039948    0.31999999    2.86999989
   16.69472122  101.67400360    0.34000000    2.86999989
   16.69805527   90.62789917    0.34000000    2.86999989
   16.70111275   97.38349915    0.31999999    2.86999989
   16.70444489   92.18350220    0.31999999    2.86999989
   16.70750046  104.16899872    0.31999999    2.86999989
   16.71083450   85.05860138    0.34000000    2.86999989
   16.71416664   90.05590057    0.34000000    2.86999989
   16.71722221   81.69139862    0.34000000    2.86999989
   16.71805573   88.60430145    0.34000000    2.86999989
   16.72083473   91.20909882    0.34000000    2.86999989
   16.72416687   94.01589966    0.34000000    2.86999989
   16.72750092   98.62539673    0.36000001    2.84999990
   16.73333359   98.62539673    0.38000000    2.86999989
   16.73750114   93.91780090    0.40000001    2.86999989
   16.74083328   99.02960205    0.40000001    2.86999989
   16.74388885   96.95899963    0.41999999    2.86999989
   16.74722290   91.64099884    0.41999999    2.86999989
   16.75055504   96.52809906    0.41999999    2.86999989
   16.75138855   99.27590179    0.41999999    2.86999989
   16.75416756  100.99099731    0.44000000    2.86999989
   16.75722313   97.42600250    0.46000001    2.86999989
   16.76055527   96.06449890    0.47999999    2.86999989
   16.76388931   93.84839630    0.46000001    2.84999990
   16.76694489   87.92630005    0.50000000    2.86999989
   16.77027702   91.43479919    0.52999997    2.86999989
   16.77638817   91.43479919    0.52999997    2.86999989
   16.78027725  100.32800293    0.51999998    2.86999989
   16.78361130   93.00409698    0.51999998    2.86999989
   16.78472137   92.78549957    0.50000000    2.86999989
   16.78750038   95.04260254    0.47999999    2.84999990
   16.79055595  101.44200134    0.46000001    2.86999989
   16.79388809   97.62889862    0.46000001    2.89000010
   16.79694366   88.84089661    0.44000000    2.86999989
   16.80027771   93.72499847    0.44000000    2.86999989
   16.80360985  100.91600037    0.41999999    2.86999989
   16.80666542   96.94529724    0.41999999    2.86999989
   16.80999947   90.34629822    0.41999999    2.86999989
   16.81333351   87.88809967    0.41999999    2.86999989
   16.81916809   87.88809967    0.40000001    2.86999989
   16.82333374   87.87709808    0.40000001    2.84999990
   16.82638931   85.98739624    0.38000000    2.84999990
   16.82972336   87.69409943    0.38000000    2.86999989
   16.83305550  106.22299957    0.38000000    2.84999990
   16.83611107  103.85700226    0.38000000    2.84999990
   16.83944511   96.48509979    0.41999999    2.86999989
   16.84250069   98.08239746    0.41999999    2.86999989
   16.84583473   94.27519989    0.41999999    2.86999989
   16.84916687   94.91770172    0.40000001    2.86999989
   16.85138893  100.07099915    0.40000001    2.86999989
   16.85277748   94.40779877    0.40000001    2.86999989
   16.85583305   99.69999695    0.40000001    2.86999989
   16.86194420   99.69999695    0.40000001    2.86999989
   16.86611176   92.43440247    0.38000000    2.84999990
   16.86944389   95.62509918    0.36000001    2.86999989
   16.87249947   96.13790131    0.40000001    2.84999990
   16.87583351  109.46499634    0.41999999    2.84999990
   16.87888908  113.38400269    0.47999999    2.84999990
   16.88222313   97.25779724    0.47999999    2.84999990
   16.88472176  105.08899689    1.25000000    2.84999990
   16.88611031   96.09950256    1.48000002    2.82999992
   16.88916588  100.85600281    1.61000001    2.82999992
   16.89249992  108.59400177    1.64999998    2.84999990
   16.89555550   95.79689789    1.13000000    2.84999990
   16.89888954   97.63140106    1.11000001    2.84999990
   16.90472221   97.63140106    0.38000000    2.84999990
   16.90888786   93.13680267    0.36000001    2.86999989
   16.91222191  100.27500153    0.38000000    2.86999989
   16.91527748   99.81569672    0.36000001    2.86999989
   16.91805458   92.79389954    0.36000001    2.86999989
   16.91916656  104.25499725    0.36000001    2.86999989
   16.92222214   85.01349640    0.36000001    2.86999989
   16.92555428  102.63500214    0.36000001    2.86999989
   16.92888832   92.64949799    0.36000001    2.86999989
   16.93194389   97.51499939    0.36000001    2.86999989
   16.93527603   88.66069794    0.36000001    2.86999989
   16.93833160   94.07520294    0.36000001    2.84999990
   16.94166565   97.17089844    0.36000001    2.86999989
   16.94749832   97.17089844    0.34000000    2.86999989
   16.95166779   98.10099792    0.34000000    2.89000010
   16.95499992   97.01969910    0.36000001    2.86999989
   16.95833397   92.00360107    0.38000000    2.89000010
   16.96138954   96.83979797    0.36000001    2.86999989
   16.96472359   98.28949738    0.38000000    2.86999989
   16.96777916  104.41300201    0.38000000    2.86999989
   16.97111130   93.77980042    0.40000001    2.86999989
   16.97444534  104.68199921    0.40000001    2.86999989
   16.97750092   93.42659760    0.40000001    2.86999989
   16.98083305   94.92420197    0.40000001    2.84999990
   16.98416710  101.16000366    0.41999999    2.86999989
   16.98472214  103.08799744    0.40000001    2.89000010
   16.99055672  103.08799744    0.40000001    2.86999989
   16.99472237   93.39029694    0.40000001    2.86999989
   16.99777794   84.95110321    0.40000001    2.86999989
   17.00111198   98.69779968    0.40000001    2.86999989
   17.00416756   87.85610199    0.40000001    2.84999990
   17.00749969   97.59290314    0.40000001    2.86999989
   17.01083374   98.37629700    0.41999999    2.86999989
   17.01388931   95.51940155    0.41999999    2.86999989
   17.01722145   90.63189697    0.40000001    2.86999989
   17.01805496   97.62950134    0.40000001    2.84999990
   17.02083397   94.86119843    0.40000001    2.86999989
   17.02388954   95.04470062    0.40000001    2.86999989
   17.02722168   95.20459747    0.40000001    2.86999989
   17.03333282   95.20459747    0.40000001    2.86999989
   17.03750038   95.46109772    0.38000000    2.86999989
   17.04055595   91.10569763    0.38000000    2.84999990
   17.04388809   89.02539825    0.38000000    2.86999989
   17.04722214   92.73870087    0.38000000    2.86999989
   17.05027771   87.56790161    0.38000000    2.86999989
   17.05138779   84.37889862    0.38000000    2.86999989
   17.05416679   95.04340363    0.38000000    2.86999989
   17.05722237   93.79599762    0.38000000    2.84999990
   17.06055450   91.34020233    0.38000000    2.86999989
   17.06388855   85.98680115    0.38000000    2.84999990
   17.06694603   85.88880157    0.38000000    2.86999989
   17.07027817   92.11409760    0.40000001    2.86999989
   17.07611275   92.11409760    0.40000001    2.86999989
   17.08027840   95.57710266    0.41999999    2.84999990
   17.08361244   94.58699799    0.41999999    2.89000010
   17.08472252  100.85800171    0.41999999    2.89000010
   17.08722305   99.27279663    0.40000001    2.86999989
   17.09027863   94.11990356    0.41999999    2.89000010
   17.09361267   99.14620209    0.41999999    2.86999989
   17.09694481   95.25209808    0.41999999    2.86999989
   17.10000038   95.60209656    0.41999999    2.86999989
   17.10333443   92.61080170    0.44000000    2.86999989
   17.10639000   97.50540161    0.44000000    2.89000010
   17.10972214   94.88159943    0.46000001    2.86999989
   17.11305618   90.83879852    0.46000001    2.86999989
   17.11888885   90.83879852    0.44000000    2.86999989
   17.12305641   92.10910034    0.44000000    2.86999989
   17.12638855   96.95490265    0.44000000    2.86999989
   17.12972260   98.15779877    0.47999999    2.84999990
   17.13277817   99.19589996    0.50000000    2.86999989
   17.13611031   91.97460175    0.51999998    2.86999989
   17.13916588   97.05989838    0.52999997    2.86999989
   17.14249992   95.50990295    0.58999997    2.84999990
   17.14583397   95.71600342    0.61000001    2.86999989
   17.14888954   96.98349762    0.67000002    2.84999990
   17.15138817   96.09059906    0.67000002    2.86999989
   17.15277672   95.37570190    0.67000002    2.86999989
   17.15583229  102.43800354    0.67000002    2.84999990
   17.16194344  102.43800354    0.69000000    2.86999989
   17.16611099   93.18240356    0.70999998    2.84999990
   17.16916656  108.41899872    0.80000001    2.84999990
   17.17249870  102.40100098    0.92000002    2.86999989
   17.17555428  100.44499969    1.01999998    2.84999990
   17.17888832  101.78600311    1.01999998    2.84999990
   17.18222237   99.54199982    1.03999996    2.84999990
   17.18472099   97.32620239    1.05999994    2.86999989
   17.18583298   97.90930176    1.19000006    2.84999990
   17.18888855  104.82599640    1.25000000    2.84999990
   17.19222069   97.11560059    1.36000001    2.84999990
   17.19555473  104.02999878    1.34000003    2.82999992
   17.19861031  115.74199677    1.25000000    2.84999990
   17.20472336  115.74199677    1.13000000    2.86999989
   17.20888901  100.02600098    1.09000003    2.84999990
   17.21194458   92.98819733    0.92000002    2.84999990
   17.21527863   99.19889832    0.89999998    2.86999989
   17.21805573   93.61229706    0.92000002    2.84999990
   17.21888924   99.45729828    0.92000002    2.84999990
   17.22194481   98.36090088    0.83999997    2.86999989
   17.22527885  102.94999695    0.83999997    2.86999989
   17.22861099  108.29699707    0.88000000    2.84999990
   17.23166656  105.32599640    0.83999997    2.84999990
   17.23500061   96.45770264    0.92000002    2.86999989
   17.23805618  108.89900208    0.95999998    2.84999990
   17.24138832  103.47699738    0.98000002    2.86999989
   17.24749947  103.47699738    0.95999998    2.86999989
   17.25166702   95.53230286    0.79000002    2.86999989
   17.25499916   99.17199707    0.73000002    2.86999989
   17.25805473  103.45899963    0.69000000    2.86999989
   17.26138878  108.69400024    0.67000002    2.84999990
   17.26472282   95.43170166    0.67000002    2.86999989
   17.26777840   97.96420288    0.64999998    2.84999990
   17.27111053   90.04540253    0.58999997    2.86999989
   17.27416611  102.80599976    0.61000001    2.86999989
   17.27750015  103.56199646    0.64999998    2.84999990
   17.28083229   90.86109924    0.70999998    2.86999989
   17.28388786  111.49700165    0.73000002    2.86999989
   17.28472137   98.21320343    0.76999998    2.84999990
   17.29027748   98.21320343    1.39999998    2.84999990
   17.29444313   -1.00000000    1.69000006    2.84999990
   17.29777718   -1.00000000    1.89999998    2.84999990
   17.30083275   93.69309998    3.26999998    2.82999992
   17.30416679   91.47049713    4.09999990    2.78999996
   17.30749893  108.33799744    4.84999990    2.78999996
   17.31083298   95.41269684    4.90999985    2.73000002
   17.31388855  110.63700104    4.90999985    2.78999996
   17.31722260  106.98500061    4.90999985    2.75000000
   17.31805611   96.91929626    4.90999985    2.75000000
   17.32083511  102.42400360    4.90999985    2.76999998
   17.32389069  105.27400208    4.90999985    2.76999998
   17.32722282  104.47000122    4.90999985    2.73000002
   17.33333397  104.47000122    4.90999985    2.76999998
   17.33722305   95.56220245    4.90999985    2.80999994
   17.34055710   96.45850372    3.75000000    2.80999994
   17.34388924   -1.00000000    3.43000007    2.78999996
   17.34694481   -1.00000000    3.82999992    2.80999994
   17.35027885  114.91799927    3.41000009    2.80999994
   17.35138893  111.64800262    3.34999990    2.78999996
   17.35388947  107.49099731    3.21000004    2.78999996
   17.35694504  111.39299774    3.03999996    2.82999992
   17.36027908   99.76390076    3.16000009    2.80999994
   17.36361122  120.71299744    3.82999992    2.82999992
   17.36666679  115.69400024    4.80999994    2.78999996
   17.37000084  119.36699677    4.90999985    2.76999998
   17.37611198  119.36699677    4.90999985    2.71000004
   17.38027763  126.38700104    4.90999985    2.71000004
   17.38333321  107.55999756    4.90999985    2.67000008
   17.38472176  100.70400238    4.90999985    2.73000002
   17.38722229  110.45400238    4.90999985    2.69000006
   17.39027786  113.84500122    4.90999985    2.67000008
   17.39361191  114.79299927    4.90999985    2.67000008
   17.39694405  107.02500153    4.90999985    2.61999989
   17.39999962  117.27899933    4.90999985    2.57999992
   17.40333366  127.51499939    4.90999985    2.69000006
   17.40666580  121.20300293    4.90999985    2.59999990
   17.40972137  132.46000671    4.90999985    2.50000000
   17.41305542   -1.00000000    4.90999985    2.59999990
   17.41888809   -1.00000000    4.90999985    2.50000000
   17.42305565  160.80400085    4.90999985    2.61999989
   17.42638779  130.97500610    4.90999985    2.50000000
   17.42944336  182.76100159    4.90999985    2.66000009
   17.43277740  139.88999939    4.90999985    2.46000004
   17.43610954  137.64500427    4.90999985    2.57999992
   17.43916512  131.72999573    4.90999985    2.53999996
   17.44249916  156.71899414    4.90999985    2.42000008
   17.44555473   -1.00000000    4.90999985    2.50000000
   17.44888878   -1.00000000    4.90999985    2.46000004
   17.45138931  155.80599976    4.90999985    2.55999994
   17.45250130  164.29100037    4.90999985    2.50000000
   17.45555687  188.20700073    4.90999985    2.36999989
   17.46166801  188.20700073    4.90999985    2.55999994
   17.46583366  139.15400696    4.90999985    2.46000004
   17.46916771  149.59300232    4.90999985    2.57999992
   17.47249985  160.13800049    4.90999985    2.57999992
   17.47555542  140.23599243    4.90999985    2.50000000
   17.47888947  136.93499756    4.90999985    2.57999992
   17.48194504  109.80100250    4.90999985    2.57999992
   17.48472214  119.22200012    4.90999985    2.57999992
   17.48583412  135.27799988    4.90999985    2.61999989
   17.48916626  122.12300110    4.90999985    2.36999989
   17.49222183  116.25800323    4.90999985    2.51999998
   17.49555588  131.03100586    4.90999985    2.61999989
   17.49861145  126.78399658    4.90999985    2.61999989
   17.50472260  126.78399658    4.90999985    2.59999990
   17.50888824  127.91000366    4.90999985    2.66000009
   17.51194382   -1.00000000    4.90999985    2.55999994
   17.51527786   -1.00000000    4.90999985    2.64000010
   17.51805496  232.94700623    4.90999985    2.61999989
   17.51888847  268.70700073    4.90999985    2.59999990
   17.52222252  128.32400513    4.90999985    2.59999990
   17.52527809  136.90100098    4.90999985    2.57999992
   17.52861023  148.42199707    4.90999985    2.46000004
   17.53166580  117.39399719    4.90999985    2.51999998
   17.53499985  128.45100403    4.90999985    2.55999994
   17.53833199  126.73200226    4.90999985    2.53999996
   17.54138756  154.74499512    4.90999985    2.55999994
   17.55138779   -1.00000000    4.90999985    2.59999990
   17.55472183  152.93699646    4.90999985    2.50000000
   17.55805397  168.15199280    4.90999985    2.46000004
   17.56110954  162.83200073    4.90999985    2.50000000
   17.56444359  130.80599976    4.90999985    2.39000010
   17.56777954  138.99899292    4.90999985    2.53999996
   17.57083511  148.90699768    4.90999985    2.51999998
   17.57416725  142.40299988    4.90999985    2.40000010
   17.57722282  157.60099792    4.90999985    2.48000002
   17.58055687  155.23699951    4.90999985    2.51999998
   17.58388901  128.89500427    4.90999985    2.40000010
   17.58472252  121.41600037    4.90999985    2.36999989
   17.59027863  121.41600037    4.90999985    2.48000002
   17.59444427  151.44700623    4.90999985    2.51999998
   17.59777832  128.92300415    4.90999985    2.44000006
   17.60083389  122.45400238    4.90999985    2.48000002
   17.62055588   -1.00000000    4.90999985    2.40000010
   17.62388992  155.67700195    4.90999985    2.50000000
   17.62722206  140.93499756    4.90999985    2.51999998
   17.63333321  140.93499756    4.90999985    2.40000010
   17.63722229  148.17900085    4.90999985    2.40000010
   17.64055634   -1.00000000    4.90999985    2.46000004
   17.64388847   -1.00000000    4.90999985    2.36999989
   17.64694405   -1.00000000    4.90999985    2.23000002
   17.65027809   -1.00000000    4.90999985    2.23000002
   17.65388870   -1.00000000    4.90999985    2.07999992
   17.65722275  222.00599670    4.90999985    2.07999992
   17.66027832  150.26899719    4.90999985    2.23000002
   17.66361046  145.34300232    4.90999985    2.34999990
   17.66666603  137.90800476    4.90999985    2.42000008
   17.67000008  142.68499756    4.90999985    2.46000004
   17.67611122  142.68499756    4.90999985    2.50000000
   17.68027687  143.48699951    4.90999985    2.53999996
   17.68333244  139.05000305    4.90999985    2.42000008
   17.68499947  158.22799683    4.90999985    2.46000004
   17.68694305  213.02900696    4.90999985    2.48000002
   17.69027710  201.08900452    4.90999985    2.23000002
   17.69361115  325.86599731    4.90999985    1.91999996
   17.69555473  278.95199585    4.90999985    1.89999998
   17.69694328  355.47698975    4.90999985    2.00000000
   17.69833183  449.22000122    4.90999985    2.09999990
   17.69972038  196.80499268    4.90999985    2.05999994
   17.69972038  201.08900452    4.90999985    2.23000002
   17.69972038  325.86599731    4.90999985    1.91999996
   17.70000076  150.26899719    4.90999985    2.23000002
   17.70000076  145.34300232    4.90999985    2.34999990
   17.70000076  137.90800476    4.90999985    2.42000008
   17.70027924  142.68499756    4.90999985    2.46000004
   17.70027924  143.48699951    4.90999985    2.53999996
   17.70027924  139.05000305    4.90999985    2.42000008
   17.70055580  213.02900696    4.90999985    2.48000002
   17.70111275  297.85000610    4.90999985    2.11999989
   17.70416832  222.30700684    4.90999985    2.01999998
   17.70750046   -1.00000000    4.90999985    2.19000006
   17.71055603   -1.00000000    4.90999985    2.17000008
   17.71389008   -1.00000000    4.90999985    2.30999994
   17.72444534   -1.00000000    4.90999985    2.19000006
   17.72777748   -1.00000000    4.90999985    2.17000008
   17.73083305   -1.00000000    4.90999985    2.36999989
   17.73444557   -1.00000000    4.90999985    2.34999990
   17.73750114   -1.00000000    4.90999985    2.32999992
   17.74083328   -1.00000000    4.90999985    2.26999998
   17.74416733   -1.00000000    4.90999985    2.30999994
   17.74722290   -1.00000000    4.90999985    2.32999992
   17.75055504   -1.00000000    4.90999985    2.23000002
   17.75361061   -1.00000000    4.90999985    2.28999996
   17.75694466   -1.00000000    4.90999985    2.25000000
   17.76722145   -1.00000000    4.90999985    2.19000006
   17.77055550   -1.00000000    4.90999985    2.23000002
   17.77361107   -1.00000000    4.90999985    2.40000010
   17.77694511   -1.00000000    4.90999985    2.40000010
   17.78027725   -1.00000000    4.90999985    2.39000010
   17.78333282   -1.00000000    4.90999985    2.28999996
   17.78666687   -1.00000000    4.90999985    2.34999990
   17.78999901   -1.00000000    4.90999985    2.39000010
   17.79305458   -1.00000000    4.90999985    2.40000010
   17.79638863   -1.00000000    4.90999985    2.39000010
   17.79944420   -1.00000000    4.90999985    2.40000010
   17.80999947   -1.00000000    4.90999985    2.51999998
   17.81333351   -1.00000000    4.90999985    2.50000000
   17.81666756   -1.00000000    4.90999985    2.57999992
   17.81972313   88.27500153    4.90999985    2.51999998
   17.82305717  132.99400330    4.90999985    2.53999996
   17.82638931  145.14700317    4.90999985    2.59999990
   17.82944489  154.18099976    4.90999985    2.55999994
   17.83277893  145.71899414    4.90999985    2.50000000
   17.83361244  161.88299561    4.90999985    2.40000010
   17.83638954  147.44500732    4.90999985    2.42000008
   17.83972359  161.30999756    4.90999985    2.42000008
   17.84277916  209.43200684    4.90999985    2.39000010
   17.84889030  209.43200684    4.90999985    2.01999998
   17.85305595  134.66900635    4.90999985    1.98000002
   17.85639000  120.67900085    4.90999985    1.85000002
   17.85944557   99.97270203    4.90999985    1.78999996
   17.86277771   -1.00000000    4.90999985    1.76999998
   17.86611176   29.30330086    4.90999985    1.80999994
   17.86694527   28.54080009    4.90999985    1.86000001
   17.86944389   -1.00000000    4.90999985    1.85000002
   17.87277794   19.24379921    4.90999985    1.78999996
   17.87583351   -1.00000000    4.90999985    1.80999994
   17.87916756   69.29299927    4.90999985    1.88000000
   17.88249969  299.30599976    4.90999985    1.85000002
   17.88583374  444.96200562    4.90999985    2.13000011
   17.88777733  223.11500549    4.90999985    1.96000004
   17.88777733   -1.00000000    4.90999985    1.80999994
   17.88805580   69.29299927    4.90999985    1.88000000
   17.88805580  299.30599976    4.90999985    1.85000002
   17.88805580  444.96200562    4.90999985    2.13000011
   17.88833237   99.97270203    4.90999985    1.78999996
   17.88833237   -1.00000000    4.90999985    1.76999998
   17.88833237   29.30330086    4.90999985    1.80999994
   17.88861084   -1.00000000    4.90999985    1.85000002
   17.88861084   19.24379921    4.90999985    1.78999996
   17.89277840   19.24379921    4.90999985    2.28999996
   17.89694405  135.37300110    4.90999985    2.36999989
   17.90027809  136.24800110    4.90999985    2.42000008
   17.90333366  139.72500610    4.90999985    2.50000000
   17.90666580  156.08999634    4.90999985    2.51999998
   17.90999985  146.81700134    4.90999985    2.42000008
   17.91305542  140.27999878    4.90999985    2.39000010
   17.91638756  141.39599609    4.90999985    2.39000010
   17.91944313  123.78800201    4.90999985    2.48000002
   17.92166519  128.48599243    4.90999985    2.53999996
   17.92305565  127.44699860    4.90999985    2.51999998
   17.92638779  129.67599487    4.90999985    2.55999994
   17.92972183  131.21899414    4.90999985    2.57999992
   17.93555450  131.21899414    4.90999985    2.42000008
   17.93972206  141.18299866    4.90999985    2.46000004
   17.94305420  145.29899597    4.90999985    2.50000000
   17.94610977  152.05599976    4.90999985    2.53999996
   17.94944382  147.19900513    4.90999985    2.40000010
   17.95250130  158.80400085    4.90999985    2.39000010
   17.95499992  174.99400330    4.90999985    2.39000010
   17.95611191  163.37199402    4.90999985    2.42000008
   17.95944595  169.43200684    4.90999985    2.46000004
   17.96277809  156.85499573    4.90999985    2.39000010
   17.96583366  184.47599792    4.90999985    2.39000010
   17.96916771  168.52400208    4.90999985    2.32999992
   17.97249985  214.19700623    4.90999985    2.28999996
   17.97833443  214.19700623    4.90999985    2.25000000
   17.98250008  357.62799072    4.90999985    2.23000002
   17.98472214  314.28298950    4.90999985    2.15000010
   17.98583412  213.30700684    4.90999985    2.19000006
   17.98611069  156.85499573    4.90999985    2.39000010
   17.98611069  184.47599792    4.90999985    2.39000010
   17.98611069  168.52400208    4.90999985    2.32999992
   17.98638916  214.19700623    4.90999985    2.28999996
   17.98638916  357.62799072    4.90999985    2.23000002
   17.98638916  147.19900513    4.90999985    2.40000010
   17.98666763  158.80400085    4.90999985    2.39000010
   17.98666763  163.37199402    4.90999985    2.42000008
   17.98666763  169.43200684    4.90999985    2.46000004
   17.98777771  227.26499939    4.90999985    2.25000000
   17.99111176  250.21499634    4.90999985    2.26999998
   17.99444389  248.82699585    4.90999985    2.25000000
   17.99749947  207.69500732    4.90999985    2.21000004
   18.00083351  218.67399597    4.90999985    2.25000000
   18.00666618  218.67399597    4.90999985    2.25000000
   18.01083374  240.06700134    4.90999985    2.23000002
   18.01416588  196.02600098    4.90999985    2.28999996
   18.01722145  211.01199341    4.90999985    2.34999990
   18.01972198  278.18399048    4.90999985    2.36999989
   18.02111053  232.50900269    4.90999985    2.30999994
   18.02416611  339.99499512    4.90999985    2.17000008
   18.02638817  338.75900269    4.90999985    2.23000002
   18.02750015  339.89498901    4.90999985    2.21000004
   18.02888870  235.86199951    4.90999985    2.21000004
   18.02916718  339.99499512    4.90999985    2.17000008
   18.02916718  250.21499634    4.90999985    2.26999998
   18.02916718  248.82699585    4.90999985    2.25000000
   18.02944374  207.69500732    4.90999985    2.21000004
   18.02944374  218.67399597    4.90999985    2.25000000
   18.02944374  240.06700134    4.90999985    2.23000002
   18.02972221  196.02600098    4.90999985    2.28999996
   18.02972221  211.01199341    4.90999985    2.34999990
   18.02972221  232.50900269    4.90999985    2.30999994
   18.03027725  194.49099731    4.90999985    2.25000000
   18.03361130  318.27600098    4.90999985    2.26999998
   18.03555489  291.66198730    4.90999985    2.23000002
   18.03694344  253.91799927    4.90999985    2.23000002
   18.03833199  237.10899353    4.90999985    2.25000000
   18.03833199  194.49099731    4.90999985    2.25000000
   18.03861046  318.27600098    4.90999985    2.26999998
   18.03916550  224.06399536    4.90999985    2.23000002
   18.04222107  158.31399536    4.90999985    2.36999989
   18.04555511  176.36399841    4.90999985    2.46000004
   18.04888916  148.57000732    4.90999985    2.40000010
   18.05194283  132.76100159    4.90999985    2.61999989
   18.05527687  135.21699524    4.90999985    2.67000008
   18.05944443  135.21699524    4.90999985    2.67000008
   18.06361008  140.74800110    4.90999985    2.39000010
   18.06666756  113.94599915    4.90999985    2.44000006
   18.07000160  127.23600006    4.90999985    2.61999989
   18.07222366  132.15699768    4.90999985    2.51999998
   18.07333374  121.82199860    4.90999985    2.55999994
   18.07666779  146.13499451    4.90999985    2.42000008
   18.08000183  142.41900635    4.90999985    2.48000002
   18.08305550  135.30400085    4.90999985    2.48000002
   18.08638954  348.22399902    4.90999985    2.21000004
   18.08833313  205.08700562    4.90999985    1.96000004
   18.08861160  121.82199860    4.90999985    2.55999994
   18.08861160  146.13499451    4.90999985    2.42000008
   18.08861160  142.41900635    4.90999985    2.48000002
   18.08889008  135.30400085    4.90999985    2.48000002
   18.08889008  348.22399902    4.90999985    2.21000004
   18.08889008  135.21699524    4.90999985    2.67000008
   18.08916664  140.74800110    4.90999985    2.39000010
   18.08916664  113.94599915    4.90999985    2.44000006
   18.08916664  127.23600006    4.90999985    2.61999989
   18.09111214  179.02200317    4.90999985    1.94000006
   18.09444427   -1.00000000    4.90999985    1.86000001
   18.09777832   -1.00000000    4.90999985    1.73000002
   18.10083389   -1.00000000    4.90999985    1.63000000
   18.10416794   -1.00000000    4.90999985    1.85000002
   18.10916710   -1.00000000    4.90999985    2.15000010
   18.11333466  240.16200256    4.90999985    2.30999994
   18.11666679  143.31900024    4.90999985    2.32999992
   18.11972237  126.19400024    4.90999985    2.48000002
   18.12222290  129.38499451    4.90999985    2.53999996
   18.12361145  130.51300049    4.90999985    2.55999994
   18.12666702  142.18800354    4.90999985    2.50000000
   18.13000107  138.60699463    4.90999985    2.53999996
   18.13333321  152.97900391    4.90999985    2.51999998
   18.13638878  146.92100525    4.90999985    2.46000004
   18.13972282  159.45799255    4.90999985    2.51999998
   18.14305496  177.72799683    4.90999985    2.42000008
   18.14611053  131.29400635    4.90999985    2.39000010
   18.15194321  131.29400635    4.90999985    2.39000010
   18.15611076  344.40399170    4.90999985    2.15000010
   18.15833282  303.01300049    4.90999985    1.98000002
   18.15944481  270.41000366    4.90999985    2.01999998
   18.16083336  330.62500000    4.90999985    2.01999998
   18.16222191   72.80719757    4.90999985    2.01999998
   18.16250038  142.18800354    4.90999985    2.50000000
   18.16250038  138.60699463    4.90999985    2.53999996
   18.16250038  152.97900391    4.90999985    2.51999998
   18.16277695  146.92100525    4.90999985    2.46000004
   18.16277695  159.45799255    4.90999985    2.51999998
   18.16277695  177.72799683    4.90999985    2.42000008
   18.16305542  131.29400635    4.90999985    2.39000010
   18.16305542  344.40399170    4.90999985    2.15000010
   18.16305542  130.51300049    4.90999985    2.55999994
   18.16361046   -1.00000000    4.90999985    2.01999998
   18.16694450   -1.00000000    4.90999985    1.83000004
   18.17027664   56.67649841    4.90999985    1.76999998
   18.17333221   23.57019997    4.90999985    1.85000002
   18.17666626   -1.00000000    4.90999985    1.61000001
   18.18722153   -1.00000000    4.90999985    1.30999994
   18.19027710   -1.00000000    4.90999985    1.30999994
   18.19361115   -1.00000000    4.90999985    1.71000004
   18.19722176   -1.00000000    4.90999985    1.80999994
   18.20027924   -1.00000000    4.90999985    1.51999998
   18.20361137   -1.00000000    4.90999985    1.58000004
   18.20666695   -1.00000000    4.90999985    1.60000002
   18.21000099   -1.00000000    4.90999985    1.71000004
   18.21333504   -1.00000000    4.90999985    1.61000001
   18.21638870   -1.00000000    4.90999985    1.55999994
   18.21972275   -1.00000000    4.90999985    1.66999996
   18.22583389   -1.00000000    4.90999985    1.58000004
   18.23000145   -1.00000000    4.90999985    1.85000002
   18.23333359   -1.00000000    4.90999985    1.69000006
   18.23666763   -1.00000000    4.90999985    1.55999994
   18.23972321   -1.00000000    4.90999985    1.16999996
   18.24305534   -1.00000000    4.90999985    1.21000004
   18.24611092   -1.00000000    4.90999985    1.11000001
   18.24944496   -1.00000000    4.90999985    1.14999998
   18.25277710   -1.00000000    4.90999985    0.56999999
   18.25583267   -1.00000000    4.90999985    0.73000002
   18.25916672   -1.00000000    4.90999985    0.86000001
   18.26250076   -1.00000000    4.90999985    0.88000000
   18.27277756   -1.00000000    4.90999985    0.83999997
   18.27611160   -1.00000000    4.90999985    1.14999998
   18.27916718   -1.00000000    4.90999985    1.07000005
   18.28249931   -1.00000000    4.90999985    1.11000001
   18.28583336   -1.00000000    4.90999985    1.11000001
   18.28888893   -1.00000000    4.90999985    1.16999996
   18.29222107   -1.00000000    4.90999985    1.05999994
   18.29555511   -1.00000000    4.90999985    1.01999998
   18.29888916   -1.00000000    4.90999985    1.07000005
   18.30194283   -1.00000000    4.90999985    1.03999996
   18.30527687   -1.00000000    4.90999985    1.25000000
   18.31166649   -1.00000000    4.90999985    1.39999998
   18.31583214   -1.00000000    4.90999985    1.36000001
   18.31888962   -1.00000000    4.90999985    1.28999996
   18.32222366   -1.00000000    4.90999985    1.25000000
   18.32555580   -1.00000000    4.90999985    1.13000000
   18.32861137   -1.00000000    4.90999985    1.21000004
   18.33222389   -1.00000000    4.90999985    1.25000000
   18.33527756   -1.00000000    4.90999985    1.33000004
   18.33861160   -1.00000000    4.90999985    1.16999996
   18.34194565   -1.00000000    4.90999985    1.46000004
   18.34500122   43.55360031    4.90999985    1.71000004
   18.34833336   -1.00000000    4.90999985    1.88000000
   18.35444450   -1.00000000    4.90999985    1.85000002
   18.35861206  115.25900269    4.90999985    1.91999996
   18.36194420   36.55220032    4.90999985    1.89999998
   18.36555672   -1.00000000    4.90999985    1.83000004
   18.36861038   -1.00000000    4.90999985    1.80999994
   18.37194443   -1.00000000    4.90999985    1.53999996
   18.37527847   -1.00000000    4.90999985    1.64999998
   18.37833405   -1.00000000    4.90999985    1.63000000
   18.38166618   -1.00000000    4.90999985    1.55999994
   18.38500023   -1.00000000    4.90999985    1.71000004
   18.38805580   -1.00000000    4.90999985    1.71000004
   18.39138794   -1.00000000    4.90999985    1.64999998
   18.39722252   -1.00000000    4.90999985    1.63000000
   18.40138817   -1.00000000    4.90999985    1.55999994
   18.40472221   -1.00000000    4.90999985    1.55999994
   18.40805435   -1.00000000    4.90999985    1.55999994
   18.41110992   -1.00000000    4.90999985    1.63000000
   18.41444397   -1.00000000    4.90999985    1.61000001
   18.41749954  214.35699463    4.90999985    1.83000004
   18.42083359  414.72100830    4.90999985    2.17000008
   18.42277718  416.04400635    4.90999985    2.03999996
   18.42416573  322.96701050    4.90999985    2.01999998
   18.42555428  276.61300659    4.90999985    1.98000002
   18.42694473   35.20800018    4.90999985    2.03999996
   18.42694473   -1.00000000    4.90999985    1.63000000
   18.42722130   -1.00000000    4.90999985    1.61000001
   18.42722130  214.35699463    4.90999985    1.83000004
   18.42722130  414.72100830    4.90999985    2.17000008
   18.42749977   -1.00000000    4.90999985    1.71000004
   18.42749977   -1.00000000    4.90999985    1.64999998
   18.42749977   -1.00000000    4.90999985    1.55999994
   18.42777634   -1.00000000    4.90999985    1.55999994
   18.42777634   -1.00000000    4.90999985    1.55999994
   18.42833328   -1.00000000    4.90999985    1.91999996
   18.43166542   -1.00000000    4.90999985    1.61000001
   18.43472099  283.01699829    4.90999985    1.75000000
   18.43805504  179.24099731    4.90999985    2.17000008
   18.44138718  153.97300720    4.90999985    2.46000004
   18.44777679  153.97300720    4.90999985    2.42000008
   18.45194435  137.01300049    4.90999985    2.57999992
   18.45499992  146.58000183    4.90999985    2.55999994
   18.45833397  122.10900116    4.90999985    2.67000008
   18.46083450  129.11000061    4.90999985    2.69000006
   18.46222305  125.97100067    4.90999985    2.73000002
   18.46527863  129.68699646    4.90999985    2.53999996
   18.46861076  118.94499969    4.90999985    2.75000000
   18.47166634  124.00199890    4.90999985    2.76999998
   18.47500038  128.30000305    4.90999985    2.67000008
   18.47833443  119.62200165    4.90999985    2.67000008
   18.48139000  125.11399841    4.90999985    2.55999994
   18.48472214  116.91000366    4.90999985    2.59999990
   18.49055672  116.91000366    4.90999985    2.55999994
   18.49472237  117.73799896    4.90999985    2.66000009
   18.49805641  130.80700684    4.90999985    2.67000008
   18.50111198  140.97399902    4.90999985    2.66000009
   18.50444412  135.73800659    4.90999985    2.61999989
   18.50777817  134.78900146    4.90999985    2.59999990
   18.51083374  139.97700500    4.90999985    2.59999990
   18.51416588  123.54799652    4.90999985    2.50000000
   18.51749992  141.74699402    4.90999985    2.59999990
   18.52055550  126.20999908    4.90999985    2.61999989
   18.52388954  143.68400574    4.90999985    2.64000010
   18.52722168  136.18899536    4.90999985    2.42000008
   18.52777672  130.92300415    4.90999985    2.44000006
   18.53333282  130.92300415    4.90999985    2.36999989
   18.53750038  146.92700195    4.90999985    2.44000006
   18.54083252  137.99200439    4.90999985    2.42000008
   18.54416656  136.48399353    4.90999985    2.42000008
   18.54722214  121.28700256    4.90999985    2.48000002
   18.55055428  131.18499756    4.90999985    2.57999992
   18.55360985  129.13800049    4.90999985    2.61999989
   18.55694389  115.43599701    4.90999985    2.59999990
   18.56027794  134.98699951    4.90999985    2.53999996
   18.56110954  144.34899902    4.90999985    2.53999996
   18.56388855  134.95100403    4.90999985    2.40000010
   18.56722260  159.78399658    4.90999985    2.40000010
   18.57027817  161.27799988    4.90999985    2.36999989
   18.57638931  161.27799988    4.90999985    2.28999996
   18.58055687  161.62899780    4.90999985    2.32999992
   18.58361244  193.03999329    4.90999985    2.28999996
   18.58694458  162.80599976    4.90999985    2.23000002
   18.59000015  153.45500183    4.90999985    2.19000006
   18.59333420  169.71400452    4.90999985    2.23000002
   18.59444427  141.82200623    4.90999985    2.25000000
   18.59694481  138.79699707    4.90999985    2.32999992
   18.60027885  125.21199799    4.90999985    2.51999998
   18.60333443  113.30999756    4.90999985    2.55999994
   18.60666656  106.83300018    4.90999985    2.64000010
   18.61000061  109.71299744    4.90999985    2.71000004
   18.61305618  116.86900330    4.90999985    2.78999996
   18.63555527  229.16799927    4.90999985    2.03999996
   18.63583374  236.30999756    4.90999985    2.03999996
   18.63916588  160.68299866    4.90999985    2.15000010
   18.64249992  147.40400696    4.90999985    2.32999992
   18.64555550  121.74199677    4.90999985    2.36999989
   18.64888954  119.72899628    4.90999985    2.51999998
   18.65222168  125.61299896    4.90999985    2.53999996
   18.65527725  127.84100342    4.90999985    2.55999994
   18.66194344  127.84100342    4.90999985    2.55999994
   18.66611099  124.50599670    4.90999985    2.66000009
   18.66860962  117.99299622    4.90999985    2.66000009
   18.67000008  127.69000244    4.90999985    2.64000010
   18.67305565  130.69599915    4.90999985    2.64000010
   18.67638779  114.43299866    4.90999985    2.64000010
   18.67944336  143.37399292    4.90999985    2.59999990
   18.68277740  155.75599670    4.90999985    2.50000000
   18.68610954  146.25199890    4.90999985    2.30999994
   18.68944359  172.55599976    4.90999985    2.36999989
   18.69249916  139.55299377    4.90999985    2.42000008
   18.69583321  223.93400574    4.90999985    2.36999989
   18.69888878  460.16500854    4.90999985    2.19000006
   18.70111275   98.55539703    4.90999985    2.07999992
   18.70111275  172.55599976    4.90999985    2.36999989
   18.70111275  139.55299377    4.90999985    2.42000008
   18.70138931  223.93400574    4.90999985    2.36999989
   18.70138931  460.16500854    4.90999985    2.19000006
   18.70138931  130.69599915    4.90999985    2.64000010
   18.70166779  114.43299866    4.90999985    2.64000010
   18.70166779  143.37399292    4.90999985    2.59999990
   18.70166779  155.75599670    4.90999985    2.50000000
   18.70194435  146.25199890    4.90999985    2.30999994
   18.70611191  146.25199890    4.90999985    2.03999996
   18.71027946  467.85000610    4.90999985    2.21000004
   18.71222305  257.45901489    4.90999985    2.13000011
   18.71361160  266.59100342    4.90999985    2.19000006
   18.71500015  211.55700684    4.90999985    2.21000004
   18.71500015  467.85000610    4.90999985    2.21000004
   18.71555710  263.95199585    4.90999985    2.21000004
   18.71888924  198.09300232    4.90999985    2.26999998
   18.72222328  195.80700684    4.90999985    2.28999996
   18.72527885  146.62699890    4.90999985    2.46000004
   18.72861099  129.15199280    4.90999985    2.51999998
   18.73166656  123.97799683    4.90999985    2.57999992
   18.73583412  123.97799683    4.90999985    2.67000008
   18.73999977  121.73000336    4.90999985    2.73000002
   18.74333382  114.81500244    4.90999985    2.66000009
   18.74638939  115.62699890    4.90999985    2.69000006
   18.74888992  121.56199646    4.90999985    2.69000006
   18.75000000  131.27499390    4.90999985    2.67000008
   18.75333405  124.13600159    4.90999985    2.64000010
   18.75666618  131.77200317    4.90999985    2.61999989
   18.75972176  128.12300110    4.90999985    2.57999992
   18.76305580  112.62799835    4.90999985    2.64000010
   18.76638794  128.03300476    4.90999985    2.66000009
   18.76944351  129.83200073    4.90999985    2.53999996
   18.77277756  134.83299255    4.90999985    2.48000002
   18.77888870  134.83299255    4.90999985    2.59999990
   18.78277779  125.34500122    4.90999985    2.59999990
   18.78610992  119.48699951    4.90999985    2.46000004
   18.78944397  150.17999268    4.90999985    2.46000004
   18.79249954  176.40499878    4.90999985    2.30999994
   18.79583359  135.90600586    4.90999985    2.36999989
   18.79916573  124.71399689    4.90999985    2.51999998
   18.80222130  121.60299683    4.90999985    2.59999990
   18.80555534  126.66899872    4.90999985    2.59999990
   18.80861092  118.37200165    4.90999985    2.53999996
   18.81194305  145.27200317    4.90999985    2.50000000
   18.81527710  118.96700287    4.90999985    2.50000000
   18.81583214  150.32400513    4.90999985    2.51999998
   18.82166672  150.32400513    4.90999985    2.19000006
   18.82583427  347.87399292    4.90999985    2.26999998
   18.82777786  142.33700562    4.90999985    2.17000008
   18.82777786  118.96700287    4.90999985    2.50000000
   18.82805634  347.87399292    4.90999985    2.26999998
   18.82805634  176.40499878    4.90999985    2.30999994
   18.82805634  135.90600586    4.90999985    2.36999989
   18.82833481  124.71399689    4.90999985    2.51999998
   18.82833481  121.60299683    4.90999985    2.59999990
   18.82833481  126.66899872    4.90999985    2.59999990
   18.82861137  118.37200165    4.90999985    2.53999996
   18.82861137  145.27200317    4.90999985    2.50000000
   18.83055687   -1.00000000    4.90999985    1.73000002
   18.83388901   -1.00000000    4.90999985    1.75000000
   18.83694458   -1.00000000    4.90999985    1.53999996
   18.84027863   -1.00000000    4.90999985    1.71000004
   18.84333420   -1.00000000   -1.00000000   -1.00000000
   18.84861183   -1.00000000   -1.00000000   -1.00000000
   18.85277748  246.45199585    4.90999985    1.69000006
   18.85583305  159.40699768    4.90999985    2.07999992
   18.85916710  139.71400452    4.90999985    2.30999994
   18.86166763  125.43900299    4.90999985    2.51999998
   18.86305618  115.37799835    4.90999985    2.53999996
   18.86611176  141.24499512    4.90999985    2.59999990
   18.86944389  144.42700195    4.90999985    2.57999992
   18.87249947  122.43299866    4.90999985    2.46000004
   18.87583351  128.41799927    4.90999985    2.55999994
   18.87916756  123.36000061    4.90999985    2.67000008
   18.88222313  122.83100128    4.90999985    2.69000006
   18.88555527  117.87200165    4.90999985    2.69000006
   18.89138794  117.87200165    4.90999985    2.69000006
   18.89555550  119.96399689    4.90999985    2.73000002
   18.89888954  122.31500244    4.90999985    2.71000004
   18.90194321  116.92900085    4.90999985    2.73000002
   18.90527725  133.13000488    4.90999985    2.66000009
   18.90861130  117.99800110    4.90999985    2.64000010
   18.91166687  122.88700104    4.90999985    2.66000009
   18.91499901  116.45200348    4.90999985    2.64000010
   18.91805458  109.88500214    4.90999985    2.64000010
   18.92138863  116.20200348    4.90999985    2.59999990
   18.92472076  120.01999664    4.90999985    2.64000010
   18.92777634  116.23500061    4.90999985    2.59999990
   18.92833328  110.83399963    4.90999985    2.59999990
   18.93416595  110.83399963    4.90999985    2.59999990
   18.93833160  116.76799774    4.90999985    2.61999989
   18.94166565  122.97100067    4.90999985    2.61999989
   18.94499969  126.55799866    4.90999985    2.57999992
   18.94805527  128.10200500    4.90999985    2.46000004
   18.95138931  121.90200043    4.90999985    2.40000010
   18.95444489  122.11499786    4.90999985    2.50000000
   18.95777893  132.14100647    4.90999985    2.34999990
   18.96111107  137.48399353    4.90999985    2.32999992
   18.96166801  141.33799744    4.90999985    2.34999990
   18.96472359  156.00500488    4.90999985    2.30999994
   18.96805573  152.67500305    4.90999985    2.34999990
   18.97111130  137.47900391    4.90999985    2.32999992
   18.97722244  137.47900391    4.90999985    2.34999990
   18.98139000  124.34899902    4.90999985    2.34999990
   18.98444557  127.42500305    4.90999985    2.44000006
   18.98777771  105.54000092    4.90999985    2.44000006
   18.99111176  119.63099670    4.90999985    2.51999998
   18.99416733  115.63400269    4.90999985    2.64000010
   18.99500084  116.45300293    4.90999985    2.64000010
   18.99777794  113.10299683    4.90999985    2.64000010
   19.00111198  119.51300049    4.90999985    2.69000006
   19.00416756  116.05300140    4.90999985    2.64000010
   19.00749969  117.68599701    4.90999985    2.64000010
   19.01055527  112.37899780    4.90999985    2.69000006
   19.01388931  106.87699890    4.90999985    2.75000000
   19.02000046  106.87699890    3.07999992    2.78999996
   19.02416611  100.87699890    2.50000000    2.78999996
   19.02722168  105.72899628    2.53999996    2.78999996
   19.02833366  108.43099976    2.59999990    2.78999996
   19.03111076  106.41500092    3.05999994    2.78999996
   19.03444481  109.77700043    3.84999990    2.78999996
   19.03750038  113.84899902    4.76000023    2.78999996
   19.04083252  116.17900085    4.90999985    2.64000010
   19.04388809  118.50900269    4.90999985    2.55999994
   19.04722214  134.15299988    4.90999985    2.55999994
   19.05055428  145.30499268    4.90999985    2.42000008
   19.05360985  136.33099365    4.90999985    2.28999996
   19.05694389  220.23699951    4.90999985    2.26999998
   19.06277657  220.23699951    4.90999985    2.48000002
   19.06694603  130.52299500    4.90999985    2.55999994
   19.07027817  135.36900330    4.90999985    2.42000008
   19.07333374  131.08200073    4.90999985    2.53999996
   19.07666779  134.15400696    4.90999985    2.46000004
   19.07972336  149.77200317    4.90999985    2.30999994
   19.08305550  123.18099976    4.90999985    2.36999989
   19.08638954  117.05200195    4.90999985    2.46000004
   19.08944511  106.30000305    4.90999985    2.46000004
   19.09277916  109.72599792    4.90999985    2.66000009
   19.09500122  118.51799774    4.90999985    2.67000008
   19.09638977  113.96900177    4.90999985    2.71000004
   19.09972191  112.47399902    4.90999985    2.64000010
   19.10555649  112.47399902    4.90999985    2.19000006
   19.10972214  137.12300110    4.90999985    2.19000006
   19.11305618  194.64799500    4.90999985    2.28999996
   19.11638832  168.96899414    4.90999985    2.05999994
   19.11944389  237.74200439    4.90999985    2.26999998
   19.12277794   38.42409897    4.90999985    1.91999996
   19.12583351   -1.00000000    4.90999985    1.69000006
   19.12972260   47.86610031    4.90999985    1.64999998
   19.13277817  216.82499695    4.90999985    1.96000004
   19.13611031  138.23699951    4.90999985    2.17000008
   19.13944435  146.65800476    4.90999985    2.34999990
   19.14249992  119.91400146    4.90999985    2.46000004
   19.14861107  119.91400146    4.90999985    2.46000004
   19.15250015  156.13600159    4.90999985    2.44000006
   19.15583229  133.03999329    4.90999985    2.36999989
   19.15916634  129.27400208    4.90999985    2.30999994
   19.16166687  128.02299500    4.90999985    2.39000010
   19.16277695  128.27200317    4.90999985    2.44000006
   19.16611099  109.14299774    4.90999985    2.55999994
   19.16916656  117.15899658    4.90999985    2.67000008
   19.17249870  103.56600189    4.90999985    2.69000006
   19.17555428  115.57800293    4.90999985    2.73000002
   19.17888832  110.46499634    4.90999985    2.75000000
   19.18222237  109.42900085    4.30999994    2.75000000
   19.18527603  115.21299744    3.57999992    2.76999998
   19.19138718  115.21299744    3.75000000    2.75000000
   19.19555473  111.30699921    4.53999996    2.73000002
   19.19861031  111.04799652    4.82999992    2.73000002
   19.20194435  126.43099976    4.90999985    2.71000004
   19.20527840  120.82099915    4.90999985    2.67000008
   19.20833397  113.58300018    4.90999985    2.73000002
   19.21166801  108.24199677    4.90999985    2.73000002
   19.21472359  112.66999817    4.63999987    2.69000006
   19.21805573  107.57099915    4.88999987    2.71000004
   19.22138977  115.90200043    4.90999985    2.75000000
   19.22444534  118.14499664    4.90999985    2.71000004
   19.22777748  116.08100128    4.90999985    2.64000010
   19.22833443  116.96499634    4.90999985    2.61999989
   19.23416710  116.96499634    4.90999985    2.67000008
   19.23833275  115.81800079    4.90999985    2.67000008
   19.24166679  121.44899750    4.90999985    2.66000009
   19.24472237  112.79199982    4.90999985    2.66000009
   19.24805641   99.05539703    4.90999985    2.66000009
   19.25111198  112.65799713    4.90999985    2.64000010
   19.25444412  114.66699982    4.90999985    2.69000006
   19.25777817  123.33100128    4.38999987    2.67000008
   19.26083374  116.61499786    4.00000000    2.73000002
   19.26166725  119.00900269    4.00000000    2.73000002
   19.26444435  115.44300079    3.84999990    2.73000002
   19.26777840  121.70700073    3.41000009    2.73000002
   19.27083397  110.40499878    2.94000006    2.75000000
   19.27694511  110.40499878    2.00000000    2.75000000
   19.28111076  115.01899719    1.53999996    2.75000000
   19.28444481  114.41200256    1.13000000    2.75000000
   19.28750038  111.37699890    1.07000005    2.75000000
   19.29083252  109.99500275    0.94000000    2.75000000
   19.29416656  115.55699921    0.92000002    2.75000000
   19.29500008  108.44899750    0.92000002    2.75000000
   19.29777718  118.30999756    0.92000002    2.75000000
   19.30111122  127.96600342    0.95999998    2.75000000
   19.30416679   99.04149628    0.98000002    2.75000000
   19.30749893  108.06199646    0.98000002    2.75000000
   19.31083298  109.48000336    0.98000002    2.75000000
   19.31388855  114.11399841    1.00000000    2.75000000
   19.32000160  114.11399841    0.92000002    2.75000000
   19.32389069  108.31199646    0.89999998    2.73000002
   19.32722282  118.17099762    0.89999998    2.73000002
   19.32833481  131.24400330    0.86000001    2.75000000
   19.33083344  115.81199646    0.86000001    2.75000000
   19.33416748  113.67500305    0.86000001    2.75000000
   19.33722305  113.28900146    0.86000001    2.75000000
   19.34055710  125.44899750    0.86000001    2.75000000
   19.34388924  119.44599915    0.88000000    2.75000000
   19.34694481  104.50399780    0.86000001    2.75000000
   19.35027885  115.33499908    0.88000000    2.75000000
   19.35333443  110.61900330    0.94000000    2.73000002
   19.35666656  103.51300049    0.94000000    2.75000000
   19.36277771  103.51300049    1.00000000    2.75000000
   19.36694527  110.59100342    1.03999996    2.75000000
   19.37000084  115.19000244    1.03999996    2.75000000
   19.37333298  110.10399628    1.03999996    2.75000000
   19.37666702  114.68800354    1.26999998    2.73000002
   19.37972260  107.03700256    1.48000002    2.73000002
   19.38305473  103.55500031    1.63000000    2.73000002
   19.38611031  108.48000336    1.75000000    2.75000000
   19.38944435  106.57399750    1.75000000    2.73000002
   19.39277840  120.80699921    1.63000000    2.73000002
   19.39500046  104.68399811    1.58000004    2.73000002
   19.39638901  109.22000122    1.58000004    2.73000002
   19.39972115  115.76200104    1.58000004    2.73000002
   19.40555573  115.76200104    1.33000004    2.73000002
   19.40972137  113.89700317    1.30999994    2.73000002
   19.41305542  118.12000275    1.33000004    2.75000000
   19.41611099  110.66799927    1.34000003    2.73000002
   19.41944313  114.48500061    1.38000000    2.73000002
   19.42249870  109.48999786    1.44000006    2.73000002
   19.42583275  108.00499725    1.46000004    2.71000004
   19.42833328  104.37300110    1.55999994    2.71000004
   19.42944336  109.92500305    1.58000004    2.73000002
   19.43277740  107.35199738    1.71000004    2.73000002
   19.43583298  120.97599792    1.89999998    2.75000000
   19.43916512  112.32099915    2.17000008    2.73000002
   19.44249916  105.85099792    2.51999998    2.71000004
   19.44833183  105.85099792    2.67000008    2.71000004
   19.45250130  118.94899750    3.21000004    2.61999989
   19.45583344  116.98400116    4.15999985    2.71000004
   19.45888901  114.25000000    3.80999994    2.73000002
   19.46194458  116.34400177    3.18000007    2.73000002
   19.46250153  112.03099823    3.18000007    2.73000002
   19.46583366  112.48799896    2.71000004    2.73000002
   19.46888924  112.04499817    2.61999989    2.71000004
   19.47222328  127.68299866    3.00000000    2.67000008
   19.47555542  101.13800049    3.39000010    2.69000006
   19.47861099  119.80899811    3.48000002    2.67000008
   19.48194504  109.60099792    3.11999989    2.71000004
   19.48500061  115.92600250    2.64000010    2.71000004
   19.49138832  115.92600250    1.51999998    2.71000004
   19.49527740  105.82299805    1.25000000    2.73000002
   19.49861145  109.76599884    1.21000004    2.73000002
   19.50194359  102.85600281    1.14999998    2.73000002
   19.50499916  101.37999725    0.89999998    2.73000002
   19.50833321  101.24900055    0.88000000    2.73000002
   19.51166725  123.07499695    0.88000000    2.73000002
   19.51472282  115.52799988    0.94000000    2.73000002
   19.51805496  106.55899811    0.95999998    2.73000002
   19.52138901  111.32299805    1.01999998    2.75000000
   19.52444458  118.13500214    1.00000000    2.73000002
   19.52777672  106.16400146    1.23000002    2.73000002
   19.52861023  103.11000061    1.23000002    2.73000002
   19.53416634  103.11000061    1.28999996    2.73000002
   19.53833199  120.20800018    1.28999996    2.73000002
   19.54138756  124.53399658    1.41999996    2.73000002
   19.54472160  129.56199646    1.89999998    2.66000009
   19.54805565  118.81700134    2.98000002    2.67000008
   19.55111122  117.01899719    3.51999998    2.69000006
   19.55444336  116.25099945    3.26999998    2.69000006
   19.55777740  115.33899689    2.89000010    2.71000004
   19.56083298  109.61399841    2.53999996    2.69000006
   19.56194305  114.53199768    2.51999998    2.69000006
   19.56444359   96.59230042    2.53999996    2.69000006
   19.56777954  108.95500183    2.32999992    2.71000004
   19.57083511  111.67199707    1.88000000    2.71000004
   19.57694626  111.67199707    1.28999996    2.71000004
   19.58111191  104.69699860    1.23000002    2.73000002
   19.58444595  109.05899811    1.25000000    2.75000000
   19.58750153  117.00800323    1.34000003    2.71000004
   19.59083366  115.37599945    1.48000002    2.71000004
   19.59416771  104.72899628    1.69000006    2.71000004
   19.59527779  117.83899689    1.71000004    2.73000002
   19.59749985  122.56400299    1.69000006    2.71000004
   19.60083389  113.11599731    1.53999996    2.71000004
   19.60388947  115.86699677    1.48000002    2.71000004
   19.60722351  111.44799805    1.21000004    2.71000004
   19.61055565  113.17400360    1.14999998    2.73000002
   19.61361122  107.68900299    1.14999998    2.73000002
   19.61972237  107.68900299    1.05999994    2.71000004
   19.62388992  118.03299713    1.05999994    2.71000004
   19.62722206  111.98600006    1.05999994    2.71000004
   19.62861061  118.59700012    1.05999994    2.71000004
   19.63083267  120.12500000    1.07000005    2.71000004
   19.63416672  112.82700348    1.14999998    2.71000004
   19.65388870  107.04699707    1.60000002    2.71000004
   19.65694427  106.67900085    1.61000001    2.69000006
   19.66277695  106.67900085    1.66999996    2.69000006
   19.66694450  108.51699829    1.66999996    2.71000004
   19.67000008  112.62100220    1.66999996    2.69000006
   19.67333221  111.93599701    1.55999994    2.69000006
   19.67666626  113.55999756    1.53999996    2.69000006
   19.67972183  118.51100159    1.46000004    2.69000006
   19.68305397  109.17400360    1.46000004    2.69000006
   19.68638802  110.61299896    1.46000004    2.69000006
   19.68944359  124.88200378    1.46000004    2.69000006
   19.69277763  108.67600250    1.44000006    2.69000006
   19.69555473  119.47100067    1.39999998    2.69000006
   19.69638824  107.52100372    1.39999998    2.69000006
   19.69972038  112.78299713    1.39999998    2.69000006
   19.70555687  112.78299713    1.38000000    2.67000008
   19.70972252  116.02799988    1.73000002    2.67000008
   19.71305656  121.51399994    1.80999994    2.67000008
   19.71611214  111.66300201    1.80999994    2.67000008
   19.71944427  112.05699921    2.05999994    2.67000008
   19.72277832  117.55000305    2.19000006    2.66000009
   19.72583389  113.76399994    2.19000006    2.67000008
   19.72888947  118.79499817    2.17000008    2.66000009
   19.72944450  128.61799622    2.17000008    2.67000008
   19.73277855  103.53800201    2.39000010    2.67000008
   19.73583412  112.83899689    2.44000006    2.67000008
   19.73916626  114.28500366    2.59999990    2.66000009
   19.74250031  102.96099854    2.67000008    2.66000009
   19.74833298  102.96099854    2.30999994    2.64000010
   19.75250053  102.67600250    2.50000000    2.66000009
   19.75583267  108.79699707    2.42000008    2.66000009
   19.75916672  103.26399994    2.23000002    2.64000010
   19.76222229  105.94400024    2.21000004    2.64000010
   19.76250076  105.96099854    2.21000004    2.64000010
   19.76583290  103.26999664    2.23000002    2.66000009
   19.76888847  115.46299744    2.25000000    2.66000009
   19.77222252   98.68460083    2.25000000    2.64000010
   19.77555466  116.11299896    2.21000004    2.66000009
   19.77861023  105.73999786    2.17000008    2.67000008
   19.78194427  112.81999969    2.17000008    2.67000008
   19.78527641  108.45400238    2.15000010    2.66000009
   19.79138756  108.45400238    2.28999996    2.66000009
   19.79555511  101.83799744    2.51999998    2.64000010
   19.79861069  109.10700226    2.76999998    2.66000009
   19.80194283  111.47000122    2.89000010    2.64000010
   19.80527687  109.91200256    2.96000004    2.64000010
   19.80833244  110.61499786    3.09999990    2.64000010
   19.81166649  104.56900024    3.07999992    2.61999989
   19.81472206  110.63099670    2.89000010    2.64000010
   19.81805611  105.09300232    2.59999990    2.61999989
   19.82139015  116.39499664    2.46000004    2.64000010
   19.82444572  115.03700256    2.51999998    2.61999989
   19.82777786  101.68800354    2.50000000    2.61999989
   19.82888985   96.91799927    2.50000000    2.61999989
   19.83416748   96.91799927    2.44000006    2.64000010
   19.83833313  103.47299957    2.39000010    2.64000010
   19.84138870  105.00700378    2.39000010    2.64000010
   19.84472275   99.09230042    2.39000010    2.64000010
   19.84805679  101.16799927    2.40000010    2.64000010
   19.85111237  113.14299774    2.44000006    2.64000010
   19.85444450   95.43029785    2.44000006    2.61999989
   19.85777855  111.70500183    2.50000000    2.61999989
   19.86083412  103.02400208    2.51999998    2.61999989
   19.86222267   93.01519775    2.46000004    2.61999989
   19.86444473  104.82599640    2.42000008    2.61999989
   19.86777878  109.87999725    2.32999992    2.64000010
   19.87111092   97.39369965    2.34999990    2.61999989
   19.87694550   97.39369965    2.44000006    2.61999989
   19.88111115  220.91200256    2.46000004    2.64000010
   19.88444519   92.57710266    2.50000000    2.61999989
   19.88750076  100.23899841    2.51999998    2.61999989
   19.89083290  112.21900177    2.53999996    2.61999989
   19.89416695  104.32700348    2.51999998    2.61999989
   19.89555550  108.73100281    2.53999996    2.61999989
   19.89749908  114.22699738    2.57999992    2.61999989
   19.90083313  109.80400085    2.64000010    2.61999989
   19.90416718  107.46700287    2.73000002    2.59999990
   19.90722275  120.92099762    2.75000000    2.61999989
   19.91055489  117.82599640    2.82999992    2.61999989
   19.91361046  110.75399780    2.89000010    2.61999989
   19.91972160  110.75399780    2.89000010    2.59999990
   19.92388916  131.38800049    2.98000002    2.59999990
   19.92722130  146.97500610    2.98000002    2.59999990
   19.92888832  141.00199890    2.98000002    2.59999990
   19.93083191  135.21699524    2.96000004    2.59999990
   19.93416595  133.27499390    2.94000006    2.59999990
   19.93750000  135.90400696    2.91000009    2.57999992
   19.94055557  147.28900146    2.91000009    2.59999990
   19.94388771  179.86999512    2.94000006    2.57999992
   19.94694328  178.02699280    2.96000004    2.57999992
   19.95027924  193.04100037    2.96000004    2.57999992
   19.95361137  223.35600281    3.00000000    2.57999992
   19.95666695  249.46400452    2.98000002    2.57999992
   19.96277809  249.46400452    3.00000000    2.55999994
   19.96694565  402.18200684    3.01999998    2.57999992
   19.96888924  467.29501343    3.00000000    2.57999992
   19.97000122  412.65200806    3.00000000    2.57999992
   19.97166634  393.06298828    2.98000002    2.57999992
   19.97305679  324.89898682    2.98000002    2.57999992
   19.97416687  246.18800354    2.96000004    2.57999992
   19.97444534  135.90400696    2.91000009    2.57999992
   19.97444534  147.28900146    2.91000009    2.59999990
   19.97472191  179.86999512    2.94000006    2.57999992
   19.97472191  178.02699280    2.96000004    2.57999992
   19.97472191  193.04100037    2.96000004    2.57999992
   19.97500038  223.35600281    3.00000000    2.57999992
   19.97500038  249.46400452    2.98000002    2.57999992
   19.97500038  402.18200684    3.01999998    2.57999992
   19.97527885  133.27499390    2.94000006    2.59999990
   19.97583389  169.86399841    2.98000002    2.57999992
   19.97888947  101.11499786    2.98000002    2.57999992
   19.98222351   82.67430115    2.98000002    2.57999992
   19.98555565   92.21569824    3.00000000    2.55999994
   19.98861122   -1.00000000   -1.00000000   -1.00000000
   19.99500084   -1.00000000   -1.00000000   -1.00000000
   19.99916649   -1.00000000    2.96000004    2.55999994
   20.00250053   -1.00000000    2.96000004    2.55999994
   20.00583267   -1.00000000    2.96000004    2.55999994
   20.00944519   -1.00000000    2.94000006    2.57999992
   20.01250076   -1.00000000    2.93000007    2.57999992
   20.01583290   -1.00000000    2.91000009    2.57999992
   20.01916695   -1.00000000    2.89000010    2.57999992
   20.02222252   -1.00000000    2.86999989    2.57999992
   20.02555466   -1.00000000    2.84999990    2.57999992
   20.02861023   -1.00000000    2.82999992    2.57999992
   20.03194427   -1.00000000    2.82999992    2.57999992
   20.04194450   -1.00000000    2.84999990    2.57999992
   20.04527664   -1.00000000    2.86999989    2.57999992
   20.04833221   -1.00000000    2.91000009    2.57999992
   20.05166626   -1.00000000    2.96000004    2.57999992
   20.05499840   -1.00000000    3.01999998    2.57999992
   20.05805397   -1.00000000    3.01999998    2.57999992
   20.06138802   -1.00000000    2.94000006    2.57999992
   20.06472206   -1.00000000    2.86999989    2.57999992
   20.06777954   -1.00000000    2.80999994    2.57999992
   20.07111168   -1.00000000    2.73000002    2.57999992
   20.07416725   -1.00000000    2.67000008    2.57999992
   20.08472252   -1.00000000    2.61999989    2.57999992
   20.08805656   -1.00000000    2.64000010    2.57999992
   20.09138870   -1.00000000    2.73000002    2.59999990
   20.09444427   -1.00000000    2.82999992    2.59999990
   20.09777832   -1.00000000    2.89000010    2.57999992
   20.10111237   -1.00000000    2.91000009    2.57999992
   20.10416794   -1.00000000    2.98000002    2.57999992
   20.10750008   -1.00000000    3.07999992    2.55999994
   20.11111069   -1.00000000    3.28999996    2.53999996
   20.11416626   -1.00000000    3.51999998    2.57999992
   20.11750031   -1.00000000    3.55999994    2.57999992
   20.12777710   -1.00000000    2.86999989    2.57999992
   20.13083267   -1.00000000    2.78999996    2.57999992
   20.13416672   -1.00000000    2.78999996    2.57999992
   20.13750076   -1.00000000    2.78999996    2.57999992
   20.14055634   -1.00000000    2.78999996    2.59999990
   20.14416695   -1.00000000    2.76999998    2.59999990
   20.14722252   -1.00000000    2.75000000    2.57999992
   20.15055466   -1.00000000    2.76999998    2.57999992
   20.15388870   -1.00000000    2.82999992    2.59999990
   20.15694427   -1.00000000    2.91000009    2.59999990
   20.16027832   -1.00000000    2.98000002    2.59999990
   20.17055511   -1.00000000    3.23000002    2.57999992
   20.17388916   -1.00000000    3.34999990    2.59999990
   20.17749977   -1.00000000    3.53999996    2.57999992
   20.18055534   -1.00000000    3.70000005    2.55999994
   20.18388748   -1.00000000    3.93000007    2.53999996
   20.18722153   -1.00000000    4.30999994    2.53999996
   20.19027710   -1.00000000    4.55999994    2.55999994
   20.19361115   -1.00000000    4.71999979    2.55999994
   20.19694328   -1.00000000    4.82999992    2.55999994
   20.20000076   -1.00000000    4.90999985    2.53999996
   20.20333481   -1.00000000    4.90999985    2.53999996
   20.21333504   -1.00000000    4.90999985    2.51999998
   20.21666718   -1.00000000    4.90999985    2.51999998
   20.22000122   -1.00000000    4.90999985    2.50000000
   20.22305679   -1.00000000    4.90999985    2.46000004
   20.22638893   -1.00000000    4.90999985    2.46000004
   20.22944450   -1.00000000    4.90999985    2.44000006
   20.23277855   -1.00000000    4.90999985    2.42000008
   20.23611069   -1.00000000    4.90999985    2.42000008
   20.23916626   -1.00000000    4.90999985    2.44000006
   20.24277878   -1.00000000    4.90999985    2.48000002
   20.24583435   -1.00000000    4.90999985    2.51999998
   20.25611115   -1.00000000    4.90999985    2.51999998
   20.25944519   -1.00000000    4.90999985    2.48000002
   20.26277733   -1.00000000    4.90999985    2.46000004
   20.26583290   -1.00000000    4.90999985    2.40000010
   20.26916695   -1.00000000    4.90999985    2.26999998
   20.27249908   -1.00000000    4.90999985    2.32999992
   20.27583313   -1.00000000    4.90999985    2.40000010
   20.27888870   -1.00000000    4.90999985    2.39000010
   20.28222275   -1.00000000    4.90999985    2.40000010
   20.28555489   -1.00000000    4.90999985    2.32999992
   20.28861046   -1.00000000    4.90999985    2.39000010
   20.29916573   -1.00000000    4.90999985    2.48000002
   20.30222130   -1.00000000    4.90999985    2.46000004
   20.30555534   -1.00000000    4.90999985    2.44000006
   20.30916595   -1.00000000    4.90999985    2.44000006
   20.31250000   -1.00000000    4.90999985    2.42000008
   20.31555557   -1.00000000    4.90999985    2.36999989
   20.31888962   -1.00000000    4.90999985    2.32999992
   20.32194519   -1.00000000    4.90999985    2.26999998
   20.32527924   -1.00000000    4.90999985    2.30999994
   20.32861137   -1.00000000    4.90999985    2.19000006
   20.33166695   -1.00000000    4.90999985    2.19000006
   20.34194565   -1.00000000    4.90999985    1.83000004
   20.34527779   -1.00000000    4.90999985    1.71000004
   20.34833336   -1.00000000    4.90999985    1.75000000
   20.35166740   -1.00000000    4.90999985    1.98000002
   20.35499954   -1.00000000    4.90999985    2.03999996
   20.35805511   -1.00000000    4.90999985    2.11999989
   20.36138916   -1.00000000    4.90999985    2.34999990
   20.36444473   -1.00000000    4.90999985    2.32999992
   20.36777878   -1.00000000    4.90999985    2.28999996
   20.37111092   -1.00000000    4.90999985    2.44000006
   20.37416649   -1.00000000    4.90999985    2.44000006
   20.38472176   -1.00000000    4.90999985    1.91999996
   20.38805580   -1.00000000    4.90999985    1.83000004
   20.39138794   -1.00000000    4.90999985    1.80999994
   20.39444351   -1.00000000    4.90999985    1.96000004
   20.39777756   -1.00000000    4.90999985    1.88000000
   20.40083313   -1.00000000    4.90999985    1.83000004
   20.40416718   -1.00000000    4.90999985    1.89999998
   20.40749931   -1.00000000    4.90999985    2.00000000
   20.41083336   -1.00000000    4.90999985    1.91999996
   20.41416550   -1.00000000    4.90999985    1.75000000
   20.41722107   -1.00000000    4.90999985    2.00000000
   20.42777634   -1.00000000    4.90999985    2.17000008
   20.43083191   -1.00000000    4.90999985    2.09999990
   20.43416595   -1.00000000    4.90999985    2.07999992
   20.43722153   -1.00000000    4.90999985    2.09999990
   20.44055557   -1.00000000    4.90999985    2.13000011
   20.44416618   -1.00000000    4.90999985    2.15000010
   20.44749832   -1.00000000    4.90999985    2.15000010
   20.45055580   -1.00000000    4.90999985    2.15000010
   20.45388985   -1.00000000    4.90999985    2.07999992
   20.45694542   -1.00000000    4.90999985    2.09999990
   20.46027946   -1.00000000    4.90999985    2.11999989
   20.47055626   -1.00000000    4.90999985    2.15000010
   20.47361183   -1.00000000    4.90999985    2.21000004
   20.47722244   -1.00000000    4.90999985    2.15000010
   20.48055649   -1.00000000    4.90999985    2.13000011
   20.48361206   -1.00000000    4.90999985    2.07999992
   20.48694420   -1.00000000    4.90999985    2.03999996
   20.48999977   -1.00000000    4.90999985    1.78999996
   20.49333382   -1.00000000    4.90999985    1.51999998
   20.49666786   -1.00000000    4.90999985    1.76999998
   20.49972153   -1.00000000    4.90999985    1.80999994
   20.50305557   -1.00000000    4.90999985    1.78999996
   20.51333427   -1.00000000    4.90999985    1.94000006
   20.51666641   -1.00000000    4.90999985    1.91999996
   20.51972198   -1.00000000    4.90999985    1.89999998
   20.52305603   -1.00000000    4.90999985    1.91999996
   20.52638817   -1.00000000    4.90999985    1.94000006
   20.52944374   -1.00000000    4.90999985    1.91999996
   20.53277779   -1.00000000    4.90999985    1.88000000
   20.53583336   -1.00000000    4.90999985    1.89999998
   20.53916550   -1.00000000    4.90999985    1.94000006
   20.54277802   -1.00000000    4.90999985    2.01999998
   20.54611015   -1.00000000    4.90999985    2.01999998
   20.55611038   -1.00000000    4.90999985    2.03999996
   20.55944443   -1.00000000    4.90999985    2.13000011
   20.56250000   -1.00000000    4.90999985    2.13000011
   20.56583214   -1.00000000    4.90999985    2.13000011
