    HOUR (UT)   FLARE FACTOR    SKY TESTER    SUN TESTER
   11.65805531   -1.00000000   -1.00000000   -1.00000000
   11.69444466   87.14029694    1.03999996    1.89999998
   11.69777775  100.21199799    1.05999994    1.91999996
   11.70083332   94.30909729    1.05999994    1.91999996
   11.70416641   91.20040131    1.05999994    1.91999996
   11.70749950   93.15519714    1.03999996    1.91999996
   11.71055508   92.58489990    1.03999996    1.94000006
   11.71472168   92.58489990    1.03999996    1.94000006
   11.71888828  100.51200104    1.03999996    1.94000006
   11.72222137   91.36319733    1.03999996    1.94000006
   11.72527695   96.98930359    1.03999996    1.94000006
   11.72777748  107.06300354    1.03999996    1.94000006
   11.72888851   93.20500183    1.03999996    1.94000006
   11.73222160  101.82299805    1.03999996    1.96000004
   11.73583317   91.95189667    1.03999996    1.94000006
   11.73916721   92.06150055    1.01999998    1.96000004
   11.74222279   94.42500305    1.01999998    1.96000004
   11.74555588   98.96900177    1.01999998    1.96000004
   11.74861145   90.84829712    1.01999998    1.98000002
   11.75194454   92.24320221    1.01999998    1.98000002
   11.75777817   92.24320221    1.00000000    1.98000002
   11.76166630   98.77429962    1.01999998    2.00000000
   11.76500034   89.61650085    1.00000000    2.00000000
   11.76833344   93.43499756    1.00000000    1.98000002
   11.77138901  103.53900146    1.01999998    2.00000000
   11.77472210   95.16519928    1.00000000    2.00000000
   11.77805519   95.01329803    1.00000000    2.00000000
   11.78111076   88.26200104    1.00000000    2.00000000
   11.78444481   89.84600067    1.00000000    2.01999998
   11.78750038   93.70870209    0.98000002    2.01999998
   11.79083347   93.22440338    0.98000002    2.01999998
   11.79416752   92.08480072    0.98000002    2.01999998
   11.79472256   89.18409729    1.00000000    2.01999998
   11.80055618   89.18409729    0.98000002    2.01999998
   11.80472279   93.30639648    0.98000002    2.01999998
   11.80777836   95.36810303    0.98000002    2.03999996
   11.81111145   91.46240234    0.98000002    2.03999996
   11.81444454   87.94650269    0.98000002    2.05999994
   11.81750011   93.24299622    0.98000002    2.05999994
   11.82083321   88.52909851    1.00000000    2.05999994
   11.82416630   93.02909851    1.01999998    2.05999994
   11.82722187   89.49240112    1.01999998    2.05999994
   11.82805538   90.82669830    1.01999998    2.05999994
   11.83083344   90.39640045    1.00000000    2.05999994
   11.83416653   95.52570343    1.00000000    2.05999994
   11.83749962   92.90869904    1.00000000    2.05999994
   11.84333324   92.90869904    1.11000001    2.07999992
   11.84749985   88.33809662    1.09000003    2.07999992
   11.85083389   88.34870148    1.13000000    2.09999990
   11.85388947   93.41249847    1.19000006    2.07999992
   11.85722256   89.37190247    1.34000003    2.09999990
   11.86055565   89.49349976    1.38000000    2.07999992
   11.86138916   87.81199646    1.38000000    2.07999992
   11.86416721   91.63320160    1.11000001    2.07999992
   11.86750031   88.95619965    1.01999998    2.07999992
   11.87083340   96.84329987    0.95999998    2.07999992
   11.87388897   87.75460052    0.95999998    2.07999992
   11.87722206   90.08020020    0.95999998    2.09999990
   11.88027763   90.66999817    1.05999994    2.09999990
   11.88611126   90.66999817    1.30999994    2.11999989
   11.89027786   91.50370026    1.21000004    2.11999989
   11.89361095   89.33119965    1.00000000    2.11999989
   11.89472198   90.27110291    1.00000000    2.11999989
   11.89722252   93.20819855    0.98000002    2.11999989
   11.90055561   92.62979889    1.01999998    2.11999989
   11.90388870   95.33499908    1.03999996    2.11999989
   11.90694427   92.47010040    1.64999998    2.13000011
   11.91027737   89.25579834    1.53999996    2.13000011
   11.91361046   88.45490265    2.13000011    2.13000011
   11.91666698   85.03410339    2.76999998    2.15000010
   11.92000008   87.24579620    4.30999994    2.15000010
   11.92305565   93.17130280    4.90999985    2.15000010
   11.92916679   93.17130280    4.90999985    2.15000010
   11.93305588   86.61750031    4.90999985    2.15000010
   11.93638897   90.75749969    4.90999985    2.15000010
   11.93972206   87.90029907    4.90999985    2.17000008
   11.94277763   87.57569885    4.90999985    2.17000008
   11.94611073   87.27690125    4.26000023    2.15000010
   11.94944477   90.10220337    3.32999992    2.15000010
   11.95249939   90.84120178    3.11999989    2.15000010
   11.95583344   90.35769653    3.53999996    2.17000008
   11.95916653   93.94490051    4.84999990    2.17000008
   11.96138859   93.71499634    4.90999985    2.17000008
   11.96249962   88.54149628    4.90999985    2.19000006
   11.96583271   87.77100372    4.90999985    2.19000006
   11.97194386   87.77100372    4.90999985    2.19000006
   11.97611046   87.74490356    4.80000019    2.19000006
   11.97916603   90.16300201    4.76000023    2.17000008
   11.98249912   87.36540222    4.90999985    2.17000008
   11.98583317   87.52490234    3.91000009    2.17000008
   11.98888874   85.94770050    3.89000010    2.19000006
   11.99222279   83.73580170    4.90999985    2.21000004
   11.99472237   87.99430084    4.90999985    2.21000004
   11.99583340   89.90139771    4.90999985    2.19000006
   11.99916649   88.12640381    4.90999985    2.19000006
   12.00249958   86.62670135    4.90999985    2.21000004
   12.00555515   86.32550049    4.90999985    2.19000006
   12.00888920   87.65720367    4.90999985    2.21000004
   12.01472187   87.65720367    4.90999985    2.21000004
   12.01888847   84.84500122    4.90999985    2.21000004
   12.02194405   85.23459625    4.90999985    2.23000002
   12.02527714   87.10900116    4.90999985    2.23000002
   12.02833271   84.73470306    4.90999985    2.23000002
   12.02944374   86.53399658    4.90999985    2.23000002
   12.03249931   89.76139832    4.90999985    2.23000002
   12.03583336   81.15859985    4.90999985    2.23000002
   12.03916740   80.31220245    4.63999987    2.23000002
   12.04222298   84.74199677    3.95000005    2.23000002
   12.04555607   90.39649963    4.90999985    2.23000002
   12.04861164   85.91359711    4.90999985    2.23000002
   12.05194473   82.84680176    4.90999985    2.25000000
   12.05749989   82.84680176    4.90999985    2.23000002
   12.06166649   85.51409912    4.90999985    2.25000000
   12.06500053   82.20860291    4.90999985    2.23000002
   12.06805515   83.75659943    4.90999985    2.25000000
   12.07138920   83.74629974    4.90999985    2.25000000
   12.07472229   85.44909668    4.90999985    2.23000002
   12.07777786   86.26860046    4.76000023    2.25000000
   12.08111095   83.99569702    4.59999990    2.25000000
   12.08444405   81.94390106    4.36999989    2.23000002
   12.08749962   84.01280212    3.25000000    2.25000000
   12.09083271   86.79060364    1.88000000    2.25000000
   12.09388828   82.36000061    2.75000000    2.25000000
   12.09472179   82.79109955    3.30999994    2.25000000
   12.10055637   82.79109955    2.66000009    2.25000000
   12.10444450   82.09079742    3.73000002    2.25000000
   12.10777855   86.04750061    4.69999981    2.26999998
   12.11111164   83.91860199    4.90999985    2.26999998
   12.11416721   83.59539795    4.90999985    2.26999998
   12.11750031   87.18620300    4.90999985    2.28999996
   12.12083340   85.34510040    4.90999985    2.28999996
   12.12388897   84.97010040    4.90999985    2.28999996
   12.12722206   82.63089752    4.90999985    2.30999994
   12.12805557   85.59660339    4.90999985    2.30999994
   12.13083363   85.45790100    4.90999985    2.30999994
   12.13388920   84.96520233    4.90999985    2.30999994
   12.13722229   92.80829620    4.90999985    2.30999994
   12.14333344   92.80829620    4.90999985    2.23000002
   12.14750004   85.38549805    4.90999985    2.26999998
   12.15055561   85.05319977    4.90999985    2.28999996
   12.15388870   88.45069885    4.90999985    2.28999996
   12.15694427   81.35859680    4.90999985    2.30999994
   12.16027737   90.43540192    4.90999985    2.30999994
   12.16138840   84.00710297    4.90999985    2.32999992
   12.16416645   88.83249664    4.90999985    2.32999992
   12.16722298   86.81749725    4.90999985    2.30999994
   12.17055607   86.86599731    4.90999985    2.30999994
   12.17361164   83.95349884    4.90999985    2.28999996
   12.17694473   82.68119812    4.90999985    2.30999994
   12.18027782   84.10749817    4.90999985    2.30999994
   12.18611145   84.10749817    4.90999985    2.32999992
   12.19027805   80.92510223    4.90999985    2.34999990
   12.19333363   90.69580078    4.90999985    2.34999990
   12.19472218   81.39980316    4.90999985    2.32999992
   12.19722271   83.19909668    4.90999985    2.19000006
   12.20027733   85.47750092    4.90999985    2.34999990
   12.20361137   95.27580261    4.90999985    2.34999990
   12.20694447   91.83380127    4.90999985    2.28999996
   12.21000004   85.51439667    4.90999985    2.34999990
   12.21333313   84.95379639    4.90999985    2.32999992
   12.21666622  118.48799896    4.90999985    1.98000002
   12.21972179   98.64389801    4.90999985    1.69000006
   12.22305489   83.62149811    4.90999985    1.86000001
   12.22888851   83.62149811    4.90999985    1.98000002
   12.23305511   -1.00000000    4.90999985    1.44000006
   12.23638916   -1.00000000    4.90999985    0.58999997
   12.23944473   -1.00000000    4.90999985    0.05000000
   12.24277782   -1.00000000    4.90999985    0.05000000
   12.24611092   -1.00000000    4.90999985    0.05000000
   12.24916649   -1.00000000    4.90999985    0.58999997
   12.25249958   85.86039734    4.90999985    0.17000000
   12.25583363  130.51199341    4.90999985    2.05999994
   12.25888920   -1.00000000    4.90999985    1.30999994
   12.26138878  158.78199768    4.90999985    1.01999998
   12.26277733  106.40699768    4.90999985    0.92000002
   12.26583290   -1.00000000    4.90999985    1.00000000
   12.27583313   -1.00000000    4.90999985    0.20999999
   12.27916622   -1.00000000    4.90999985    0.31999999
   12.28222179   -1.00000000    4.90999985    0.30000001
   12.28555584   -1.00000000    4.90999985    0.01000000
   12.28888893   -1.00000000    4.90999985    0.01000000
   12.29194450   -1.00000000    4.90999985    0.17000000
   12.29555607   -1.00000000    4.90999985    0.01000000
   12.29888916   -1.00000000    4.90999985    0.01000000
   12.30194473   -1.00000000    4.90999985    0.01000000
   12.30527782   -1.00000000    4.90999985    0.03000000
   12.30861092   -1.00000000    4.90999985    0.09000000
   12.31861115   -1.00000000    4.90999985    0.03000000
   12.32194424   -1.00000000    4.90999985    0.01000000
   12.32527733   -1.00000000    4.90999985    0.03000000
   12.32861137   -1.00000000    4.90999985    0.03000000
   12.33194447   -1.00000000    4.90999985    0.28000000
   12.33500004   -1.00000000    4.90999985    0.03000000
   12.33833313   -1.00000000    4.90999985    0.03000000
   12.34166622   -1.00000000    4.90999985    0.03000000
   12.34472179   -1.00000000    4.90999985    0.05000000
   12.34805489   -1.00000000    4.90999985    0.70999998
   12.35138893   -1.00000000    4.90999985    0.05000000
   12.36166668   -1.00000000    4.90999985    0.05000000
   12.36472225   -1.00000000    4.90999985    0.03000000
   12.36805534   -1.00000000    4.90999985    0.01000000
   12.37111092   -1.00000000    4.90999985    0.01000000
   12.37444496   -1.00000000    4.90999985    0.01000000
   12.37777805   -1.00000000    4.90999985    0.01000000
   12.38083363   -1.00000000    4.90999985    0.01000000
   12.38416672   -1.00000000    4.90999985    0.01000000
   12.38749981   -1.00000000    4.90999985    0.01000000
   12.39055538   -1.00000000    4.90999985    0.01000000
   12.39388847   -1.00000000    4.90999985    0.01000000
   12.40444374   -1.00000000    4.90999985    0.01000000
   12.40749931   -1.00000000    4.90999985    0.01000000
   12.41083336   -1.00000000    4.90999985    0.01000000
   12.41416645   -1.00000000    4.90999985    0.01000000
   12.41722298   -1.00000000    4.90999985    0.01000000
   12.42055607   -1.00000000    4.90999985    0.01000000
   12.42388916   -1.00000000    4.90999985    0.01000000
   12.42694473   -1.00000000    4.90999985    0.01000000
   12.43055630   -1.00000000    4.48999977    0.01000000
   12.43388939   -1.00000000    4.17999983    0.01000000
   12.43722248   -1.00000000    4.90999985    0.01000000
   12.44722271   -1.00000000    4.90999985    0.01000000
   12.45055580   -1.00000000    4.90999985    0.01000000
   12.45361137   -1.00000000    4.90999985    0.01000000
   12.45694447   -1.00000000    4.90999985    0.01000000
   12.46027756   -1.00000000    4.90999985    0.01000000
   12.46361065   -1.00000000    4.90999985    0.01000000
   12.46694374   -1.00000000    4.90999985    0.01000000
   12.47027779   -1.00000000    4.90999985    0.01000000
   12.47333336   -1.00000000    4.90999985    0.01000000
   12.47666645   -1.00000000    4.90999985    0.01000000
   12.47972202   -1.00000000    3.11999989    0.01000000
   12.49000072   -1.00000000    4.90999985    0.01000000
   12.49333382   -1.00000000    4.90999985    0.01000000
   12.49666691   -1.00000000    4.90999985    0.01000000
   12.50000000   -1.00000000    4.90999985    0.01000000
   12.50333309   -1.00000000    3.32999992    0.01000000
   12.50638866   -1.00000000    4.36999989    0.01000000
   12.50972176   -1.00000000    3.21000004    0.01000000
   12.51277733   -1.00000000    3.70000005    0.01000000
   12.51611137   -1.00000000    4.84999990    0.01000000
   12.51944447   -1.00000000    4.90999985    0.01000000
   12.52250004   -1.00000000    4.90999985    0.01000000
   12.53305531   -1.00000000    4.90999985    0.03000000
   12.53611183   -1.00000000    4.48999977    0.03000000
   12.53944492   -1.00000000    3.97000003    0.03000000
   12.54250050   -1.00000000    4.90999985    0.03000000
   12.54583359   -1.00000000    4.90999985    0.03000000
   12.54916668   -1.00000000    4.90999985    0.03000000
   12.55222225   -1.00000000    4.90999985    0.03000000
   12.55555534   -1.00000000    4.61999989    0.03000000
   12.55888939   -1.00000000    2.44000006    0.01000000
   12.56222248   -1.00000000    2.19000006    0.01000000
   12.56555557   -1.00000000    2.15000010    0.01000000
   12.57583332   -1.00000000    2.05999994    0.01000000
   12.57888889   -1.00000000    1.63000000    0.01000000
   12.58222198   -1.00000000    0.89999998    0.01000000
   12.58555508   -1.00000000    1.44000006    0.01000000
   12.58861065   -1.00000000    0.76999998    0.01000000
   12.59194374   -1.00000000    0.73000002    0.01000000
   12.59527779   -1.00000000    0.73000002    0.01000000
   12.59861088   -1.00000000    3.36999989    0.01000000
   12.60194492   -1.00000000    3.01999998    0.01000000
   12.60500050   -1.00000000    4.90999985    0.01000000
   12.60833359   -1.00000000    4.90999985    0.01000000
   12.61861134   -1.00000000    4.90999985    0.03000000
   12.62194443   -1.00000000    4.78000021    0.03000000
   12.62500000   -1.00000000    3.61999989    0.01000000
   12.62861156   -1.00000000    4.19999981    0.01000000
   12.63194466   -1.00000000    3.26999998    0.01000000
   12.63527775   -1.00000000    3.18000007    0.01000000
   12.63833332   -1.00000000    2.66000009    0.01000000
   12.64166641   -1.00000000    2.66000009    0.01000000
   12.64499950   -1.00000000    1.41999996    0.01000000
   12.64805508   -1.00000000    1.86000001    0.01000000
   12.65138817   -1.00000000    2.67000008    0.01000000
   12.66138840   -1.00000000    4.23999977    0.01000000
   12.66472149   -1.00000000    3.61999989    0.01000000
   12.66805553   -1.00000000    4.90999985    0.03000000
   12.67111111   -1.00000000    4.71999979    0.01000000
   12.67444515   -1.00000000    3.46000004    0.01000000
   12.67750072   -1.00000000    3.75000000    0.01000000
   12.68083382   -1.00000000    3.73000002    0.01000000
   12.68416691   -1.00000000    4.82999992    0.01000000
   12.68722248   -1.00000000    4.90999985    0.01000000
   12.69055557   -1.00000000    4.90999985    0.03000000
   12.69388866   -1.00000000    4.90999985    0.03000000
   12.71944427   -1.00000000    4.90999985    0.05000000
   12.72249985   -1.00000000    4.90999985    0.05000000
   12.72583294   -1.00000000    4.90999985    0.05000000
   12.72916603   -1.00000000    4.90999985    0.19000000
   12.73249912   -1.00000000    4.90999985    0.07000000
   12.73583317   -1.00000000    4.90999985    0.09000000
   12.73888874   -1.00000000    4.90999985    0.23000000
   12.74222279   -1.00000000    4.90999985    0.07000000
   12.74555588   -1.00000000    4.90999985    0.07000000
   12.74861145   -1.00000000    4.90999985    0.05000000
   12.75194454   -1.00000000    4.90999985    0.07000000
   12.76222229   -1.00000000    4.90999985    0.09000000
   12.76527786   -1.00000000    4.90999985    0.09000000
   12.76861095   -1.00000000    4.90999985    0.07000000
   12.77194405   -1.00000000    4.90999985    0.07000000
   12.77499962   -1.00000000    4.90999985    0.05000000
   12.77833271   -1.00000000    4.90999985    0.05000000
   12.78138828   -1.00000000    4.90999985    0.05000000
   12.78472233   -1.00000000    4.90999985    0.05000000
   12.78805637   -1.00000000    4.90999985    0.03000000
   12.79111195   -1.00000000    4.17999983    0.05000000
   12.79444504   -1.00000000    3.76999998    0.05000000
   12.80500031   -1.00000000    4.90999985    0.03000000
   12.80833340   -1.00000000    4.65999985    0.03000000
   12.81138897   -1.00000000    4.90999985    0.03000000
   12.81472206   -1.00000000    4.90999985    0.03000000
   12.81777763   -1.00000000    3.86999989    0.11000000
   12.82111073   -1.00000000    4.90999985    0.05000000
   12.82444477   -1.00000000    4.90999985    0.05000000
   12.82750034   -1.00000000    4.90999985    0.03000000
   12.83111095   -1.00000000    3.53999996    0.03000000
   12.83444405   -1.00000000    4.88999987    0.03000000
   12.83777714   -1.00000000    4.44999981    0.03000000
   12.84777737   -1.00000000    2.21000004    0.01000000
   12.85111141   -1.00000000    2.57999992    0.03000000
   12.85416698   -1.00000000    4.90999985    0.03000000
   12.85750008   -1.00000000    4.90999985    0.05000000
   12.86083412   -1.00000000    4.90999985    0.05000000
   12.86416721   -1.00000000    4.90999985    0.05000000
   12.86750031   -1.00000000    4.90999985    0.05000000
   12.87083340   -1.00000000    4.90999985    0.03000000
   12.87388897   -1.00000000    4.86999989    0.03000000
   12.87722206   -1.00000000    4.90999985    0.03000000
   12.88027763   -1.00000000    4.90999985    0.05000000
   12.89055538   -1.00000000    4.90999985    0.05000000
   12.89388847   -1.00000000    4.90999985    0.07000000
   12.89750004   -1.00000000    4.90999985    0.09000000
   12.90083313   -1.00000000    4.90999985    0.09000000
   12.90416622   -1.00000000    4.90999985    0.13000000
   12.90722179   -1.00000000    4.90999985    0.15000001
   12.91055489   -1.00000000    4.90999985    0.36000001
   12.91361046   -1.00000000    4.90999985    1.13000000
   12.91694450   -1.00000000    4.90999985    1.11000001
   12.92027855   -1.00000000    4.90999985    0.13000000
   12.92333412   -1.00000000    4.90999985    0.09000000
   12.93361092   -1.00000000    4.90999985    0.07000000
   12.93666649   -1.00000000    4.90999985    0.05000000
   12.94000053   -1.00000000    4.90999985    0.05000000
   12.94333363   -1.00000000    4.90999985    0.03000000
   12.94638920   -1.00000000    4.90999985    0.05000000
   12.94972229   -1.00000000    4.90999985    0.05000000
   12.95277786   -1.00000000    4.90999985    0.07000000
   12.95611095   -1.00000000    4.90999985    0.07000000
   12.95944405   -1.00000000    4.90999985    0.07000000
   12.96277714   -1.00000000    4.90999985    0.07000000
   12.96611118   -1.00000000    4.90999985    0.07000000
   12.97638798   -1.00000000    4.90999985    0.07000000
   12.97972202   -1.00000000    4.90999985    0.05000000
   12.98277760   -1.00000000    4.90999985    0.05000000
   12.98611164   -1.00000000    4.90999985    0.05000000
   12.98916721   -1.00000000    4.90999985    0.05000000
   13.39694405   80.20020294    2.71000004    2.34999990
   13.40027714   84.82420349    1.55999994    2.64000010
   13.40333271   84.39350128    0.89999998    2.55999994
   13.40666676   83.59300232    4.26000023    2.64000010
   13.40999985   82.83609772    1.30999994    2.57999992
   13.41305542   88.77519989    2.21000004    2.64000010
   13.41722298   88.77519989    1.03999996    2.64000010
   13.42138958   79.25800323    0.64999998    2.64000010
   13.42472267   80.78610229    0.52999997    2.64000010
   13.42777824   78.10209656    0.51999998    2.64000010
   13.43027782   77.62229919    0.52999997    2.61999989
   13.43166733   82.36470032    0.52999997    2.64000010
   13.43472195   77.98609924    0.51999998    2.64000010
   13.43805599   77.62699890    0.51999998    2.64000010
   13.44138908   78.61750031    0.52999997    2.64000010
   13.44444466   79.42749786    0.51999998    2.61999989
   13.44777775   78.41639709    0.51999998    2.61999989
   13.45083332   79.55210114    0.52999997    2.61999989
   13.45416641   81.10330200    0.51999998    2.64000010
   13.46000004   81.10330200    0.51999998    2.64000010
   13.46416664   83.48509979    0.50000000    2.64000010
   13.46749973   77.96469879    0.50000000    2.64000010
   13.47083282   80.66470337    0.50000000    2.64000010
   13.47388840   78.00050354    0.50000000    2.64000010
   13.47722149   79.22219849    0.51999998    2.64000010
   13.48027706   77.68589783    0.51999998    2.64000010
   13.48361111   81.54209900    0.51999998    2.64000010
   13.48694515   79.70600128    0.51999998    2.64000010
   13.49000072   92.05580139    0.51999998    2.64000010
   13.49333382   78.44730377    0.50000000    2.64000010
   13.49666691   76.33350372    0.50000000    2.64000010
   13.49722290   82.44080353    0.51999998    2.64000010
   13.50305557   82.44080353    0.51999998    2.64000010
   13.50722218   77.56040192    0.51999998    2.64000010
   13.51027775   77.24739838    0.51999998    2.64000010
   13.51361084   79.19490051    0.51999998    2.64000010
   13.51666641   79.26090240    0.52999997    2.64000010
   13.51999950   75.49729919    0.56999999    2.64000010
   13.52333355   80.29000092    0.56999999    2.64000010
   13.52638817   80.56140137    0.52999997    2.64000010
   13.52972221   78.04060364    0.52999997    2.64000010
   13.53055573   75.39810181    0.55000001    2.64000010
   13.53333378   78.87950134    0.52999997    2.64000010
   13.53666687   78.82140350    0.55000001    2.64000010
   13.53972244   77.22360229    0.51999998    2.66000009
   13.54583359   77.22360229    0.55000001    2.64000010
   13.55000019   77.46009827    0.52999997    2.64000010
   13.55305576   79.72820282    0.52999997    2.64000010
   13.55638885   77.85600281    0.55000001    2.66000009
   13.55972195   73.58509827    0.51999998    2.64000010
   13.56277752   77.72250366    0.51999998    2.64000010
   13.56388950   76.30799866    0.51999998    2.66000009
   13.56638908   77.38120270    0.51999998    2.64000010
   13.56972218   80.11340332    0.50000000    2.66000009
   13.57277775   74.81069946    0.50000000    2.66000009
   13.57611084   74.08370209    0.51999998    2.66000009
   13.57944393   76.80249786    0.51999998    2.66000009
   13.58277798   75.19470215    0.51999998    2.66000009
   13.58861065   75.19470215    0.51999998    2.66000009
   13.59277725   76.62220001    0.51999998    2.66000009
   13.59611034   77.42630005    0.51999998    2.66000009
   13.59722233   77.42070007    0.51999998    2.66000009
   13.59972191   78.02739716    0.51999998    2.66000009
   13.60305595   79.66979980    0.50000000    2.66000009
   13.60638905   80.49790192    0.52999997    2.66000009
   13.60944462   80.52189636    0.50000000    2.66000009
   13.61277771   79.18350220    0.50000000    2.66000009
   13.61611176   78.50270081    0.50000000    2.66000009
   13.61916637   80.83129883    0.50000000    2.66000009
   13.62250042   75.25469971    0.47999999    2.66000009
   13.62555599   78.08159637    0.50000000    2.66000009
   13.63138866   78.08159637    0.52999997    2.66000009
   13.63555527   88.78250122    0.51999998    2.66000009
   13.63888836   78.35690308    0.98000002    2.66000009
   13.64222240   78.24669647    0.92000002    2.66000009
   13.64527798   79.96929932    0.47999999    2.66000009
   13.64861107   74.15429688    0.47999999    2.66000009
   13.65194416   77.68419647    0.47999999    2.66000009
   13.65499973   73.30539703    0.47999999    2.66000009
   13.65833282   80.19519806    0.50000000    2.66000009
   13.66166592   80.52770233    0.50000000    2.66000009
   13.66388893   77.97609711    0.50000000    2.67000008
   13.66499996   78.89209747    0.50000000    2.67000008
   13.66833401   77.49109650    0.50000000    2.67000008
   13.67444515   77.49109650    0.51999998    2.66000009
   13.67861176   78.18550110    0.51999998    2.66000009
   13.68166733   74.96019745    0.51999998    2.66000009
   13.68500042   75.17230225    0.50000000    2.67000008
   13.68805599   76.19539642    0.50000000    2.66000009
   13.69138908   78.12349701    0.80000001    2.67000008
   13.69472218   74.21420288    0.80000001    2.67000008
   13.69722271   76.76999664    1.53999996    2.67000008
   13.69833374   74.45700073    1.25000000    2.67000008
   13.70166683   78.19950104    0.92000002    2.67000008
   13.70499992   76.22200012    0.92000002    2.67000008
   13.70805550   75.06939697    0.67000002    2.67000008
   13.71138859   75.69029999    0.55000001    2.67000008
   13.71722221   75.69029999    0.52999997    2.66000009
   13.72138882   74.63690186    0.52999997    2.67000008
   13.72444439   76.56520081    0.50000000    2.67000008
   13.72777748   78.16929626    0.50000000    2.67000008
   13.73055553   78.57569885    0.47999999    2.67000008
   13.73138809   74.75830078    0.47999999    2.67000008
   13.73472214   76.30750275    0.47999999    2.67000008
   13.73805618   74.68800354    0.47999999    2.67000008
   13.74111176   74.93820190    0.47999999    2.67000008
   13.74444485   77.06849670    0.47999999    2.66000009
   13.74750042   75.65720367    0.50000000    2.67000008
   13.75083351   81.02819824    0.50000000    2.67000008
   13.75416660   80.15760040    0.55000001    2.67000008
   13.76000023   80.15760040    0.51999998    2.66000009
   13.76416683   76.47070313    0.56999999    2.67000008
   13.76749992   75.54209900    0.50000000    2.67000008
   13.77055550   75.04570007    0.50000000    2.67000008
   13.77388859   76.88809967    0.47999999    2.67000008
   13.77722168   77.87349701    0.50000000    2.67000008
   13.78027725   76.82669830    0.50000000    2.67000008
   13.78361130   77.05580139    0.47999999    2.67000008
   13.78694534   75.33599854    0.51999998    2.67000008
   13.79000092   76.55130005    0.51999998    2.67000008
   13.79333401   76.82579803    0.47999999    2.67000008
   13.79666710   78.11869812    0.46000001    2.67000008
   13.79722309   79.35549927    0.46000001    2.67000008
   13.80277824   79.35549927    0.46000001    2.67000008
   13.80694485   77.20989990    0.46000001    2.67000008
   13.81027794   76.25019836    0.47999999    2.67000008
   13.81361103   75.29830170    0.47999999    2.67000008
   13.81694412   77.86000061    0.47999999    2.67000008
   13.81999969   73.84580231    0.47999999    2.67000008
   13.82333374   76.20059967    0.47999999    2.67000008
   13.82666683   76.82550049    0.50000000    2.67000008
   13.82972240   84.10659790    0.51999998    2.67000008
   13.83055592   75.08129883    0.51999998    2.67000008
   13.83333302   76.28350067    0.47999999    2.67000008
   13.83666611   75.59020233    0.50000000    2.67000008
   13.84000015   76.39379883    0.47999999    2.67000008
   13.84583282   76.39379883    0.76999998    2.67000008
   13.84972191   75.02770233    0.47999999    2.67000008
   13.85305595   77.14230347    0.47999999    2.69000006
   13.85638905   76.68890381    0.46000001    2.69000006
   13.85944462   74.33910370    0.46000001    2.67000008
   13.86277771   77.03669739    0.47999999    2.67000008
   13.86388969   75.50199890    0.46000001    2.67000008
   13.86638927   75.88050079    0.46000001    2.67000008
   13.86972237   74.08750153    0.47999999    2.67000008
   13.87305546   75.57939911    0.47999999    2.69000006
   13.87611103   77.98149872    0.50000000    2.69000006
   13.87944412   78.60019684    0.61000001    2.69000006
   13.88277817   79.90280151    0.47999999    2.69000006
   13.88861084   79.90280151    0.47999999    2.69000006
   13.89277744   77.41709900    0.47999999    2.69000006
   13.89583302   75.54429626    0.47999999    2.69000006
   13.89722252   74.61640167    0.47999999    2.69000006
   13.89972210   76.65979767    0.47999999    2.69000006
   13.90277767   77.09950256    0.47999999    2.67000008
   13.90611076   73.67910004    0.47999999    2.69000006
   13.90944386   75.45120239    0.44000000    2.69000006
   13.91249943   77.99340057    0.44000000    2.69000006
   13.91583252   76.81700134    0.46000001    2.69000006
   13.91888905   79.68930054    0.44000000    2.69000006
   13.92222214   76.46410370    0.46000001    2.69000006
   13.92555618   78.68849945    0.47999999    2.69000006
   13.93138885   78.68849945    0.46000001    2.69000006
   13.93555546   78.86080170    0.46000001    2.69000006
   13.93888855   77.21790314    0.47999999    2.69000006
   13.94194412   78.19699860    0.47999999    2.69000006
   13.94527817   74.43209839    0.47999999    2.69000006
   13.94833374   78.10420227    0.46000001    2.69000006
   13.95166683   73.94409943    0.47999999    2.69000006
   13.95499992   75.15100098    0.47999999    2.69000006
   13.95805550   76.08550262    0.46000001    2.69000006
   13.96138859   75.12609863    0.47999999    2.69000006
   13.96388912   75.50260162    0.46000001    2.69000006
   13.96500015   74.22119904    0.44000000    2.69000006
   13.96833324   74.23300171    0.44000000    2.69000006
   13.97416592   74.23300171    0.44000000    2.69000006
   13.97833252   74.49400330    0.44000000    2.69000006
   13.98166656   76.75250244    0.44000000    2.69000006
   13.98500061   74.36750031    0.44000000    2.69000006
   13.98805618   75.33529663    0.44000000    2.69000006
   13.99138927   75.95410156    0.44000000    2.69000006
   13.99444485   75.60790253    0.44000000    2.69000006
   13.99722290   73.85179901    0.44000000    2.71000004
   13.99805546   77.81449890    0.44000000    2.71000004
   14.00138855   79.20529938    0.44000000    2.69000006
   14.00472260   79.00920105    0.46000001    2.69000006
   14.00805569   78.81439972    0.46000001    2.69000006
   14.01138878   74.76380157    0.46000001    2.71000004
   14.01722240   74.76380157    0.46000001    2.71000004
   14.02111053   72.93379974    0.46000001    2.69000006
   14.02444458   74.47740173    0.47999999    2.71000004
   14.02777767   76.15589905    0.47999999    2.69000006
   14.03055573   76.75820160    0.47999999    2.69000006
   14.03111076   73.74919891    0.47999999    2.69000006
   14.03444481   76.06559753    0.46000001    2.71000004
   14.03777790   75.94580078    0.44000000    2.69000006
   14.04083347   75.84629822    0.44000000    2.69000006
   14.04416752   75.76809692    0.44000000    2.71000004
   14.04750061   73.85690308    0.44000000    2.71000004
   14.05055618   80.96849823    0.44000000    2.69000006
   14.05388927   75.83969879    0.44000000    2.71000004
   14.06000042   75.83969879    0.44000000    2.69000006
   14.06416702   77.16649628    0.44000000    2.69000006
   14.06722260   74.70659637    0.44000000    2.69000006
   14.07055569   76.29679871    0.44000000    2.69000006
   14.07388878   74.89739990    0.44000000    2.71000004
   14.07694435   78.83270264    0.44000000    2.69000006
   14.08027744   78.75980377    0.44000000    2.69000006
   14.08361053   84.29489899    0.44000000    2.69000006
   14.08666611   74.76039886    0.80000001    2.69000006
   14.09000015   77.65859985    0.46000001    2.71000004
   14.09305477   75.60549927    0.44000000    2.69000006
   14.09638882   81.16139984    0.46000001    2.71000004
   14.09722233   80.25299835    0.46000001    2.71000004
   14.10277843   80.25299835    0.46000001    2.71000004
   14.10694504   78.29640198    0.47999999    2.71000004
   14.11027813   77.37950134    0.46000001    2.69000006
   14.11333370   75.15249634    0.46000001    2.71000004
   14.11666679   77.32929993    0.44000000    2.71000004
   14.11972237   77.13800049    0.47999999    2.69000006
   14.12305546   76.14109802    0.46000001    2.71000004
   14.12638855   73.40519714    0.46000001    2.69000006
   14.12944412   74.76679993    0.46000001    2.71000004
   14.13055611   75.61840057    0.46000001    2.71000004
   14.13333321   74.71479797    0.47999999    2.71000004
   14.13638878   79.25720215    0.46000001    2.71000004
   14.13972187   75.57029724    0.46000001    2.71000004
   14.14555550   75.57029724    0.47999999    2.71000004
   14.14972210   74.84989929    0.47999999    2.71000004
   14.15305519   73.73020172    0.47999999    2.71000004
   14.15611076   73.46340179    0.46000001    2.71000004
   14.15944386   78.09079742    0.46000001    2.71000004
   14.16277695   75.05999756    0.46000001    2.69000006
   14.16388893   74.95999908    0.46000001    2.69000006
   14.16638851   73.70030212    0.46000001    2.71000004
   14.16944504   74.22850037    0.44000000    2.71000004
   14.17277813   73.43060303    0.44000000    2.71000004
   14.17611122   74.04380035    0.46000001    2.71000004
   14.17916679   72.37920380    0.44000000    2.71000004
   14.18249989   74.50489807    0.46000001    2.71000004
   14.18833351   74.50489807    0.47999999    2.71000004
   14.19250011   74.66919708    0.52999997    2.71000004
   14.19583321   76.05130005    0.52999997    2.69000006
   14.19722271   89.83820343    0.52999997    2.69000006
   14.19972229   78.92389679    0.50000000    2.71000004
   14.20277786   73.40619659    0.46000001    2.71000004
   14.20611095   75.49880219    0.46000001    2.71000004
   14.20916653   76.70749664    0.76999998    2.71000004
   14.21249962   77.73979950    0.61000001    2.71000004
   14.21583271   75.18560028    0.83999997    2.71000004
   14.21888828   74.85970306    0.83999997    2.71000004
   14.22222137   74.97650146    0.44000000    2.71000004
   14.22555542   73.50170135    0.46000001    2.71000004
   14.23138809   73.50170135    0.44000000    2.71000004
   14.23555565   77.40399933    0.44000000    2.71000004
   14.23861122   75.65820313    0.44000000    2.71000004
   14.24194431   75.11959839    0.44000000    2.69000006
   14.24527836   76.42749786    0.44000000    2.67000008
   14.24833393   75.52149963    0.50000000    2.66000009
   14.25166702   73.79730225    0.44000000    2.71000004
   14.25500011   75.52559662    0.44000000    2.71000004
   14.25805569   74.78620148    0.44000000    2.71000004
   14.26138878   74.97059631    0.44000000    2.71000004
   14.26388931   77.07240295    0.41999999    2.71000004
   14.26527786   76.95520020    0.44000000    2.71000004
   14.26833344   76.18360138    0.41999999    2.71000004
   14.27416611   76.18360138    0.44000000    2.71000004
   14.27833271   74.59600067    0.44000000    2.71000004
   14.28166676   76.08209991    0.55000001    2.71000004
   14.28472233   75.45249939    0.58999997    2.71000004
   14.28805637   74.59349823    0.44000000    2.71000004
   14.29111195   73.80560303    0.44000000    2.71000004
   14.29444504   74.52559662    0.44000000    2.73000002
   14.29722309   74.03949738    0.44000000    2.71000004
   14.29833412   74.46749878    0.44000000    2.71000004
   14.30138874   73.80259705    0.47999999    2.71000004
   14.30472279   75.23339844    0.46000001    2.71000004
   14.30805588   73.88230133    0.47999999    2.71000004
   14.31111145   77.25980377    0.47999999    2.71000004
   14.31694412   77.25980377    0.47999999    2.73000002
   14.32111073   72.73719788    0.47999999    2.73000002
   14.32444477   73.88549805    0.47999999    2.73000002
   14.32750034   75.39969635    0.46000001    2.73000002
   14.33055592   74.27960205    0.46000001    2.73000002
   14.33138847   75.64540100    0.44000000    2.71000004
   14.33444405   75.98950195    0.44000000    2.73000002
   14.33777714   73.27970123    0.44000000    2.73000002
   14.34111118   73.70010376    0.44000000    2.71000004
   14.34416676   73.60060120    0.44000000    2.73000002
   14.34749985   75.34860229    0.44000000    2.73000002
   14.35055637   75.65560150    0.44000000    2.73000002
   14.35388947   73.29850006    0.46000001    2.71000004
   14.36000061   73.29850006    0.46000001    2.73000002
   14.36388969   78.72830200    0.47999999    2.73000002
   14.36722279   74.79530334    0.47999999    2.73000002
   14.37055588   75.00669861    0.50000000    2.73000002
   14.37361145   73.99939728    0.51999998    2.73000002
   14.37694454   74.49389648    0.51999998    2.73000002
   14.38027763   74.66739655    0.50000000    2.73000002
   14.38333321   76.69380188    0.46000001    2.73000002
   14.38666630   73.73799896    0.44000000    2.73000002
   14.38972187   72.72760010    0.46000001    2.73000002
   14.39305496   73.17279816    0.44000000    2.73000002
   14.39638901   74.46399689    0.44000000    2.73000002
   14.39722252   76.17489624    0.44000000    2.73000002
   14.41777802   76.17489624    0.44000000    2.73000002
   14.42194462   75.46510315    0.44000000    2.73000002
   14.42527771   75.58989716    0.46000001    2.73000002
   14.42861176   76.90769958    0.46000001    2.73000002
   14.43055630   77.34639740    0.46000001    2.73000002
   14.43222237   74.46800232    0.46000001    2.73000002
   14.43555546   75.18920135    0.47999999    2.75000000
   14.43861103   75.92230225    0.47999999    2.73000002
   14.44194412   77.63169861    0.47999999    2.73000002
   14.44499969   73.97959900    0.50000000    2.73000002
   14.44833374   76.58820343    0.51999998    2.73000002
   14.45166683   77.21810150    0.51999998    2.73000002
   14.45472240   73.35890198    0.51999998    2.73000002
   14.46055508   73.35890198    0.52999997    2.73000002
   14.46472168   72.69419861    0.58999997    2.75000000
   14.46805477   73.62580109    0.52999997    2.73000002
   14.47111034   74.12770081    0.52999997    2.73000002
   14.47444439   74.66329956    0.51999998    2.75000000
   14.47777748   73.64089966    0.44000000    2.73000002
   14.48083305   75.66539764    0.44000000    2.73000002
   14.48416710   75.11090088    0.44000000    2.73000002
   14.48750019   72.31179810    0.44000000    2.73000002
   14.49055576   75.69940186    0.44000000    2.73000002
   14.49388885   75.68299866    0.47999999    2.75000000
   14.49722290   75.34929657    0.47999999    2.73000002
   14.49777794   76.98220062    0.47999999    2.73000002
   14.50361156   76.98220062    0.41999999    2.75000000
   14.50749969   75.32409668    0.41999999    2.73000002
   14.51083374   75.83080292    0.41999999    2.73000002
   14.51416683   75.13800049    0.44000000    2.75000000
   14.51722240   75.12519836    0.41999999    2.73000002
   14.52055550   75.92649841    0.41999999    2.75000000
   14.52388859   75.82420349    0.44000000    2.75000000
   14.52694416   74.00340271    0.41999999    2.73000002
   14.53027725   74.70659637    0.41999999    2.75000000
   14.53111076   79.63430023    0.41999999    2.75000000
   14.53388977   75.34980011    0.41999999    2.75000000
   14.53722286   72.08329773    0.44000000    2.73000002
   14.54055595   76.40309906    0.44000000    2.75000000
   14.54638958   76.40309906    0.44000000    2.75000000
   14.55055618   73.06089783    0.44000000    2.75000000
   14.55361176   76.08039856    0.41999999    2.73000002
   14.55694485   73.48899841    0.44000000    2.75000000
   14.56027794   76.24389648    0.44000000    2.75000000
   14.56333351   72.74279785    0.44000000    2.73000002
   14.56444454   75.70079803    0.44000000    2.73000002
   14.56694412   75.09420013    0.44000000    2.73000002
   14.57027817   71.82869720    0.44000000    2.75000000
   14.57361126   76.40299988    0.41999999    2.75000000
   14.57666683   74.62319946    0.41999999    2.75000000
   14.57999992   75.40209961    0.44000000    2.73000002
   14.58305550   72.74269867    0.41999999    2.73000002
   14.58916664   72.74269867    0.44000000    2.75000000
   14.59333324   76.99050140    0.44000000    2.75000000
   14.59638882   76.89070129    0.46000001    2.75000000
   14.59777737   74.35140228    0.46000001    2.75000000
   14.60000038   73.38059998    0.46000001    2.75000000
   14.60333347   76.95459747    0.44000000    2.75000000
   14.60638905   73.66400146    0.44000000    2.75000000
   14.60972214   71.93669891    0.41999999    2.75000000
   14.61305618   73.93029785    0.41999999    2.75000000
   14.61611176   73.59179688    0.41999999    2.75000000
   14.61944485   75.89510345    0.41999999    2.75000000
   14.62277794   73.21610260    0.44000000    2.75000000
   14.62583351   75.23850250    0.44000000    2.75000000
   14.63194466   75.23850250    0.41999999    2.75000000
   14.63611126   74.25630188    0.41999999    2.75000000
   14.63944435   75.56620026    0.41999999    2.75000000
   14.64249992   75.13140106    0.41999999    2.75000000
   14.64583302   74.38490295    0.41999999    2.75000000
   14.64916611   75.57679749    0.41999999    2.75000000
   14.65222168   76.52580261    0.41999999    2.75000000
   14.65555477   75.80010223    0.41999999    2.75000000
   14.65861034   75.29910278    0.41999999    2.75000000
   14.66194439   74.80979919    0.41999999    2.75000000
   14.66444397   74.48739624    0.41999999    2.75000000
   14.66555500   75.37740326    0.41999999    2.75000000
   14.66888905   74.57420349    0.47999999    2.75000000
   14.67472267   74.57420349    0.41999999    2.75000000
   14.67888927   74.78710175    0.41999999    2.75000000
   14.68222237   72.75080109    0.41999999    2.75000000
   14.68555546   75.64980316    0.41999999    2.75000000
   14.68861103   72.49749756    0.41999999    2.75000000
   14.69194412   75.08799744    0.41999999    2.73000002
   14.69527817   72.77660370    0.41999999    2.75000000
   14.69777775   74.47260284    0.41999999    2.75000000
   14.69888878   74.50579834    0.41999999    2.75000000
   14.70222187   76.37400055    0.41999999    2.75000000
   14.70555496   72.85870361    0.41999999    2.75000000
   14.70861053   73.85019684    0.41999999    2.75000000
   14.71194458   73.18779755    0.41999999    2.75000000
   14.71777725   73.18779755    0.41999999    2.75000000
   14.72194386   73.61820221    0.41999999    2.75000000
   14.72499943   73.93509674    0.41999999    2.75000000
   14.72833252   72.66619873    0.41999999    2.75000000
   14.73111057   73.12069702    0.41999999    2.75000000
   14.73194408   75.47570038    0.41999999    2.75000000
   14.73527813   72.09670258    0.41999999    2.75000000
   14.73833370   72.44460297    0.41999999    2.75000000
   14.74166679   75.61309814    0.41999999    2.75000000
   14.74499989   74.09470367    0.41999999    2.75000000
   14.74805546   75.33860016    0.41999999    2.75000000
   14.75138855   76.38230133    0.41999999    2.75000000
   14.75472260   74.82420349    0.41999999    2.75000000
   14.76055527   74.82420349    0.41999999    2.75000000
   14.76472187   73.28330231    0.41999999    2.75000000
   14.76777744   74.98889923    0.41999999    2.75000000
   14.77111053   74.17669678    0.41999999    2.75000000
   14.77444458   72.58059692    0.41999999    2.76999998
   14.77750015   74.71929932    0.41999999    2.75000000
   14.78083324   74.16210175    0.41999999    2.76999998
   14.78416729   73.65070343    0.41999999    2.75000000
   14.78722286   76.17610168    0.41999999    2.75000000
   14.79055595   72.35489655    0.41999999    2.75000000
   14.79361153   75.07890320    0.41999999    2.75000000
   14.79694462   74.53230286    0.41999999    2.75000000
   14.79777813   73.74600220    0.41999999    2.75000000
   14.80333328   73.74600220    0.41999999    2.75000000
   14.80749989   75.10970306    0.44000000    2.75000000
   14.81083393   79.52330017    0.44000000    2.75000000
   14.81388950   75.33619690    0.46000001    2.75000000
   14.81722260   74.22810364    0.46000001    2.75000000
   14.82055569   75.10880280    0.46000001    2.75000000
   14.82361126   78.29940033    0.46000001    2.75000000
   14.82694435   77.52210236    0.44000000    2.75000000
   14.82999992   78.72959900    0.44000000    2.75000000
   14.83111095   75.74150085    0.44000000    2.75000000
   14.83388901   76.32569885    0.41999999    2.75000000
   14.83722210   76.47740173    0.41999999    2.75000000
   14.84027767   73.03209686    0.41999999    2.75000000
   14.84611034   73.03209686    0.41999999    2.75000000
   14.85027790   74.63539886    0.40000001    2.75000000
   14.85361195   71.77200317    0.41999999    2.75000000
   14.85694504   73.25229645    0.40000001    2.75000000
   14.86000061   73.63410187    0.41999999    2.75000000
   14.86333370   74.42970276    0.41999999    2.75000000
   14.86444473   71.67630005    0.40000001    2.75000000
   14.86694431   74.77169800    0.41999999    2.75000000
   14.87027836   71.89720154    0.41999999    2.75000000
   14.87361145   73.21140289    0.44000000    2.75000000
   14.87666702   75.91380310    0.41999999    2.75000000
   14.88000011   75.92040253    0.44000000    2.76999998
   14.88305569   72.02290344    0.44000000    2.76999998
   14.88916683   72.02290344    0.44000000    2.75000000
   14.89333344   75.03469849    0.44000000    2.75000000
   14.89638901   72.55460358    0.44000000    2.75000000
   14.89777756   72.29530334    0.44000000    2.75000000
   14.89999962   74.92780304    0.44000000    2.75000000
   14.90333271   75.38619995    0.44000000    2.75000000
   14.90666676   73.47969818    0.44000000    2.76999998
   14.90972137   74.63310242    0.44000000    2.76999998
   14.91305542   74.68139648    0.41999999    2.75000000
   14.91611099   74.87129974    0.41999999    2.75000000
   14.91944504   75.68270111    0.41999999    2.75000000
   14.92277813   75.83570099    0.41999999    2.75000000
   14.92583370   76.26570129    0.41999999    2.75000000
   14.93194485   76.26570129    0.41999999    2.76999998
   14.93611145   75.08850098    0.41999999    2.75000000
   14.93916702   72.05760193    0.41999999    2.76999998
   14.94250011   74.78890228    0.44000000    2.76999998
   14.94583321   72.93360138    0.44000000    2.76999998
   14.94888878   75.26049805    0.44000000    2.76999998
   14.95222187   73.33850098    0.44000000    2.76999998
   14.95527744   76.14350128    0.44000000    2.76999998
   14.95861053   73.61049652    0.41999999    2.76999998
   14.96194458   71.40029907    0.44000000    2.76999998
   14.96444416   74.62439728    0.44000000    2.76999998
   14.96555519   74.54119873    0.44000000    2.76999998
   14.96888828   74.40589905    0.44000000    2.76999998
   14.97472191   74.40589905    0.44000000    2.76999998
   14.97888851   74.14659882    0.44000000    2.76999998
   14.98222160   72.86509705    0.44000000    2.76999998
   14.98527813   73.62180328    0.46000001    2.76999998
   14.98861122   75.35620117    0.44000000    2.76999998
   14.99166679   73.28600311    0.44000000    2.76999998
   14.99499989   72.70850372    0.46000001    2.76999998
   14.99777794   75.06269836    0.46000001    2.76999998
   14.99861145   75.38970184    0.46000001    2.76999998
   15.00194454   74.58049774    0.46000001    2.76999998
   15.00527763   73.91179657    0.46000001    2.76999998
   15.00833321   75.20010376    0.46000001    2.76999998
   15.01166630   74.18840027    0.46000001    2.76999998
   15.01749992   74.18840027    0.50000000    2.76999998
   15.02166653   75.05280304    0.50000000    2.76999998
   15.02499962   74.64340210    0.47999999    2.76999998
   15.12805557   -1.00000000   -1.00000000   -1.00000000
   15.22361088   -1.00000000   -1.00000000   -1.00000000
   15.33500004   -1.00000000   -1.00000000   -1.00000000
   15.38416672   78.28130341    0.41999999    2.78999996
   15.38722229   75.24520111    0.41999999    2.78999996
   15.39055538   76.95649719    0.41999999    2.78999996
   15.39388847   81.47679901    0.44000000    2.78999996
   15.39694405   77.65509796    0.41999999    2.78999996
   15.40027714   81.02259827    0.44000000    2.78999996
   15.40444374   81.02259827    0.41999999    2.78999996
   15.40861034   81.77300262    0.41999999    2.78999996
   15.41166592   81.11109924    0.44000000    2.78999996
   15.41499996   79.63999939    0.44000000    2.78999996
   15.41722298   77.49030304    0.44000000    2.78999996
   15.41861153   85.16999817    0.44000000    2.78999996
   15.42194462   77.47209930    0.44000000    2.78999996
   15.42500019   78.49819946    0.44000000    2.78999996
   15.42833328   75.70369720    0.44000000    2.76999998
   15.43166733   79.56590271    0.44000000    2.78999996
   15.43472195   78.33589935    0.44000000    2.78999996
   15.43805599   76.41480255    0.44000000    2.78999996
   15.44111156   75.36589813    0.44000000    2.78999996
   15.44722271   75.36589813    0.44000000    2.78999996
   15.45138836   84.89569855    0.44000000    2.78999996
   15.45472240   75.07839966    0.44000000    2.78999996
   15.45777798   75.40180206    0.44000000    2.78999996
   15.46111107   79.75559998    0.44000000    2.76999998
   15.46444416   77.31939697    0.44000000    2.78999996
   15.46749973   77.01679993    0.44000000    2.78999996
   15.47083282   79.32209778    0.44000000    2.78999996
   15.47416592   79.59860229    0.44000000    2.78999996
   15.47722149   76.60759735    0.44000000    2.78999996
   15.48055553   75.29740143    0.41999999    2.78999996
   15.48361111   80.75820160    0.44000000    2.78999996
   15.48416710   75.62640381    0.44000000    2.78999996
   15.49000072   75.62640381    0.44000000    2.78999996
   15.49416733   78.72339630    0.46000001    2.78999996
   15.49750042   83.10910034    0.44000000    2.78999996
   15.50055599   75.11190033    0.44000000    2.78999996
   15.50388908   79.14430237    0.44000000    2.78999996
   15.50722218   77.84960175    0.44000000    2.78999996
   15.51027775   80.39399719    0.44000000    2.78999996
   15.51361084   75.69960022    0.44000000    2.78999996
   15.51694393   74.39600372    0.44000000    2.78999996
   15.51749992   76.64929962    0.44000000    2.78999996
   15.52055550   76.86299896    0.44000000    2.76999998
   15.52388859   76.57730103    0.44000000    2.76999998
   15.52694416   74.71440125    0.44000000    2.78999996
   15.53305531   74.71440125    0.44000000    2.78999996
   15.53694534   78.06079865    0.44000000    2.78999996
   15.54027843   73.20819855    0.44000000    2.78999996
   15.54361153   76.55090332    0.44000000    2.78999996
   15.54666710   75.64389801    0.44000000    2.78999996
   15.55000019   78.54699707    0.44000000    2.78999996
   15.55083370   79.14409637    0.44000000    2.76999998
   15.55361176   76.57009888    0.44000000    2.78999996
   15.55694485   80.08229828    0.44000000    2.78999996
   15.56000042   77.72250366    0.44000000    2.78999996
   15.56333351   77.74310303    0.44000000    2.78999996
   15.56666660   73.19989777    0.44000000    2.78999996
   15.56972218   74.24559784    0.44000000    2.78999996
   15.57583332   74.24559784    0.44000000    2.78999996
   15.57999992   74.22260284    0.44000000    2.78999996
   15.58305550   81.35350037    0.44000000    2.78999996
   15.58444405   75.43530273    0.44000000    2.78999996
   15.58666611   73.12370300    0.44000000    2.78999996
   15.59000015   79.12899780    0.44000000    2.78999996
   15.59305477   74.17009735    0.44000000    2.78999996
   15.59638882   76.41819763    0.44000000    2.78999996
   15.59972191   76.81069946    0.44000000    2.78999996
   15.60277843   74.80960083    0.44000000    2.78999996
   15.60611153   76.37180328    0.44000000    2.78999996
   15.60944462   77.67369843    0.41999999    2.78999996
   15.61250019   77.82430267    0.41999999    2.78999996
   15.61861134   77.82430267    0.41999999    2.78999996
   15.62277794   75.81079865    0.41999999    2.78999996
   15.62611103   76.83380127    0.41999999    2.78999996
   15.62916660   76.54660034    0.41999999    2.78999996
   15.63249969   75.83190155    0.41999999    2.78999996
   15.63583279   74.06250000    0.41999999    2.78999996
   15.63888836   83.47429657    0.44000000    2.78999996
   15.64222240   75.89279938    0.41999999    2.78999996
   15.64527798   79.91899872    0.44000000    2.78999996
   15.64861107   78.43679810    0.41999999    2.78999996
   15.65111065   75.82170105    0.44000000    2.78999996
   15.65222168   78.09429932    0.41999999    2.78999996
   15.65555477   74.70200348    0.44000000    2.78999996
   15.66138840   74.70200348    0.44000000    2.78999996
   15.66555500   74.71610260    0.44000000    2.78999996
   15.66888905   77.86650085    0.44000000    2.78999996
   15.67194462   76.68959808    0.44000000    2.78999996
   15.67527771   76.96610260    0.44000000    2.78999996
   15.67861176   76.37789917    0.44000000    2.78999996
   15.68166733   79.27660370    0.44000000    2.78999996
   15.68444443   75.21369934    0.44000000    2.78999996
   15.68527794   78.34369659    0.44000000    2.78999996
   15.68861103   74.60710144    0.44000000    2.78999996
   15.69166660   76.95870209    0.46000001    2.78999996
   15.69499969   77.63430023    0.44000000    2.78999996
   15.69833374   75.64830017    0.44000000    2.78999996
   15.70444393   75.64830017    0.44000000    2.78999996
   15.70833302   75.96420288    0.44000000    2.78999996
   15.71166611   74.66339874    0.44000000    2.78999996
   15.71500015   82.98989868    0.44000000    2.78999996
   15.71777725   75.47209930    0.44000000    2.78999996
   15.71861076   79.00199890    0.44000000    2.78999996
   15.72194386   74.03320313    0.44000000    2.78999996
   15.72499943   82.39649963    0.44000000    2.78999996
   15.72833252   75.52980042    0.44000000    2.78999996
   15.73166656   74.67179871    0.44000000    2.78999996
   15.73472214   76.23490143    0.44000000    2.78999996
   15.73805618   77.58709717    0.44000000    2.78999996
   15.74138927   79.69049835    0.44000000    2.78999996
   15.74722290   79.69049835    0.46000001    2.78999996
   15.75138855   77.05000305    0.46000001    2.78999996
   15.75444412   75.94200134    0.46000001    2.78999996
   15.75777817   76.86360168    0.47999999    2.78999996
   15.76111126   78.79129791    0.47999999    2.78999996
   15.76416683   78.12909698    0.46000001    2.78999996
   15.76749992   78.27999878    0.46000001    2.78999996
   15.77055550   79.70790100    0.46000001    2.78999996
   15.77388859   76.71289825    0.47999999    2.78999996
   15.77722168   76.74050140    0.47999999    2.78999996
   15.78027725   74.59310150    0.47999999    2.78999996
   15.78361130   76.51360321    0.46000001    2.78999996
   15.78444481   76.24030304    0.47999999    2.78999996
   15.79000092   76.24030304    0.47999999    2.78999996
   15.79416752   78.96600342    0.47999999    2.78999996
   15.79722309   77.68170166    0.46000001    2.78999996
   15.80055618   78.99369812    0.46000001    2.78999996
   15.80388927   82.10350037    0.46000001    2.78999996
   15.80694485   77.41110229    0.47999999    2.78999996
   15.81027794   76.56749725    0.46000001    2.78999996
   15.81361103   80.63449860    0.46000001    2.78999996
   15.81666660   75.62039948    0.47999999    2.78999996
   15.81777763   76.03350067    0.47999999    2.78999996
   15.82027817   76.88790131    0.47999999    2.78999996
   15.82361126   75.91210175    0.47999999    2.78999996
   15.82694435   81.70359802    0.47999999    2.78999996
   15.83277798   81.70359802    0.47999999    2.78999996
   15.83694458   76.35900116    0.46000001    2.78999996
   15.84027767   79.04450226    0.46000001    2.78999996
   15.84333324   77.61139679    0.46000001    2.80999994
   15.84666634   82.99410248    0.46000001    2.78999996
   15.85000038   73.13030243    0.46000001    2.78999996
   15.85111141   79.60700226    0.46000001    2.78999996
   15.85361195   79.85949707    0.46000001    2.80999994
   15.85694504   75.57309723    0.47999999    2.78999996
   15.86027813   86.13880157    0.47999999    2.80999994
   15.86333370   77.01879883    0.50000000    2.80999994
   15.86666679   81.30989838    0.47999999    2.78999996
   15.86972237   78.09790039    0.50000000    2.78999996
   15.87555599   78.09790039    0.47999999    2.80999994
   15.87972260   78.63680267    0.46000001    2.78999996
   15.88305569   81.93650055    0.46000001    2.78999996
   15.88444424   75.05020142    0.46000001    2.78999996
   15.88666630   78.88870239    0.46000001    2.80999994
   15.89000034   76.70120239    0.46000001    2.80999994
   15.89333344   83.42060089    0.46000001    2.78999996
   15.89638901   77.05930328    0.46000001    2.78999996
   15.89972210   79.48159790    0.47999999    2.78999996
   15.90277767   77.02819824    0.47999999    2.78999996
   15.90611076   80.85189819    0.46000001    2.80999994
   15.90944386   86.25199890    0.46000001    2.78999996
   15.91249943   81.21769714    0.46000001    2.78999996
   15.91861153   81.21769714    0.46000001    2.78999996
   15.92277813   75.65769958    0.46000001    2.78999996
   15.92583370   78.46610260    0.46000001    2.80999994
   15.92916679   72.19689941    0.47999999    2.78999996
   15.93222237   85.96209717    0.47999999    2.82999992
   15.93555546   79.09899902    0.47999999    2.78999996
   15.93888855   77.74050140    0.47999999    2.80999994
   15.94194412   78.86270142    0.47999999    2.78999996
   15.94527817   77.25009918    0.47999999    2.80999994
   15.94861126   79.53939819    0.47999999    2.78999996
   15.95111084   80.53679657    0.47999999    2.78999996
   15.95222187   79.14160156    0.47999999    2.78999996
   15.95555496   79.69370270    0.47999999    2.78999996
   15.96138859   79.69370270    0.47999999    2.78999996
   15.96555519   81.56269836    0.46000001    2.78999996
   15.96861076   76.08370209    0.46000001    2.78999996
   15.97194386   80.29810333    0.47999999    2.80999994
   15.97527695   77.41230011    0.47999999    2.80999994
   15.97861099   77.97669983    0.47999999    2.78999996
   15.98166656   80.83730316    0.47999999    2.78999996
   15.98444462   77.17960358    0.47999999    2.78999996
   15.98527813   77.81569672    0.47999999    2.78999996
   15.98861122   84.34069824    0.47999999    2.78999996
   15.99194431   78.16580200    0.50000000    2.80999994
   15.99499989   76.27690125    0.47999999    2.78999996
   15.99833393   83.40950012    0.50000000    2.78999996
   16.00416756   83.40950012    0.47999999    2.78999996
   16.00833321   79.70749664    0.47999999    2.80999994
   16.01166725   77.37419891    0.50000000    2.78999996
   16.01472282   79.78399658    0.47999999    2.78999996
   16.01777840   74.01100159    0.47999999    2.78999996
   16.01833344   77.03769684    0.47999999    2.78999996
   16.02166557   74.97830200    0.51999998    2.78999996
   16.02499962   77.46690369    0.52999997    2.78999996
   16.02805519   81.09539795    0.55000001    2.78999996
   16.03138924   74.76010132    0.51999998    2.78999996
   16.03472137   76.06520081    0.52999997    2.78999996
   16.03777695   77.65370178    0.55000001    2.78999996
   16.04111099   76.85990143    0.56999999    2.78999996
   16.04694366   76.85990143    0.61000001    2.78999996
   16.05111122   76.58809662    0.58999997    2.78999996
   16.05444336   78.25330353    0.58999997    2.78999996
   16.05777740   76.29579926    0.64999998    2.78999996
   16.06083298   83.23979950    0.64999998    2.78999996
   16.06416512   76.78459930    0.64999998    2.78999996
   16.06750107   75.86930084    0.64999998    2.78999996
   16.07055664   76.42680359    0.64999998    2.78999996
   16.07389069   75.02429962    0.64999998    2.78999996
   16.07722282   76.46389771    0.63000000    2.78999996
   16.08027840   80.94380188    0.63000000    2.78999996
   16.08361244   80.78099823    0.63000000    2.78999996
   16.08444595   78.48799896    0.63000000    2.78999996
   16.09000015   78.48799896    0.63000000    2.78999996
   16.09416771   80.54100037    0.58999997    2.78999996
   16.09722328   80.49520111    0.58999997    2.78999996
   16.10055542   78.41560364    0.58999997    2.78999996
   16.10388947   76.47260284    0.56999999    2.78999996
   16.10694504   77.58000183    0.56999999    2.78999996
   16.11027908   76.22810364    0.55000001    2.78999996
   16.11333466   75.10299683    0.55000001    2.78999996
   16.11666679   78.52220154    0.55000001    2.78999996
   16.11777878   80.06500244    0.55000001    2.78999996
   16.12027740   80.36840057    0.55000001    2.78999996
   16.12361145   77.02010345    0.55000001    2.78999996
   16.12694550   80.76629639    0.52999997    2.78999996
   16.13277817   80.76629639    0.52999997    2.78999996
   16.13694382   77.29309845    0.51999998    2.78999996
   16.13999939   74.85060120    0.51999998    2.78999996
   16.14333344   79.68579865    0.51999998    2.78999996
   16.14666748   78.55940247    0.51999998    2.78999996
   16.14972115   80.35209656    0.51999998    2.80999994
   16.15111160   78.04869843    0.51999998    2.80999994
   16.15333366   76.07980347    0.52999997    2.78999996
   16.15666580   78.74610138    0.51999998    2.80999994
   16.15999985   79.20050049    0.51999998    2.78999996
   16.16305542   80.58399963    0.51999998    2.78999996
   16.16638756   80.60169983    0.52999997    2.80999994
   16.16972160   80.67259979    0.51999998    2.78999996
   16.17555428   80.67259979    0.52999997    2.78999996
   16.17972183   76.81089783    0.51999998    2.78999996
   16.18305397   81.00939941    0.51999998    2.78999996
   16.18444443   79.78410339    0.50000000    2.78999996
   16.18638802   81.00330353    0.50000000    2.78999996
   16.18972206   82.95670319    0.50000000    2.80999994
   16.19305420   77.33830261    0.51999998    2.80999994
   16.19610977   75.95059967    0.51999998    2.80999994
   16.19944382   75.59059906    0.50000000    2.78999996
   16.20277786   78.10420227    0.50000000    2.80999994
   16.20583344   85.96540070    0.50000000    2.78999996
   16.20916748   76.81759644    0.50000000    2.78999996
   16.21250153   76.82949829    0.50000000    2.78999996
   16.21833420   76.82949829    0.50000000    2.78999996
   16.22249985   76.89250183    0.47999999    2.80999994
   16.22583389   81.04000092    0.50000000    2.78999996
   16.22916794   76.89260101    0.50000000    2.78999996
   16.23222351   79.27619934    0.50000000    2.78999996
   16.23555565   82.00299835    0.50000000    2.78999996
   16.23888969   75.34149933    0.50000000    2.80999994
   16.24194527   76.72830200    0.51999998    2.78999996
   16.24527740   80.66729736    0.51999998    2.80999994
   16.24833298   82.76129913    0.50000000    2.80999994
   16.25111198   80.81539917    0.51999998    2.80999994
   16.25194359   86.26509857    0.51999998    2.78999996
   16.25527763   85.56289673    0.51999998    2.78999996
   16.26138878   85.56289673    0.51999998    2.78999996
   16.26555634   79.78240204    0.50000000    2.80999994
   16.26861000   82.01850128    0.50000000    2.80999994
   16.27194405   78.94809723    0.50000000    2.80999994
   16.27499962   77.49289703    0.50000000    2.78999996
   16.27833366   80.64859772    0.51999998    2.78999996
   16.28166580   80.67250061    0.50000000    2.80999994
   16.28444481   77.77940369    0.50000000    2.78999996
   16.28499985   79.72350311    0.51999998    2.78999996
   16.28833199   77.57379913    0.51999998    2.80999994
   16.29166603   76.51609802    0.50000000    2.78999996
   16.29472160   78.25980377    0.50000000    2.78999996
   16.29805565   81.28810120    0.51999998    2.78999996
   16.30416679   81.28810120    0.51999998    2.78999996
   16.30833244   81.44229889    0.51999998    2.78999996
   16.31138802   79.01679993    0.51999998    2.78999996
   16.31472206   79.93509674    0.51999998    2.80999994
   16.31777954   77.31729889    0.51999998    2.80999994
   16.31833458   80.91989899    0.50000000    2.80999994
   16.32166672   75.23079681    0.51999998    2.78999996
   16.32500076   78.67040253    0.50000000    2.78999996
   16.32805634   79.74819946    0.50000000    2.78999996
   16.33139038   79.71469879    0.50000000    2.80999994
   16.33472252   76.26899719    0.50000000    2.78999996
   16.33777809   80.01599884    0.50000000    2.78999996
   16.34111214   78.72419739    0.50000000    2.80999994
   16.34694481   78.72419739    0.50000000    2.80999994
   16.35111237   80.54409790    0.50000000    2.80999994
   16.35444450   77.23960114    0.50000000    2.78999996
   16.35750008   76.58070374    0.50000000    2.78999996
   16.36083412   76.34059906    0.47999999    2.80999994
   16.36416626   77.56569672    0.50000000    2.80999994
   16.36722183   77.21260071    0.50000000    2.80999994
   16.37055588   85.08110046    0.50000000    2.78999996
   16.37388992   77.34839630    0.50000000    2.80999994
   16.37694550   78.37570190    0.50000000    2.80999994
   16.38027763   80.56549835    0.50000000    2.78999996
   16.38361168   74.49400330    0.51999998    2.80999994
   16.38444519   76.74379730    0.51999998    2.80999994
   16.40499878   76.74379730    0.50000000    2.80999994
   16.40916634   76.22350311    0.50000000    2.78999996
   16.41250038   81.14270020    0.51999998    2.78999996
   16.41583252   78.24579620    0.51999998    2.80999994
   16.41777802   73.58769989    0.52999997    2.78999996
   16.41944313   78.42440033    0.51999998    2.80999994
   16.42249870   78.54209900    0.51999998    2.80999994
   16.42583275   78.13890076    0.52999997    2.80999994
   16.42888832   78.16999817    0.52999997    2.78999996
   16.43222237   79.25949860    0.52999997    2.80999994
   16.43555450   78.58719635    0.52999997    2.80999994
   16.43861008   84.69589996    0.52999997    2.78999996
   16.44194412   78.73600006    0.52999997    2.80999994
   16.44777679   78.73600006    0.55000001    2.80999994
   16.45194435   76.00180054    0.55000001    2.80999994
   16.45527840   82.16470337    0.55000001    2.80999994
   16.45861244   75.29209900    0.55000001    2.78999996
   16.46166801   76.14980316    0.55000001    2.80999994
   16.46500015   79.53240204    0.55000001    2.78999996
   16.46805573   77.90100098    0.52999997    2.78999996
   16.47138977   76.61150360    0.55000001    2.78999996
   16.47472191   76.35230255    0.52999997    2.80999994
   16.47777748   77.35929871    0.55000001    2.80999994
   16.48111153   77.72100067    0.55000001    2.78999996
   16.48444557   74.98149872    0.55000001    2.80999994
   16.48500061   77.93029785    0.55000001    2.78999996
   16.49083328   77.93029785    0.55000001    2.80999994
   16.49472237   77.88059998    0.55000001    2.78999996
   16.49805641   75.30500031    0.55000001    2.78999996
   16.50138855   79.03340149    0.56999999    2.80999994
   16.50444412   78.51360321    0.56999999    2.78999996
   16.50777817   79.42639923    0.56999999    2.80999994
   16.51111031   78.70120239    0.56999999    2.78999996
   16.51416588   78.90160370    0.56999999    2.78999996
   16.51749992   79.01210022    0.56999999    2.80999994
   16.51805496   78.33149719    0.56999999    2.80999994
   16.52138901   77.52159882    0.56999999    2.78999996
   16.52444458   82.98020172    0.56999999    2.80999994
   16.52777672   72.16929626    0.56999999    2.80999994
   16.53361130   72.16929626    0.58999997    2.78999996
   16.53777695   77.83380127    0.58999997    2.80999994
   16.54083252   76.76830292    0.56999999    2.80999994
   16.54416656   80.72650146    0.56999999    2.80999994
   16.54749870   76.18849945    0.56999999    2.78999996
   16.55055428   79.26969910    0.56999999    2.78999996
   16.55138779   76.63510132    0.58999997    2.80999994
   16.55444336   78.63240051    0.56999999    2.78999996
   16.55749893   75.96610260    0.56999999    2.78999996
   16.56083298   73.76390076    0.56999999    2.80999994
   16.56388855   75.53890228    0.56999999    2.78999996
   16.56722260   77.69509888    0.56999999    2.80999994
   16.57055664   78.64369965    0.56999999    2.78999996
   16.57638931   78.64369965    0.56999999    2.78999996
   16.58055687   79.08699799    0.56999999    2.80999994
   16.58388901   76.41909790    0.58999997    2.80999994
   16.58472252   76.84690094    0.56999999    2.78999996
   16.58750153   75.52239990    0.58999997    2.80999994
   16.59055710   75.01270294    0.56999999    2.80999994
   16.59388924   78.68930054    0.56999999    2.80999994
   16.59722328   74.40589905    0.55000001    2.80999994
   16.60027885   76.95610046    0.55000001    2.80999994
   16.60361099   78.34089661    0.55000001    2.80999994
   16.60666656   74.09249878    0.55000001    2.80999994
   16.61000061   76.10410309    0.55000001    2.80999994
   16.61333466   73.04139709    0.55000001    2.80999994
   16.61916733   73.04139709    0.55000001    2.80999994
   16.62333298   75.93329620    0.55000001    2.80999994
   16.62666702   78.95700073    0.55000001    2.80999994
   16.62972260   74.62770081    0.52999997    2.80999994
   16.63305473   75.24990082    0.52999997    2.80999994
   16.63638878   75.04429626    0.51999998    2.80999994
   16.63944435   76.04720306    0.51999998    2.80999994
   16.64277840   74.86280060    0.52999997    2.80999994
   16.64611053   76.65499878    0.51999998    2.80999994
   16.64916611   74.47560120    0.52999997    2.80999994
   16.65138817   77.23960114    0.51999998    2.80999994
   16.65305519   76.97309875    0.51999998    2.80999994
   16.65611076   73.14360046    0.51999998    2.80999994
   16.66222191   73.14360046    0.51999998    2.80999994
   16.66611099   75.44539642    0.51999998    2.80999994
   16.66944313   77.56719971    0.52999997    2.80999994
   16.67277718   75.53589630    0.51999998    2.80999994
   16.67583275   76.18750000    0.51999998    2.78999996
   16.67916679   75.70210266    0.52999997    2.78999996
   16.68249893   73.34159851    0.52999997    2.80999994
   16.68472099   73.85199738    0.52999997    2.80999994
   16.68610954   78.79470062    0.52999997    2.80999994
   16.68916512   77.36920166    0.52999997    2.80999994
   16.69249916   75.86940002    0.52999997    2.78999996
   16.69583321   78.31919861    0.52999997    2.80999994
   16.69888878   79.43520355    0.52999997    2.80999994
   16.70499992   79.43520355    0.52999997    2.80999994
   16.70916748   74.90930176    0.52999997    2.80999994
   16.71222305   74.02909851    0.51999998    2.78999996
   16.71555710   78.58940125    0.52999997    2.80999994
   16.71805573   74.36569977    0.52999997    2.80999994
   16.71916771   76.35009766    0.52999997    2.80999994
   16.72222328   79.12909698    0.55000001    2.78999996
   16.72555542   74.55039978    0.55000001    2.80999994
   16.72888947   77.87329865    0.55000001    2.80999994
   16.73194504   77.71769714    0.55000001    2.80999994
   16.73527718   77.80629730    0.55000001    2.80999994
   16.73833275   77.55680084    0.55000001    2.80999994
   16.74166679   77.88700104    0.55000001    2.80999994
   16.74777794   77.88700104    0.52999997    2.80999994
   16.75194359   72.60079956    0.52999997    2.80999994
   16.75527763   78.50460052    0.55000001    2.80999994
   16.75833321   78.23600006    0.55000001    2.80999994
   16.76166725   77.01490021    0.52999997    2.80999994
   16.76472282   78.17520142    0.52999997    2.80999994
   16.76805496   75.11979675    0.52999997    2.80999994
   16.77138901   77.59210205    0.51999998    2.80999994
   16.77444458   76.68170166    0.52999997    2.80999994
   16.77777672   76.03410339    0.51999998    2.80999994
   16.78111076   73.32830048    0.52999997    2.80999994
   16.78416634   74.30509949    0.52999997    2.78999996
   16.78472137   75.69519806    0.52999997    2.78999996
   16.79055595   75.69519806    0.55000001    2.80999994
   16.79472160   74.62349701    0.55000001    2.80999994
   16.79805565   72.23600006    0.52999997    2.80999994
   16.80111122   78.31269836    0.52999997    2.80999994
   16.80444336   80.27539825    0.51999998    2.80999994
   16.80777740   79.33519745    0.52999997    2.80999994
   16.81083298   82.53759766    0.52999997    2.80999994
   16.81416512   80.22820282    0.52999997    2.80999994
   16.81750107   77.92150116    0.52999997    2.80999994
   16.81805611   80.26170349    0.52999997    2.80999994
   16.82111168   79.10620117    0.52999997    2.80999994
   16.82444572   76.02709961    0.52999997    2.80999994
   16.82750130   75.32440186    0.52999997    2.80999994
   16.83361244   75.32440186    0.52999997    2.78999996
   16.83750153   80.19080353    0.52999997    2.80999994
   16.84083366   74.65529633    0.52999997    2.80999994
   16.84416771   82.42859650    0.55000001    2.80999994
   16.84722328   72.98960114    0.52999997    2.80999994
   16.85055542   77.01139832    0.55000001    2.80999994
   16.85138893   78.39119720    0.52999997    2.80999994
   16.85416794   77.75350189    0.52999997    2.80999994
   16.85750008   80.20899963    0.52999997    2.80999994
   16.86055565   77.93530273    0.52999997    2.80999994
   16.86388969   74.29930115    0.52999997    2.78999996
   16.86722183   78.81400299    0.55000001    2.80999994
   16.87027740   82.04660034    0.52999997    2.80999994
   16.87638855   82.04660034    0.52999997    2.78999996
   16.88055611   76.97409821    0.51999998    2.78999996
   16.88361168   77.10749817    0.51999998    2.78999996
   16.88472176   81.93150330    0.51999998    2.78999996
   16.88722229   77.42910004    0.52999997    2.80999994
   16.89055634   83.09529877    0.51999998    2.82999992
   16.89361191   78.66139984    0.51999998    2.80999994
   16.89694405   79.60330200    0.51999998    2.80999994
   16.90027809   86.17400360    0.51999998    2.80999994
   16.90333366   76.13040161    0.52999997    2.80999994
   16.90666580   77.77690125    0.51999998    2.80999994
   16.90999985   77.28859711    0.51999998    2.78999996
   16.91305542   78.37570190    0.51999998    2.80999994
   16.91916656   78.37570190    0.51999998    2.80999994
   16.92333221   72.56050110    0.51999998    2.80999994
   16.92666626   79.14369965    0.51999998    2.80999994
   16.92972183   76.67759705    0.51999998    2.80999994
   16.93305397   77.87960052    0.51999998    2.80999994
   16.93610954   77.92040253    0.51999998    2.80999994
   16.93944359   77.77909851    0.51999998    2.80999994
   16.94277763   77.16750336    0.51999998    2.78999996
   16.94583321   74.54550171    0.51999998    2.80999994
   16.94916534   76.88259888    0.50000000    2.80999994
   16.95138931   76.75129700    0.51999998    2.80999994
   16.95277786   82.38420105    0.51999998    2.80999994
   16.95611191   79.38369751    0.51999998    2.80999994
   16.96194458   79.38369751    0.51999998    2.80999994
   16.96611214   77.80899811    0.52999997    2.78999996
   16.96944427   73.88809967    0.55000001    2.80999994
   16.97249985   79.45559692    0.56999999    2.80999994
   16.97583389   78.48269653    0.55000001    2.80999994
   16.97916794   75.31849670    0.55000001    2.80999994
   16.98222351   75.73880005    0.52999997    2.80999994
   16.98472214   76.78430176    0.52999997    2.80999994
   16.98583412   77.00730133    0.52999997    2.80999994
   16.98916626   80.67299652    0.55000001    2.78999996
   16.99222183   80.42330170    0.55000001    2.78999996
   16.99555588   77.37129974    0.55000001    2.80999994
   16.99888992   75.23439789    0.56999999    2.78999996
   17.00527763   75.23439789    0.56999999    2.80999994
   17.00944519   74.64669800    0.55000001    2.78999996
   17.01250076   73.10359955    0.55000001    2.80999994
   17.01583290   77.88919830    0.55000001    2.80999994
   17.01805496   75.66670227    0.55000001    2.80999994
   17.01944351   75.77619934    0.56999999    2.78999996
   17.02277756   79.94419861    0.56999999    2.80999994
   17.02583313   75.78440094    0.56999999    2.80999994
   17.02916718   79.25029755    0.56999999    2.78999996
   17.03249931   75.45459747    0.58999997    2.78999996
   17.03555489   75.95159912    0.56999999    2.80999994
   17.03888893   79.39929962    0.58999997    2.80999994
   17.04194450   76.78479767    0.56999999    2.78999996
   17.04777718   76.78479767    0.56999999    2.80999994
   17.05194283   76.92739868    0.58999997    2.80999994
   17.05499840   76.38749695    0.56999999    2.80999994
   17.05833244   77.55970001    0.56999999    2.80999994
   17.06166649   76.04450226    0.56999999    2.80999994
   17.06472206   75.29540253    0.56999999    2.80999994
   17.06805611   75.64360046    0.56999999    2.80999994
   17.07111168   78.34490204    0.55000001    2.80999994
   17.07444572   79.12480164    0.55000001    2.80999994
   17.07777786   75.82730103    0.55000001    2.80999994
   17.08083344   76.75469971    0.55000001    2.80999994
   17.08416748   77.06030273    0.55000001    2.80999994
   17.08472252   76.28769684    0.55000001    2.80999994
   17.09055710   76.28769684    0.56999999    2.80999994
   17.09472275   76.51689911    0.56999999    2.80999994
   17.09805679   75.68409729    0.56999999    2.78999996
   17.10111237   80.20099640    0.55000001    2.80999994
   17.10444450   80.49089813    0.55000001    2.80999994
   17.10750008   77.49289703    0.55000001    2.80999994
   17.11083412   82.93329620    0.55000001    2.78999996
   17.11416626   78.60430145    0.55000001    2.80999994
   17.11722183   75.78050232    0.56999999    2.80999994
   17.11805534   82.02799988    0.56999999    2.80999994
   17.12083435   76.27410126    0.56999999    2.80999994
   17.12416649   74.83760071    0.55000001    2.80999994
   17.12722206   78.51709747    0.55000001    2.80999994
   17.13333321   78.51709747    0.55000001    2.78999996
   17.13750076   77.59210205    0.55000001    2.80999994
   17.14083290   76.63639832    0.55000001    2.80999994
   17.14388847   78.53510284    0.55000001    2.80999994
   17.14722252   75.18669891    0.55000001    2.80999994
   17.15055466   73.89189911    0.55000001    2.80999994
   17.15138817   76.94920349    0.55000001    2.80999994
   17.15416718   74.43789673    0.55000001    2.80999994
   17.15749931   76.89479828    0.55000001    2.78999996
   17.16055489   74.95320129    0.55000001    2.80999994
   17.16388893   78.15830231    0.56999999    2.80999994
   17.16722107   74.51260376    0.55000001    2.80999994
   17.17027664   77.53369904    0.55000001    2.80999994
   17.17611122   77.53369904    0.55000001    2.78999996
   17.18027687   85.40209961    0.55000001    2.78999996
   17.18361092   79.27580261    0.55000001    2.80999994
   17.18472099   74.41310120    0.55000001    2.80999994
   17.18722153   77.94629669    0.55000001    2.78999996
   17.19055557   77.57230377    0.56999999    2.80999994
   17.19361115   81.13159943    0.55000001    2.78999996
   17.19694328   78.56459808    0.56999999    2.78999996
   17.20027924   77.64489746    0.56999999    2.78999996
   17.20333481   79.79889679    0.56999999    2.78999996
   17.20666695   78.02179718    0.56999999    2.80999994
   17.21000099   75.78620148    0.55000001    2.78999996
   17.21305656   78.64530182    0.55000001    2.80999994
   17.21916771   78.64530182    0.55000001    2.78999996
   17.22333336   79.07769775    0.56999999    2.78999996
   17.22638893   84.27549744    0.58999997    2.80999994
   17.22972298   81.91010284    0.56999999    2.78999996
   17.23305511   76.09159851    0.56999999    2.80999994
   17.23611069   78.42120361    0.56999999    2.80999994
   17.23944473   80.28320313    0.56999999    2.78999996
   17.24277878   83.43930054    0.56999999    2.78999996
   17.24583435   81.26219940    0.56999999    2.78999996
   17.24916649   87.60880280    0.56999999    2.80999994
   17.25166702   80.73020172    0.56999999    2.78999996
   17.25277710   76.09960175    0.56999999    2.78999996
   17.25611115   83.38169861    0.56999999    2.78999996
   17.26194382   83.38169861    0.58999997    2.78999996
   17.26611137   86.41239929    0.58999997    2.78999996
   17.26944351   81.72419739    0.58999997    2.80999994
   17.27249908   85.88610077    0.61000001    2.80999994
   17.27583313   87.40219879    0.58999997    2.78999996
   17.27888870   82.13670349    0.63000000    2.80999994
   17.28222275   80.72059631    0.64999998    2.78999996
   17.28499985   81.47810364    0.64999998    2.78999996
   17.28583336   82.42649841    0.64999998    2.78999996
   17.28916550   75.33260345    0.63000000    2.78999996
   17.29222107   79.50029755    0.64999998    2.78999996
   17.29555511   78.62509918    0.64999998    2.78999996
   17.29888916   74.00009918    0.64999998    2.80999994
   17.30472183   74.00009918    0.67000002    2.78999996
   17.30888748   80.06809998    0.67000002    2.78999996
   17.31222153   81.41850281    0.67000002    2.78999996
   17.31527710   80.21510315    0.67000002    2.78999996
   17.31833458   77.31919861    0.67000002    2.80999994
   17.31888962   75.79730225    0.69000000    2.78999996
   17.32222366   77.05670166    0.69000000    2.78999996
   17.32527924   77.06349945    0.69000000    2.78999996
   17.32861137   79.07270050    0.67000002    2.80999994
   17.33194542   76.03589630    0.69000000    2.80999994
   17.33500099   80.21929932    0.67000002    2.78999996
   17.33833313   81.68499756    0.69000000    2.78999996
   17.34166718   75.96420288    0.67000002    2.80999994
   17.34749985   75.96420288    0.64999998    2.80999994
   17.35166740   77.73829651    0.63000000    2.78999996
   17.35499954   75.92649841    0.63000000    2.80999994
   17.35833359   83.31169891    0.61000001    2.78999996
   17.36138916   80.91929626    0.61000001    2.78999996
   17.36472321   83.26920319    0.61000001    2.78999996
   17.36777878   77.25199890    0.61000001    2.78999996
   17.37111092   78.46600342    0.61000001    2.78999996
   17.37444496   77.28070068    0.58999997    2.78999996
   17.37750053   74.42900085    0.58999997    2.78999996
   17.38083267   74.84580231    0.58999997    2.80999994
   17.38416672   77.79650116    0.58999997    2.78999996
   17.38500023   79.06369781    0.58999997    2.78999996
   17.39055634   79.06369781    0.58999997    2.78999996
   17.39472198   75.88430023    0.58999997    2.80999994
   17.39777756   78.18669891    0.56999999    2.80999994
   17.40111160   74.63220215    0.58999997    2.80999994
   17.41860962   79.24459839    0.64999998    2.78999996
   17.42111015   76.46929932    0.70999998    2.78999996
   17.42444420   73.79460144    0.63000000    2.78999996
   17.42749977   78.08470154    0.58999997    2.80999994
   17.43361092   78.08470154    0.56999999    2.78999996
   17.43777657   78.00920105    0.58999997    2.78999996
   17.44083214   80.32450104    0.58999997    2.78999996
   17.44416618   77.83339691    0.61000001    2.78999996
   17.44722176   79.38500214    0.61000001    2.78999996
   17.45055580   78.01679993    0.61000001    2.78999996
   17.45194435   74.42019653    0.61000001    2.78999996
   17.45444489   72.90740204    0.61000001    2.78999996
   17.45750046   77.35240173    0.61000001    2.78999996
   17.46083450   80.17209625    0.61000001    2.80999994
   17.46416664   76.24490356    0.61000001    2.78999996
   17.46722221   76.31700134    0.61000001    2.78999996
   17.47055626   77.76319885    0.61000001    2.80999994
   17.47638893   77.76319885    0.63000000    2.80999994
   17.48055649   82.18890381    0.63000000    2.78999996
   17.48361206   76.52670288    0.61000001    2.78999996
   17.48527718   73.55190277    0.61000001    2.78999996
   17.48750114   77.83129883    0.61000001    2.78999996
   17.49055672   77.41459656    0.61000001    2.78999996
   17.49388885   74.67479706    0.63000000    2.78999996
   17.49722290   76.29769897    0.63000000    2.78999996
   17.50027847   77.35579681    0.63000000    2.78999996
   17.50361061   81.88619995    0.63000000    2.78999996
   17.50666618   74.54740143    0.63000000    2.78999996
   17.51000023   75.29930115    0.64999998    2.78999996
   17.51333427   74.74870300    0.67000002    2.78999996
   17.51916695   74.74870300    0.70999998    2.78999996
   17.52333260   81.69429779    0.70999998    2.78999996
   17.52666664   82.04340363    0.73000002    2.78999996
   17.52972221   80.82649994    0.75000000    2.78999996
   17.53305435   73.85600281    0.76999998    2.78999996
   17.53638840   76.45179749    0.79000002    2.78999996
   17.53944397   78.28549957    0.83999997    2.78999996
   17.54277802   75.88849640    0.80000001    2.78999996
   17.54583359   76.39299774    0.88000000    2.78999996
   17.54916573   78.01930237    0.95999998    2.78999996
   17.55194283   78.20050049    0.94000000    2.78999996
   17.55305481   81.31620026    0.94000000    2.78999996
   17.55638885   79.53029633    0.92000002    2.78999996
   17.56194305   79.53029633    0.75000000    2.78999996
   17.56611061   78.43890381    0.76999998    2.78999996
   17.56944466   78.28549957    0.76999998    2.78999996
   17.57277870   79.11579895    0.70999998    2.78999996
   17.57583427   77.35469818    0.73000002    2.78999996
   17.57916832   76.12979889    0.70999998    2.78999996
   17.58222389   79.73179626    0.73000002    2.78999996
   17.58527756   77.57150269    0.73000002    2.78999996
   17.58611107   74.51139832    0.70999998    2.78999996
   17.58944511   75.10350037    0.70999998    2.78999996
   17.59250069   77.30789948    0.70999998    2.78999996
   17.59583473   79.24949646    0.70999998    2.78999996
   17.59916687   79.77300262    0.69000000    2.78999996
   17.60499954   79.77300262    0.69000000    2.78999996
   17.60916710   77.60019684    0.69000000    2.78999996
   17.61222267   79.88310242    0.70999998    2.78999996
   17.61555672   79.71360016    0.70999998    2.78999996
   17.61861038   76.48419952    0.73000002    2.78999996
   17.61916733   77.66169739    0.73000002    2.78999996
   17.62222290   78.25060272    0.70999998    2.78999996
   17.62555504   74.75170135    0.70999998    2.78999996
   17.62888908   79.88279724    0.73000002    2.78999996
   17.63194466   78.22609711    0.73000002    2.78999996
   17.63527679   76.17130280    0.73000002    2.78999996
   17.63833237   79.93340302    0.73000002    2.78999996
   17.64166641   78.94190216    0.75000000    2.78999996
   17.64777756   78.94190216    0.75000000    2.78999996
   17.65194321   80.42199707    0.73000002    2.78999996
   17.65250015   80.24349976    0.75000000    2.78999996
   17.65555573   83.05419922    0.75000000    2.78999996
   17.65888786   83.16220093    0.76999998    2.78999996
   17.66222191   78.10540009    0.79000002    2.78999996
   17.66527748   84.72789764    0.80000001    2.78999996
   17.66860962   82.62770081    0.80000001    2.78999996
   17.67194366   83.71140289    0.80000001    2.78999996
   17.67499924   83.87380219    0.79000002    2.76999998
   17.67833328   79.82019806    0.79000002    2.78999996
   17.68138885   78.31369781    0.80000001    2.78999996
   17.68472099   76.32180023    0.81999999    2.78999996
   17.68527603   75.10769653    0.81999999    2.78999996
   17.69055557   75.10769653    0.80000001    2.78999996
   17.69472122   74.30159760    0.80000001    2.78999996
   17.69805527   78.05090332    0.79000002    2.78999996
   17.70111275   75.57820129    0.79000002    2.78999996
   18.62916756   76.72630310    1.75000000    2.75000000
   18.63249969   77.82810211    1.75000000    2.73000002
   18.63555527   76.07720184    1.76999998    2.75000000
   18.63888931   74.00669861    1.88000000    2.73000002
   18.64222145   75.87059784    1.88000000    2.73000002
   18.64527702   74.09159851    1.91999996    2.73000002
   18.64944458   74.09159851    2.09999990    2.73000002
   18.65361023   75.45230103    2.13000011    2.75000000
   18.65694427   76.13050079    2.11999989    2.75000000
   18.66027832   74.40859985    2.17000008    2.75000000
   18.66250038   74.72820282    2.25000000    2.73000002
   18.66388893   77.25170135    2.26999998    2.73000002
   18.66694450   76.18319702    2.30999994    2.73000002
   18.67027664   76.07260132    2.30999994    2.73000002
   18.67361069   77.41870117    2.26999998    2.73000002
   18.67666626   75.06310272    2.28999996    2.73000002
   18.68000031   78.34210205    2.21000004    2.75000000
   18.68305397   77.67150116    2.13000011    2.73000002
   18.68638802   76.53929901    2.13000011    2.73000002
   18.69249916   76.53929901    2.11999989    2.73000002
   18.69638824   74.36720276    2.15000010    2.73000002
   18.69972038   76.23850250    2.30999994    2.73000002
   18.70305634   75.03250122    2.39000010    2.73000002
   18.70611191   74.05220032    2.36999989    2.73000002
   18.70944595   76.93129730    2.36999989    2.73000002
   18.71277809   75.88680267    2.19000006    2.73000002
   18.71583366   76.07279968    2.05999994    2.73000002
   18.71916771   75.67289734    2.03999996    2.73000002
   18.72222328   77.12950134    2.07999992    2.73000002
   18.72555542   76.20079803    2.28999996    2.73000002
   18.72888947   73.43699646    2.23000002    2.73000002
   18.72944450   78.77950287    2.21000004    2.73000002
   18.73527718   78.77950287    2.17000008    2.73000002
   18.73944473   75.19460297    2.36999989    2.73000002
   18.74250031   75.01080322    2.48000002    2.73000002
   18.74583435   76.93229675    2.61999989    2.71000004
   18.74916649   75.84480286    2.55999994    2.73000002
   18.75222206   75.03489685    2.48000002    2.71000004
   18.75555611   74.73040009    2.51999998    2.73000002
   18.75861168   75.09999847    2.67000008    2.73000002
   18.76194382   75.34780121    2.59999990    2.71000004
   18.76277733   75.76809692    2.64000010    2.71000004
   18.76555634   78.13020325    2.69000006    2.73000002
   18.76888847   76.03209686    2.73000002    2.73000002
   18.77222252   73.06449890    2.67000008    2.71000004
   18.77805519   73.06449890    2.57999992    2.71000004
   18.78222275   74.14700317    2.57999992    2.73000002
   18.78555489   74.79479980    2.53999996    2.71000004
   18.78861046   74.46250153    2.55999994    2.71000004
   18.79194450   77.74939728    2.53999996    2.71000004
   18.79500008   76.20649719    2.80999994    2.71000004
   18.79611015   75.11000061    2.89000010    2.71000004
   18.79861069   75.63009644    2.93000007    2.71000004
   18.80194283   76.62229919    3.21000004    2.71000004
   18.80527687   77.64769745    2.96000004    2.71000004
   18.80833244   75.23539734    3.05999994    2.71000004
   18.81166649   75.37570190    3.05999994    2.71000004
   18.81499863   73.62000275    2.94000006    2.71000004
   18.82083511   73.62000275    3.16000009    2.73000002
   18.82500076   74.81539917    3.03999996    2.71000004
   18.82833481   74.64230347    2.89000010    2.71000004
   18.82944489   76.09809875    2.86999989    2.71000004
   18.83194542   74.46160126    2.75000000    2.73000002
   18.83527756   73.80390167    2.64000010    2.71000004
   18.83861160   74.59420013    2.59999990    2.71000004
   18.84166718   74.72160339    2.67000008    2.71000004
   18.84500122   74.78980255    2.78999996    2.71000004
   18.84833336   77.05629730    2.89000010    2.71000004
   18.85138893   75.54519653    2.57999992    2.71000004
   18.85472298   76.47679901    2.67000008    2.71000004
   18.85777855   76.08740234    2.91000009    2.71000004
   18.86388969   76.08740234    2.93000007    2.71000004
   18.86777878   72.81809998    2.94000006    2.71000004
   18.87111092   75.41290283    3.14000010    2.71000004
   18.87444496   74.59329987    3.28999996    2.69000006
   18.87750053   74.75810242    3.18000007    2.71000004
   18.88083267   74.54969788    3.00000000    2.71000004
   18.88416672   75.81050110    2.82999992    2.71000004
   18.88722229   73.78009796    2.76999998    2.71000004
   18.89055634   76.02739716    2.50000000    2.71000004
   18.89361191   74.17610168    2.61999989    2.71000004
   18.89611053   71.30780029    2.51999998    2.71000004
   18.89722252   75.23370361    2.51999998    2.71000004
   18.90055466   72.34719849    2.25000000    2.71000004
   18.90666580   72.34719849    2.66000009    2.71000004
   18.91083336   74.48100281    2.75000000    2.71000004
   18.91388893   75.04989624    2.64000010    2.71000004
   18.91722107   73.38469696    2.69000006    2.71000004
   18.92055511   73.98500061    2.78999996    2.69000006
   18.92361069   76.10330200    2.78999996    2.71000004
   18.92694473   74.28810120    2.46000004    2.71000004
   18.92944336   76.82360077    2.76999998    2.71000004
   18.93055534   78.87860107    2.86999989    2.71000004
   18.93388748   76.80449677    2.84999990    2.71000004
   18.93722153   76.27839661    2.96000004    2.71000004
   18.94027710   73.32520294    2.98000002    2.71000004
   18.94361115   75.46209717    2.89000010    2.71000004
   18.94944382   75.46209717    3.18000007    2.71000004
   18.95361137   77.80210114    3.03999996    2.69000006
   18.95694542   72.67759705    2.98000002    2.71000004
   18.96000099   73.43309784    2.98000002    2.71000004
   18.96277809   75.00559998    2.76999998    2.71000004
   18.96361160   76.09310150    2.66000009    2.71000004
   18.96694565   74.96050262    2.61999989    2.71000004
   18.97027779   73.94360352    2.48000002    2.71000004
   18.97333336   73.51709747    2.28999996    2.71000004
   18.97666740   74.41480255    2.28999996    2.71000004
   18.98000145   77.41609955    2.25000000    2.71000004
   18.98305511   73.65540314    2.30999994    2.71000004
   18.98638916   78.69370270    2.46000004    2.71000004
   18.99222183   78.69370270    2.71000004    2.71000004
   18.99638939   74.24449921    2.51999998    2.71000004
   18.99972153   77.47730255    2.61999989    2.69000006
   19.00277710   72.94550323    2.53999996    2.69000006
   19.00611115   76.50659943    2.39000010    2.71000004
   19.00944519   76.00360107    2.50000000    2.69000006
   19.01250076   72.69860077    2.67000008    2.69000006
   19.01583290   76.03340149    2.66000009    2.69000006
   19.01916695   77.96070099    2.69000006    2.71000004
   19.02222252   73.52690125    2.69000006    2.71000004
   19.02555466   71.76280212    2.57999992    2.69000006
   19.02861023   73.43699646    2.59999990    2.69000006
   19.02944374   74.76679993    2.66000009    2.69000006
   19.03527641   74.76679993    2.59999990    2.71000004
   19.03916550   76.99680328    2.53999996    2.69000006
   19.04249954   75.09729767    2.53999996    2.71000004
   19.04583359   76.27709961    2.42000008    2.71000004
   19.04888916   75.31670380    2.30999994    2.71000004
   19.05222130   77.25900269    2.23000002    2.71000004
   19.05555534   76.97419739    2.19000006    2.71000004
   19.05861092   74.37640381    2.30999994    2.69000006
   19.06194305   75.12999725    2.42000008    2.69000006
   19.06277657   77.96320343    2.42000008    2.71000004
   19.06555557   74.94090271    2.42000008    2.69000006
   19.06861115   75.52249908    2.57999992    2.69000006
   19.07194519   75.96080017    2.57999992    2.71000004
   19.07805634   75.96080017    2.53999996    2.71000004
   19.08222389   79.38140106    2.51999998    2.71000004
   19.08527756   74.97059631    2.50000000    2.71000004
   19.08861160   74.50659943    2.34999990    2.69000006
   19.09194565   76.10310364    2.17000008    2.71000004
   19.09500122   76.96420288    2.07999992    2.71000004
   19.09611130   76.76540375    2.05999994    2.69000006
   19.09889030   74.59480286    1.94000006    2.71000004
   19.10194397   77.44560242    1.85000002    2.69000006
   19.10527802   72.65440369    1.71000004    2.69000006
   19.10833359   75.57749939    1.69000006    2.71000004
   19.11166763   74.13880157    1.83000004    2.71000004
   19.11499977   73.47399902    1.86000001    2.71000004
   19.12083435   73.47399902    2.07999992    2.71000004
   19.12500000   78.41010284    2.11999989    2.69000006
   19.12805557   78.51850128    2.01999998    2.69000006
   19.12944412   75.05259705    2.01999998    2.71000004
   19.13194466   77.93900299    1.98000002    2.69000006
   19.13500023   74.27149963    1.98000002    2.71000004
   19.13833237   73.25000000    1.83000004    2.69000006
   19.14138794   74.69879913    1.83000004    2.69000006
   19.14472198   72.88719940    1.89999998    2.69000006
   19.14805603   73.68450165    1.94000006    2.71000004
   19.15111160   73.29260254    2.05999994    2.69000006
   19.15444374   73.33049774    2.26999998    2.69000006
   19.15777779   76.19889832    2.40000010    2.69000006
   19.16361046   76.19889832    2.32999992    2.69000006
   19.16777802   75.82530212    2.51999998    2.69000006
   19.17111015   72.39649963    2.61999989    2.69000006
   19.17416573   75.06469727    2.61999989    2.69000006
   19.17749977   73.46700287    2.59999990    2.69000006
   19.18083191   75.07360077    2.44000006    2.69000006
   19.18388748   72.68289948    2.32999992    2.71000004
   19.18722153   74.75409698    2.17000008    2.69000006
   19.19027710   73.76730347    2.09999990    2.69000006
   19.19361115   74.81320190    1.89999998    2.69000006
   19.19610977   73.65059662    1.85000002    2.69000006
   19.19749832   73.78959656    1.85000002    2.69000006
   19.20055580   73.06809998    1.80999994    2.71000004
   19.20639038   73.06809998    1.83000004    2.69000006
   19.21055603   74.68199921    1.91999996    2.69000006
   19.21389008   74.48480225    1.91999996    2.69000006
   19.21722221   79.10530090    1.83000004    2.69000006
   19.22027779   76.32180023    1.94000006    2.69000006
   19.22361183   74.43039703    1.98000002    2.69000006
   19.22666740   73.09549713    1.98000002    2.69000006
   19.22944450   72.04319763    2.00000000    2.69000006
   19.23055649   75.00370026    1.98000002    2.69000006
   19.23361206   73.94589996    2.00000000    2.69000006
   19.23694420   73.69370270    2.26999998    2.69000006
   19.23999977   76.88729858    2.51999998    2.69000006
   19.24333382   72.76770020    2.64000010    2.67000008
   19.24944496   72.76770020    2.55999994    2.67000008
   19.25361061   76.50579834    2.51999998    2.67000008
   19.25666618   77.60690308    2.36999989    2.67000008
   19.26000023   77.40039825    2.34999990    2.69000006
   19.26277733   75.21679688    2.46000004    2.69000006
   19.26361084   75.82959747    2.51999998    2.69000006
   19.26666641   77.35469818    2.71000004    2.67000008
   19.27000046   74.49739838    2.84999990    2.67000008
   19.27305603   73.81510162    2.80999994    2.67000008
   19.27638817   74.19110107    2.53999996    2.69000006
   19.27972221   75.10489655    2.53999996    2.69000006
   19.28277779   74.81169891    2.61999989    2.69000006
   19.28610992   77.84739685    2.78999996    2.67000008
   19.29222107   77.84739685    2.03999996    2.69000006
   19.29638863   74.70320129    2.17000008    2.67000008
   19.29944420   74.32420349    2.19000006    2.69000006
   19.30277634   75.56690216    2.25000000    2.69000006
   19.30611038   73.24369812    2.26999998    2.69000006
   19.30944443   76.37349701    2.23000002    2.69000006
   19.31250000   76.40419769    2.19000006    2.69000006
   19.31583214   75.01490021    2.19000006    2.69000006
   19.31888962   78.48570251    2.09999990    2.69000006
   19.32222366   76.95120239    2.28999996    2.69000006
   19.32555580   73.42510223    2.51999998    2.67000008
   19.32861137   77.72589874    2.48000002    2.67000008
   19.32944489   78.15699768    2.39000010    2.69000006
   19.33500099   78.15699768    2.15000010    2.67000008
   19.33916664   75.82119751    2.05999994    2.67000008
   19.34250069   75.37889862    2.23000002    2.69000006
   19.34555626   73.33390045    2.39000010    2.69000006
   19.34889030   75.46009827    2.44000006    2.67000008
   19.35222244   72.30359650    2.34999990    2.67000008
   19.35527802   74.74890137    2.48000002    2.67000008
   19.35861206   73.05719757    2.69000006    2.67000008
   19.36166763   75.42009735    2.46000004    2.67000008
   19.36277771   76.67939758    2.36999989    2.67000008
   19.36555672   75.56349945    2.28999996    2.67000008
   19.36861038   76.85520172    2.26999998    2.67000008
   19.37194443   75.05860138    2.34999990    2.67000008
   19.37777710   75.05860138    2.46000004    2.67000008
   19.38194466   73.40399933    2.80999994    2.67000008
   19.38527679   75.22389984    3.01999998    2.66000009
   19.38861084   75.09120178    3.16000009    2.67000008
   19.39166641   75.40180206    3.00000000    2.67000008
   19.39500046   73.48249817    3.18000007    2.66000009
   19.39611053   73.30490112    3.20000005    2.67000008
   19.39888954   76.12069702    3.09999990    2.67000008
   19.40194321   75.38159943    3.16000009    2.66000009
   19.40527725   75.68430328    3.09999990    2.67000008
   19.40861130   75.13909912    3.07999992    2.66000009
   19.41166687   79.77619934    2.91000009    2.67000008
   19.41499901   76.40789795    2.78999996    2.67000008
   19.42083359   76.40789795    2.40000010    2.67000008
   19.42499924   72.98619843    2.78999996    2.67000008
   19.42805481   77.03299713    3.32999992    2.67000008
   19.42944336   76.22239685    3.20000005    2.67000008
   19.43194389   76.07859802    2.94000006    2.67000008
   19.43499947   75.43979645    2.89000010    2.67000008
   19.43833160   74.36579895    2.76999998    2.66000009
   19.44166565   75.65920258    2.91000009    2.66000009
   19.44472122   73.58000183    2.73000002    2.66000009
   19.44805527   73.80359650    2.46000004    2.67000008
   19.45111275   78.30979919    2.50000000    2.67000008
   19.45444489   77.12390137    2.69000006    2.67000008
   19.45777893   75.15239716    2.76999998    2.66000009
   19.46361160   75.15239716    2.75000000    2.67000008
   19.46777916   76.64679718    2.67000008    2.67000008
   19.47083473   76.72989655    2.61999989    2.67000008
   19.47416687   77.68039703    2.48000002    2.66000009
   19.47750092   74.76789856    2.51999998    2.67000008
   19.48055649   79.98799896    2.59999990    2.66000009
   19.48388863   74.13569641    2.57999992    2.66000009
   19.48722267   75.29859924    2.51999998    2.67000008
   19.49027824   74.29989624    2.48000002    2.66000009
   19.49361229   76.14669800    2.34999990    2.66000009
   19.49611092   78.06310272    2.28999996    2.67000008
   19.49722290   76.34149933    2.25000000    2.67000008
   19.50027847   78.98840332    2.13000011    2.67000008
   19.50638962   78.98840332    2.15000010    2.66000009
   19.51055527   75.07070160    2.15000010    2.66000009
   19.51388931   75.01439667    2.09999990    2.66000009
   19.51694489   77.18399811    1.98000002    2.66000009
   19.52027702   76.95659637    1.88000000    2.66000009
   19.52361107   74.21569824    1.83000004    2.66000009
   19.52666664   80.78869629    1.83000004    2.66000009
   19.52944374   77.58270264    1.83000004    2.66000009
   19.53055573   73.26450348    1.83000004    2.66000009
   19.53361130   78.99050140    1.85000002    2.67000008
   19.53694344   77.39689636    1.80999994    2.67000008
   19.54027748   75.23439789    1.83000004    2.67000008
   19.54333305   74.77610016    1.83000004    2.67000008
   19.54916573   74.77610016    1.85000002    2.67000008
   19.55333328   76.28410339    1.78999996    2.67000008
   19.55666542   77.70050049    1.86000001    2.66000009
   19.55999947   76.70310211    1.86000001    2.66000009
   19.56277657   78.65090179    1.85000002    2.66000009
   19.56361008   77.06390381    1.85000002    2.66000009
   19.56666756   76.09089661    1.91999996    2.67000008
   19.57000160   76.38839722    1.85000002    2.66000009
   19.57333374   80.62550354    1.85000002    2.67000008
   19.57638931   75.40640259    1.85000002    2.67000008
   19.57972336   75.35079956    1.85000002    2.67000008
   19.58305550   80.08630371    1.86000001    2.67000008
   19.58611107   76.15560150    1.86000001    2.67000008
   19.59222221   76.15560150    1.80999994    2.66000009
   19.59638977   75.87729645    1.86000001    2.67000008
   19.59944534   74.83219910    1.86000001    2.66000009
   19.60277748   76.29769897    1.76999998    2.66000009
   19.60583305   72.86599731    1.83000004    2.66000009
   19.60916710   73.88099670    1.86000001    2.66000009
   19.61250114   77.59120178    1.86000001    2.66000009
   19.61555672   78.16490173    1.86000001    2.67000008
   19.61888885   74.32430267    1.86000001    2.67000008
   19.62222290   79.19249725    1.88000000    2.66000009
   19.62527847   74.45359802    1.86000001    2.66000009
   19.62861061   81.83290100    1.86000001    2.66000009
   19.62944412   74.92440033    1.89999998    2.67000008
   19.65027809   74.92440033    2.30999994    2.66000009
   19.65444374   74.49720001    2.26999998    2.64000010
   19.65749931   75.30529785    2.21000004    2.64000010
   19.66083336   74.64929962    2.17000008    2.66000009
   19.66277695   75.95390320    2.15000010    2.64000010
   19.66444397   76.21330261    2.15000010    2.64000010
   19.66749954   77.29290009    2.21000004    2.64000010
   19.67083359   75.81220245    2.26999998    2.64000010
   19.67416573   74.91249847    2.34999990    2.64000010
   19.67722130   78.35949707    2.36999989    2.64000010
   19.68055534   79.79519653    2.40000010    2.64000010
   19.68388748   72.81390381    2.46000004    2.64000010
   19.68694305   77.47270203    2.50000000    2.64000010
   19.69305420   77.47270203    2.40000010    2.64000010
   19.69722176   79.58599854    2.26999998    2.64000010
   19.70027924   79.11499786    2.19000006    2.64000010
   19.70361137   75.94029999    2.19000006    2.64000010
   19.70694542   78.57769775    2.13000011    2.64000010
   19.71000099   75.47419739    1.98000002    2.66000009
   19.71333504   74.59639740    1.91999996    2.66000009
   19.71638870   74.33070374    1.86000001    2.64000010
   19.71972275   73.80950165    1.86000001    2.64000010
   19.72305679   75.22270203    1.96000004    2.64000010
   19.72611237   75.16439819    1.98000002    2.64000010
   19.72944450   73.24559784    2.05999994    2.64000010
   19.73000145   75.71459961    2.09999990    2.64000010
   19.73583412   75.71459961    2.21000004    2.64000010
   19.73999977   76.23349762    2.15000010    2.64000010
   19.74305534   76.97669983    2.32999992    2.64000010
   19.74638939   75.26789856    2.34999990    2.64000010
   19.74972153   77.49310303    2.40000010    2.64000010
   19.75277710   76.63919830    2.50000000    2.61999989
   19.75611115   76.14510345    2.67000008    2.61999989
   19.75944519   79.00550079    2.80999994    2.64000010
   19.76250076   76.09349823    2.96000004    2.61999989
   19.76305580   78.04260254    2.96000004    2.61999989
   19.76638794   75.31620026    3.05999994    2.61999989
   19.77000046   76.64240265    3.30999994    2.61999989
   19.77333260   72.92929840    3.76999998    2.61999989
   19.77861023   72.92929840    4.09999990    2.61999989
   19.78277779   75.45839691    4.07999992    2.61999989
   19.78610992   78.26979828    4.26999998    2.59999990
   19.78916550   75.37979889    4.17999983    2.59999990
   19.79249954   79.00039673    4.05999994    2.59999990
   19.79583359   74.64270020    4.26000023    2.59999990
   19.79638863   76.26190186    4.26000023    2.59999990
   19.79944420   78.27749634    3.82999992    2.59999990
   19.80277634   74.11990356    3.50000000    2.61999989
   19.80583191   74.56819916    3.41000009    2.61999989
   19.80916595   75.97339630    3.45000005    2.61999989
   19.81222153   75.98639679    3.30999994    2.61999989
   19.81555557   80.26619720    3.39000010    2.61999989
   19.82139015   80.26619720    3.91000009    2.61999989
   19.82555580   78.21240234    3.59999990    2.61999989
   19.82888985   78.72329712    3.51999998    2.61999989
   19.82972336   77.19999695    3.48000002    2.61999989
   19.83250046   76.86830139    3.53999996    2.61999989
   19.83583450   73.49610138    3.68000007    2.61999989
   19.83889008   72.96759796    3.73000002    2.61999989
   19.84222221   73.36380005    3.72000003    2.59999990
   19.84527779   75.98809814    3.53999996    2.59999990
   19.84861183   74.26570129    3.55999994    2.59999990
   19.85194397   75.12000275    3.57999992    2.59999990
   19.85499954   78.77079773    2.98000002    2.61999989
   19.85833359   77.11669922    2.64000010    2.61999989
   19.86444473   77.11669922    2.21000004    2.61999989
   19.86861038   76.65419769    2.21000004    2.61999989
   19.87166595   76.35150146    2.09999990    2.61999989
   19.87500000   75.20860291    2.23000002    2.61999989
   19.87805557   75.65110016    2.44000006    2.61999989
   19.88138962   75.24790192    2.59999990    2.61999989
   19.88472176   76.84570313    2.69000006    2.61999989
   19.88777733   76.73709869    2.75000000    2.59999990
   19.89111137   74.97789764    2.75000000    2.59999990
   19.89444351   76.14399719    2.91000009    2.59999990
   19.89638901   75.95719910    2.98000002    2.59999990
   19.89805603   76.89219666    3.00000000    2.59999990
   19.90138817   75.99369812    2.78999996    2.59999990
   19.90722275   75.99369812    2.69000006    2.59999990
   19.91138840   75.40450287    2.71000004    2.59999990
   19.91444397   81.82749939    2.66000009    2.59999990
   19.91777802   82.96289825    2.59999990    2.59999990
   19.92111015   78.97530365    2.55999994    2.61999989
   19.92416573   82.24620056    2.57999992    2.61999989
   19.92749977   79.65679932    2.59999990    2.59999990
   19.92972183   77.23149872    2.66000009    2.59999990
   19.93111038   78.68509674    2.66000009    2.59999990
   19.93444443   76.06559753    2.66000009    2.59999990
   19.93750000   79.29090118    2.64000010    2.61999989
   19.94083214   77.36160278    2.48000002    2.59999990
   19.94388771   80.78569794    2.34999990    2.59999990
   19.95000076   80.78569794    2.32999992    2.59999990
   19.95416832   79.16010284    2.32999992    2.59999990
   19.95750046   76.23819733    2.30999994    2.59999990
   19.96055603   81.75360107    2.32999992    2.59999990
   19.96305656   76.82080078    2.39000010    2.59999990
   19.96444511   81.88099670    2.39000010    2.59999990
   19.96777916   74.94740295    2.40000010    2.59999990
   19.97083473   76.30629730    2.40000010    2.59999990
   19.97416687   79.17759705    2.44000006    2.59999990
   19.97722244   76.73919678    2.48000002    2.59999990
   19.98055649   81.62570190    2.46000004    2.59999990
   19.98388863   77.57060242    2.46000004    2.59999990
   19.98722267   77.01660156    2.46000004    2.59999990
   19.99277878   77.01660156    2.55999994    2.59999990
   19.99694443   77.19640350    2.66000009    2.59999990
   20.00027847   80.94409943    2.67000008    2.57999992
   20.00361061   77.71510315    2.61999989    2.57999992
   20.00666618   77.49019623    2.57999992    2.57999992
   20.01000023   75.97969818    2.51999998    2.57999992
   20.01305580   74.75430298    2.40000010    2.59999990
   20.01638794   79.02140045    2.53999996    2.59999990
   20.01972198   81.30529785    2.64000010    2.59999990
   20.02277756   77.52729797    2.78999996    2.59999990
   20.02611160   78.82209778    2.69000006    2.59999990
   20.02944374   79.32700348    2.59999990    2.59999990
   20.03000069   80.56210327    2.64000010    2.57999992
   20.03583336   80.56210327    2.82999992    2.57999992
   20.03999901   81.27269745    2.86999989    2.57999992
   20.04305458   82.05919647    2.55999994    2.57999992
   20.04638863   85.20300293    2.53999996    2.57999992
   20.04944420   79.69020081    2.53999996    2.57999992
   20.05277634   79.02850342    2.89000010    2.57999992
   20.05611038   78.88909912    2.82999992    2.57999992
   20.05916595   79.62940216    2.96000004    2.57999992
   20.06250000   80.08940125    2.94000006    2.57999992
   20.06333351   85.31210327    2.94000006    2.57999992
   20.06611061   82.95829773    2.91000009    2.57999992
   20.06944466   78.53620148    2.98000002    2.57999992
   20.07277870   77.22769928    3.23000002    2.55999994
   20.07861137   77.22769928    2.75000000    2.57999992
   20.08277893   80.46130371    2.67000008    2.57999992
   20.08583450   83.38610077    2.71000004    2.57999992
   20.08916664   76.87609863    2.75000000    2.57999992
   20.09250069   84.53510284    2.91000009    2.55999994
   20.09555626   88.11820221    2.78999996    2.55999994
   20.09666824   90.08129883    2.78999996    2.55999994
   20.09916687   89.74030304    2.59999990    2.57999992
