    HOUR (UT)   FLARE FACTOR    SKY TESTER    SUN TESTER
   15.22388840   -1.00000000   -1.00000000   -1.00000000
   15.25694466  149.43800354    0.00000000    0.00000000
   15.26027775  141.97900391    0.00000000    0.00000000
   15.26361084  142.67399597    0.00000000    0.00000000
   15.26666641  149.87199402    0.00000000    0.00000000
   15.26999950  142.10400391    0.00000000    0.00000000
   15.27305508  151.60800171    0.00000000    0.00000000
   15.27722168  151.60800171    0.00000000    0.00000000
   15.28138828  154.38299561    0.00000000    0.00000000
   15.28472233  143.75799561    0.00000000    0.00000000
   15.28777790  137.12899780    0.00000000    0.00000000
   15.29000092  155.54800415    0.00000000    0.00000000
   15.29138947  147.96299744    0.00000000    0.00000000
   15.29472256  158.12300110    0.00000000    0.00000000
   15.29833412  163.14700317    0.00000000    0.00000000
   15.30138874  159.87100220    0.00000000    0.00000000
   15.30472279  154.88699341    0.00000000    0.00000000
   15.30777836  156.80000305    0.00000000    0.00000000
   15.31194496  156.80000305    0.00000000    0.00000000
   15.31611156  157.22900391    0.00000000    0.00000000
   15.31944466  167.00999451    0.00000000    0.00000000
   15.32250023  172.02699280    0.00000000    0.00000000
   15.32333374  158.05700684    0.00000000    0.00000000
   15.32611084  152.78199768    0.00000000    0.00000000
   15.32944393  153.66400146    0.00000000    0.00000000
   15.33277798  149.07200623    0.00000000    0.00000000
   15.33583260  172.07299805    0.00000000    0.00000000
   15.33916664  152.32699585    0.00000000    0.00000000
   15.34249973  176.89799500    0.00000000    0.00000000
   15.34666634  176.89799500    0.00000000    0.00000000
   15.35055637  158.28599548    0.00000000    0.00000000
   15.35388947  164.89300537    0.00000000    0.00000000
   15.35666752  186.02499390    0.00000000    0.00000000
   15.35750008  167.03300476    0.00000000    0.00000000
   15.36083412  177.19400024    0.00000000    0.00000000
   15.36388969  160.39700317    0.00000000    0.00000000
   15.36722279  171.24800110    0.00000000    0.00000000
   15.37055588  167.55900574    0.00000000    0.00000000
   15.37361145  171.98399353    0.00000000    0.00000000
   15.37694454  170.12800598    0.00000000    0.00000000
   15.38111115  170.12800598    0.00000000    0.00000000
   15.38527775  172.29600525    0.00000000    0.00000000
   15.38833332  166.57299805    0.00000000    0.00000000
   15.39000034  150.19000244    0.00000000    0.00000000
   15.39194393  165.98199463    0.00000000    0.00000000
   15.39527798  158.04100037    0.00000000    0.00000000
   15.39833355  175.29699707    0.00000000    0.00000000
   15.40166664  170.38699341    0.00000000    0.00000000
   15.40499973  148.20599365    0.13000000    0.79000002
   15.40805531  167.08000183    0.13000000    0.79000002
   15.41138840  148.54200745    0.13000000    0.79000002
   15.41555500  148.54200745    0.13000000    0.79000002
   15.41972256  163.27900696    0.13000000    0.79000002
   15.42277813  155.48199463    0.13000000    0.79000002
   15.42333412  165.61399841    0.13000000    0.79000002
   15.42638874  161.86599731    0.13000000    0.79000002
   15.42972279  170.61099243    0.13000000    0.79000002
   15.43277836  169.53599548    0.13000000    0.79000002
   15.43611145  170.46400452    0.13000000    0.79000002
   15.43944454  169.13900757    0.13000000    0.79000002
   15.44250011  162.64399719    0.13000000    0.79000002
   15.44583321  165.82800293    0.13000000    0.79000002
   15.44999981  165.82800293    0.13000000    0.79000002
   15.45416641  167.43499756    0.13000000    0.79000002
   15.45666695  170.11099243    0.13000000    0.79000002
   15.45777798  164.40899658    0.13000000    0.79000002
   15.46111107  167.14300537    0.13000000    0.79000002
   15.46416664  165.49800110    0.13000000    0.79000002
   15.46749973  165.69400024    0.13000000    0.79000002
   15.47083282  165.41999817    0.13000000    0.79000002
   15.47388840  149.28199768    0.13000000    0.79000002
   15.47722149  149.62199402    0.13000000    0.79000002
   15.48027706  157.52499390    0.13000000    0.79000002
   15.48444462  157.52499390    0.13000000    0.79000002
   15.48861122  160.28399658    0.13000000    0.79000002
   15.49027824  155.72300720    0.13000000    0.79000002
   15.49222279  153.14900208    0.13000000    0.79000002
   15.49555588  148.91000366    0.13000000    0.79000002
   15.49861145  155.30900574    0.13000000    0.79000002
   15.50194454  153.51800537    0.13000000    0.79000002
   15.50527763  157.63999939    0.13000000    0.79000002
   15.50833321  157.98399353    0.13000000    0.79000002
   15.51166630  155.81599426    0.13000000    0.79000002
   15.51500034  148.69999695    0.13000000    0.79000002
   15.51916599  148.69999695    0.13000000    0.79000002
   15.52333355  172.22999573    0.13000000    0.79000002
   15.52361107  169.36500549    0.13000000    0.79000002
   15.52694416  161.02499390    0.13000000    0.79000002
   15.53027725  165.64700317    0.13000000    0.79000002
   15.53333378  159.89599609    0.13000000    0.79000002
   15.53666687  164.87500000    0.13000000    0.79000002
   15.54000092  151.57400513    0.13000000    0.79000002
   15.54305553  157.67199707    0.13000000    0.79000002
   15.54638958  160.12500000    0.13000000    0.79000002
   15.54972267  162.80099487    0.13000000    0.79000002
   15.55361176  162.80099487    0.13000000    0.79000002
   15.55777836  155.90400696    0.13000000    0.79000002
   15.56111145  155.22799683    0.13000000    0.79000002
   15.56444454  159.80000305    0.13000000    0.79000002
   15.56750011  153.77999878    0.13000000    0.79000002
   15.57083321  147.78799438    0.13000000    0.79000002
   15.57388878  151.82800293    0.13000000    0.79000002
   15.57722187  145.60200500    0.13000000    0.79000002
   15.58055592  150.07600403    0.13000000    0.79000002
   15.58361053  143.68099976    0.13000000    0.79000002
   15.58833313  143.68099976    0.13000000    0.79000002
   15.59249973  147.98300171    0.13000000    0.79000002
   15.59555531  148.51300049    0.13000000    0.79000002
   15.59888840  159.89399719    0.13000000    0.79000002
   15.60194492  150.61399841    0.13000000    0.79000002
   15.60527802  150.96600342    0.13000000    0.79000002
   15.60861111  151.36300659    0.13000000    0.79000002
   15.61194515  153.22799683    0.13000000    0.79000002
   15.61527824  144.38600159    0.13000000    0.79000002
   15.61861134  151.03500366    0.13000000    0.79000002
   15.62277794  151.03500366    0.13000000    0.79000002
   15.62694454  158.35600281    0.13000000    0.79000002
   15.63000011  156.14599609    0.13000000    0.79000002
   15.63333321  153.45899963    0.13000000    0.79000002
   15.73361111   -1.00000000   -1.00000000   -1.00000000
   15.84416676   -1.00000000   -1.00000000   -1.00000000
   15.98277760   -1.00000000   -1.00000000   -1.00000000
   16.00527763  146.82499695    0.13000000    0.79000002
   16.00861168  142.30599976    0.13000000    0.79000002
   16.01166725  159.36599731    0.13000000    0.79000002
   16.01499939  161.77699280    0.13000000    0.79000002
   16.01805496  152.70700073    0.13000000    0.79000002
   16.02138901  157.14399719    0.13000000    0.79000002
   16.02555466  157.14399719    0.13000000    0.79000002
   16.02972221  149.98599243    0.13000000    0.79000002
   16.03277779  157.17100525    0.13000000    0.79000002
   16.03610992  160.16999817    0.13000000    0.79000002
   16.03833199  151.47099304    0.13000000    0.79000002
   16.03972244  163.66799927    0.13000000    0.79000002
   16.04305458  161.53100586    0.13000000    0.79000002
   16.04611015  155.76199341    0.13000000    0.79000002
   16.04944420  155.84599304    0.13000000    0.79000002
   16.05277634  156.17199707    0.13000000    0.79000002
   16.05583191  161.32400513    0.13000000    0.79000002
   16.05999947  161.32400513    0.13000000    0.79000002
   16.06416512  159.91700745    0.13000000    0.79000002
   16.06750107  148.78599548    0.13000000    0.79000002
   16.07055664  159.44799805    0.13000000    0.79000002
   16.07194519  163.05000305    0.13000000    0.79000002
   16.07416725  167.15899658    0.13000000    0.79000002
   16.07750130  169.10400391    0.13000000    0.79000002
   16.08083344  176.81599426    0.13000000    0.79000002
   16.08388901  152.47300720    0.13000000    0.79000002
   16.08722305  158.00999451    0.13000000    0.79000002
   16.09055710  167.65899658    0.13000000    0.79000002
   16.09444427  167.65899658    0.13000000    0.79000002
   16.09861183  165.61300659    0.13000000    0.79000002
   16.10194397  163.50000000    0.13000000    0.79000002
   16.10527802  163.38900757    0.13000000    0.79000002
   16.10555649  172.08500671    0.13000000    0.79000002
   16.10888863  163.82000732    0.13000000    0.79000002
   16.11222267  158.54299927    0.13000000    0.79000002
   16.11527824  159.82800293    0.13000000    0.79000002
   16.11861038  158.27600098    0.13000000    0.79000002
   16.12166595  162.67100525    0.13000000    0.79000002
   16.12500000  156.21400452    0.13000000    0.79000002
   16.12916756  156.21400452    0.13000000    0.79000002
   16.13333321  164.90400696    0.13000000    0.79000002
   16.13666725  170.35200500    0.13000000    0.79000002
   16.13861084  166.68299866    0.13000000    0.79000002
   16.13999939  162.31300354    0.13000000    0.79000002
   16.14333344  163.85600281    0.13000000    0.79000002
   16.14666748  162.29400635    0.13000000    0.79000002
   16.14972115  166.48399353    0.13000000    0.79000002
   16.15305519  167.25799561    0.13000000    0.79000002
   16.15638924  169.84300232    0.13000000    0.79000002
   16.15944481  164.03300476    0.13000000    0.79000002
   16.16361046  164.03300476    0.13000000    0.79000002
   16.16777802  175.09500122    0.13000000    0.79000002
   16.17111015  171.23800659    0.13000000    0.79000002
   16.17194366  177.41400146    0.13000000    0.79000002
   16.17472076  176.64399719    0.13000000    0.79000002
   16.17805481  174.48899841    0.13000000    0.79000002
   16.18138885  168.15199280    0.13000000    0.79000002
   16.18444443  161.03500366    0.13000000    0.79000002
   16.18777657  159.18600464    0.13000000    0.79000002
   16.19111061  178.60600281    0.13000000    0.79000002
   16.19416618  167.86700439    0.13000000    0.79000002
   16.19833183  167.86700439    0.13000000    0.79000002
   16.20250130  171.63800049    0.13000000    0.79000002
   16.20527840  190.70199585    0.13000000    0.79000002
   16.20611191  181.71899414    0.13000000    0.79000002
   16.20944595  174.99699402    0.13000000    0.79000002
   16.21277809  179.92399597    0.13000000    0.79000002
   16.21583366  188.08700562    0.13000000    0.79000002
   16.21916771  179.64900208    0.13000000    0.79000002
   16.22249985  191.08900452    0.13000000    0.79000002
   16.22555542  186.68800354    0.13000000    0.79000002
   16.22888947  183.62699890    0.13000000    0.79000002
   16.23305511  183.62699890    0.13000000    0.79000002
   16.23722267  183.13499451    0.13000000    0.79000002
   16.23861122  172.34500122    0.13000000    0.79000002
   16.24055672  177.28700256    0.13000000    0.79000002
   16.24388885  165.99200439    0.13000000    0.79000002
   16.24722290  184.55700684    0.13000000    0.79000002
   16.25027847  164.52600098    0.13000000    0.79000002
   16.25361061  183.32400513    0.13000000    0.79000002
   16.25694466  170.19099426    0.13000000    0.79000002
   16.26000023  174.60299683    0.13000000    0.79000002
   16.26333427  172.93299866    0.13000000    0.79000002
   16.26749992  172.93299866    0.13000000    0.79000002
   16.27166557  166.67999268    0.13000000    0.79000002
   16.27222252  174.43600464    0.13000000    0.79000002
   16.27555466  167.15400696    0.13000000    0.79000002
   16.27861023  173.51699829    0.13000000    0.79000002
   16.28194427  161.57699585    0.13000000    0.79000002
   16.28499985  179.17399597    0.13000000    0.79000002
   16.28833199  181.67900085    0.13000000    0.79000002
   16.29166603  167.08399963    0.13000000    0.79000002
   16.29472160  182.66099548    0.13000000    0.79000002
   16.29805565  184.08799744    0.13000000    0.79000002
   16.30222130  184.08799744    0.13000000    0.79000002
   16.30638885  164.59199524    0.13000000    0.79000002
   16.30944443  159.57299805    0.13000000    0.79000002
   16.31277657  178.98899841    0.13000000    0.79000002
   16.31611061  172.08700562    0.13000000    0.79000002
   16.31916809  178.89999390    0.13000000    0.79000002
   16.32250023  169.52900696    0.13000000    0.79000002
   16.32555580  177.72300720    0.13000000    0.79000002
   16.32888985  170.70300293    0.13000000    0.79000002
   16.33222389  166.08399963    0.13000000    0.79000002
   16.33666801  166.08399963    0.13000000    0.79000002
   16.34083366  171.67300415    0.13000000    0.79000002
   16.34416771  178.54899597    0.13000000    0.79000002
   16.34722328  181.01100159    0.13000000    0.79000002
   16.35055542  179.48599243    0.13000000    0.79000002
   16.35361099  174.33599854    0.13000000    0.79000002
   16.35694504  174.97300720    0.13000000    0.79000002
   16.36027908  169.99600220    0.13000000    0.79000002
   16.36333466  173.85099792    0.13000000    0.79000002
   16.36666679  168.40299988    0.13000000    0.79000002
   16.37111092  168.40299988    0.13000000    0.79000002
   16.37527847  169.39300537    0.13000000    0.79000002
   16.37861061  177.10099792    0.13000000    0.79000002
   16.38166618  168.81799316    0.13000000    0.79000002
   16.38500023  153.75799561    0.13000000    0.79000002
   16.38833237  160.66299438    0.13000000    0.79000002
   16.39138794  158.30200195    0.13000000    0.79000002
   16.39472198  169.92700195    0.13000000    0.79000002
   16.39805603  166.86599731    0.13000000    0.79000002
   16.40111160  170.98800659    0.13000000    0.79000002
   16.40583229  170.98800659    0.13000000    0.79000002
   16.40972137  164.77900696    0.13000000    0.79000002
   16.41305542  169.28100586    0.13000000    0.79000002
   16.41638756  160.69799805    0.13000000    0.79000002
   16.41944313  167.85099792    0.13000000    0.79000002
   16.42277718  168.86999512    0.13000000    0.79000002
   16.42611122  167.14799500    0.13000000    0.79000002
   16.42916679  166.25199890    0.13000000    0.79000002
   16.43249893  170.14700317    0.13000000    0.79000002
   16.43583298  165.88099670    0.13000000    0.79000002
   16.44027710  165.88099670    0.13000000    0.79000002
   16.44444275  162.15100098    0.13000000    0.79000002
   16.44749832  160.68200684    0.13000000    0.79000002
   16.45083427  159.24800110    0.13000000    0.79000002
   16.45416832  157.26199341    0.13000000    0.79000002
   16.45722389  151.92999268    0.13000000    0.79000002
   16.46055603  150.15600586    0.13000000    0.79000002
   16.46361160  157.12300110    0.13000000    0.79000002
   16.46694565  160.92300415    0.13000000    0.79000002
   16.47027779  151.74499512    0.13000000    0.79000002
   16.47472191  151.74499512    0.13000000    0.79000002
   16.47888947  158.57499695    0.13000000    0.79000002
   16.48194504  152.19400024    0.13000000    0.79000002
   16.48527718  181.74600220    0.13000000    0.79000002
   16.48861122  164.41200256    0.13000000    0.79000002
   16.49166679  155.57200623    0.13000000    0.79000002
   16.49500084  165.06500244    0.13000000    0.79000002
   16.49833298  144.71899414    0.13000000    0.79000002
   16.50138855  158.56599426    0.13000000    0.79000002
   16.50472260  146.17399597    0.13000000    0.79000002
   16.50916672  146.17399597    0.13000000    0.79000002
   16.51333427  160.29699707    0.13000000    0.79000002
   16.51666641  163.91299438    0.13000000    0.79000002
   16.51972198  164.15100098    0.13000000    0.79000002
   16.52305603  155.83700562    0.13000000    0.79000002
   16.52638817  154.40199280    0.13000000    0.79000002
   16.52944374  175.57099915    0.13000000    0.79000002
   16.53277779  151.35499573    0.13000000    0.79000002
   16.53583336  159.68899536    0.13000000    0.79000002
   16.53916550  157.08599854    0.13000000    0.79000002
   16.54361153  157.08599854    0.13000000    0.79000002
   16.54777718  167.36799622    0.13000000    0.79000002
   16.55111122  184.35200500    0.13000000    0.79000002
   16.55444336  168.59500122    0.13000000    0.79000002
   16.55749893  157.90199280    0.13000000    0.79000002
   16.56083298  160.75500488    0.13000000    0.79000002
   16.56388855  167.91400146    0.13000000    0.79000002
   16.56722260  165.77099609    0.13000000    0.79000002
   16.57055664  155.19799805    0.13000000    0.79000002
   16.57361221  150.22399902    0.13000000    0.79000002
   16.57833481  150.22399902    0.13000000    0.79000002
   16.58250046  173.33299255    0.13000000    0.79000002
   16.58555603  144.79100037    0.13000000    0.79000002
   16.58889008  160.39500427    0.13000000    0.79000002
   16.59222221  160.14399719    0.13000000    0.79000002
   16.59527779  157.35200500    0.13000000    0.79000002
   16.59861183  150.89799500    0.13000000    0.79000002
   16.60166740  150.16299438    0.13000000    0.79000002
   16.60499954  147.73800659    0.13000000    0.79000002
   16.60833359  168.29100037    0.13000000    0.79000002
   16.61277771  168.29100037    0.13000000    0.79000002
   16.61694527  152.86599731    0.13000000    0.79000002
   16.62000084  147.61199951    0.13000000    0.79000002
   16.62333298  153.44599915    0.13000000    0.79000002
   16.62666702  155.25700378    0.13000000    0.79000002
   16.62972260  152.51199341    0.13000000    0.79000002
   16.63305473  155.70599365    0.13000000    0.79000002
   16.63611031  174.34700012    0.13000000    0.79000002
   16.63944435  149.52699280    0.13000000    0.79000002
   16.64277840  149.50700378    0.13000000    0.79000002
   16.64722252  149.50700378    0.13000000    0.79000002
   16.65138817  156.87500000    0.13000000    0.79000002
   16.65472221  155.19999695    0.13000000    0.79000002
   16.65777779  156.00000000    0.13000000    0.79000002
   16.66110992  160.55499268    0.13000000    0.79000002
   16.66416550  155.46899414    0.13000000    0.79000002
   16.66749954  153.77299500    0.13000000    0.79000002
   16.67083359  153.77099609    0.13000000    0.79000002
   16.67388916  148.02699280    0.13000000    0.79000002
   16.67722130  155.30700684    0.13000000    0.79000002
   16.68166542  155.30700684    0.13000000    0.79000002
   16.68583298  157.80000305    0.13000000    0.79000002
   16.68916512  156.07299805    0.13000000    0.79000002
   16.69222069  143.76600647    0.13000000    0.79000002
   16.69555473  154.96800232    0.13000000    0.79000002
   16.69888878  151.91000366    0.13000000    0.79000002
   16.70194435  155.31799316    0.13000000    0.79000002
   16.70527840  157.41299438    0.13000000    0.79000002
   16.70861244  155.11799622    0.13000000    0.79000002
   16.71166801  152.89500427    0.13000000    0.79000002
   16.71638870  152.89500427    0.13000000    0.79000002
   16.72027779  151.42500305    0.13000000    0.79000002
   16.72361183  147.83700562    0.13000000    0.79000002
   16.72694588  154.77299500    0.13000000    0.79000002
   16.73000145  167.23599243    0.13000000    0.79000002
   16.73333359  155.46200562    0.13000000    0.79000002
   16.73666763  156.44200134    0.13000000    0.79000002
   16.73972321  157.54800415    0.13000000    0.79000002
   16.74305534  169.44200134    0.13000000    0.79000002
   16.74611092  160.76199341    0.13000000    0.79000002
   16.75083351  160.76199341    0.13000000    0.79000002
   16.75499916  140.77799988    0.13000000    0.79000002
   16.75805473  141.58799744    0.13000000    0.79000002
   16.76138878  156.28500366    0.13000000    0.79000002
   16.76472282  152.57099915    0.13000000    0.79000002
   16.76777840  155.60899353    0.13000000    0.79000002
   16.77111053  137.96000671    0.13000000    0.79000002
   16.77444458  150.93899536    0.13000000    0.79000002
   16.77750015  150.61599731    0.13000000    0.79000002
   16.78083229  158.33900452    0.13000000    0.79000002
   16.78527641  158.33900452    0.13000000    0.79000002
   16.78944397  140.46600342    0.13000000    0.79000002
   16.79277802  144.07299805    0.13000000    0.79000002
   16.79583359  150.02499390    0.13000000    0.79000002
   16.79916573  155.76800537    0.13000000    0.79000002
   16.80222130  156.35400391    0.13000000    0.79000002
   16.80555534  152.07800293    0.13000000    0.79000002
   16.80888748  143.70599365    0.13000000    0.79000002
   16.81194305  145.83999634    0.13000000    0.79000002
   16.81527710  136.83000183    0.13000000    0.79000002
   16.81972313  136.83000183    0.13000000    0.79000002
   16.82389069  153.74499512    0.13000000    0.79000002
   16.82722282  150.91700745    0.13000000    0.79000002
   16.83027840  151.19799805    0.13000000    0.79000002
   16.83361244  158.15299988    0.13000000    0.79000002
   16.83694458  151.31100464    0.13000000    0.79000002
   16.84000015  147.86999512    0.13000000    0.79000002
   16.84333420  150.16099548    0.13000000    0.79000002
   16.84666824  155.81399536    0.13000000    0.79000002
   16.84972191  152.05499268    0.13000000    0.79000002
   16.85444450  152.05499268    0.13000000    0.79000002
   16.85833359  151.79600525    0.13000000    0.79000002
   16.86166763  151.39199829    0.13000000    0.79000002
   16.86499977  155.86999512    0.13000000    0.79000002
   16.86805534  147.07600403    0.13000000    0.79000002
   16.87138939  153.48399353    0.13000000    0.79000002
   16.87472153  167.61399841    0.13000000    0.79000002
   16.87777710  151.04400635    0.13000000    0.79000002
   16.88111115  170.77900696    0.13000000    0.79000002
   16.88416672  154.48199463    0.13000000    0.79000002
   16.88888931  154.48199463    0.13000000    0.79000002
   16.89305496  163.13499451    0.13000000    0.79000002
   16.89611053  132.52000427    0.13000000    0.79000002
   16.89944458  153.66400146    0.13000000    0.79000002
   16.90250015  160.86199951    0.13000000    0.79000002
   16.90583229  152.50900269    0.13000000    0.79000002
   16.90916634  156.81300354    0.13000000    0.79000002
   16.91222191  161.50500488    0.13000000    0.79000002
   16.91555595  161.62699890    0.13000000    0.79000002
   16.91888809  149.11999512    0.13000000    0.79000002
   16.92333221  149.11999512    0.13000000    0.79000002
   16.92749977  153.12699890    0.13000000    0.79000002
   16.93055534  146.53999329    0.13000000    0.79000002
   16.93388748  166.99200439    0.13000000    0.79000002
   16.93722153  150.57699585    0.13000000    0.79000002
   16.94027710  152.63800049    0.13000000    0.79000002
   16.94361115  156.38000488    0.13000000    0.79000002
   16.94694328  146.10699463    0.13000000    0.79000002
   16.95000076  150.54699707    0.13000000    0.79000002
   16.95333481  158.62699890    0.13000000    0.79000002
   16.95777893  158.62699890    0.13000000    0.79000002
   16.96194458  158.12100220    0.13000000    0.79000002
   16.96527863  154.91200256    0.13000000    0.79000002
   16.96833420  156.93099976    0.13000000    0.79000002
   16.97166634  159.45300293    0.13000000    0.79000002
   16.97500038  156.47099304    0.13000000    0.79000002
   16.97805595  159.30799866    0.13000000    0.79000002
   16.98139000  165.25199890    0.13000000    0.79000002
   16.98472214  161.31399536    0.13000000    0.79000002
   16.98777771  167.03300476    0.13000000    0.79000002
   16.99222183  167.03300476    0.13000000    0.79000002
   16.99638939  165.80000305    0.13000000    0.79000002
   16.99972153  151.10200500    0.13000000    0.79000002
   17.00277710  161.87899780    0.13000000    0.79000002
   17.02249908  154.72900391    0.13000000    0.79000002
   17.02694511  154.72900391    0.13000000    0.79000002
   17.03111076  153.71600342    0.13000000    0.79000002
   17.03416634  146.02099609    0.13000000    0.79000002
   17.03750038  156.39100647    0.13000000    0.79000002
   17.04083252  160.76400757    0.13000000    0.79000002
   17.04416656  156.64599609    0.13000000    0.79000002
   17.04722214  177.63400269    0.13000000    0.79000002
   17.05055428  163.53199768    0.13000000    0.79000002
   17.05360985  158.47500610    0.13000000    0.79000002
   17.05694389  161.30299377    0.13000000    0.79000002
   17.06138802  161.30299377    0.13000000    0.79000002
   17.06555557  160.57600403    0.13000000    0.79000002
   17.06888962  166.30499268    0.13000000    0.79000002
   17.07194519  163.32600403    0.13000000    0.79000002
   17.07527924  158.17300415    0.13000000    0.79000002
   17.07861137  164.32600403    0.13000000    0.79000002
   17.08166695  159.73100281    0.13000000    0.79000002
   17.08500099  177.09500122    0.13000000    0.79000002
   17.08805656  164.69099426    0.13000000    0.79000002
   17.09138870  164.86599731    0.13000000    0.79000002
   17.09583473  164.86599731    0.13000000    0.79000002
   17.10000038  162.80999756    0.13000000    0.79000002
   17.10333443  166.71499634    0.13000000    0.79000002
   17.10666656  150.04899597    0.13000000    0.79000002
   17.10972214  144.83799744    0.13000000    0.79000002
   17.11305618  149.61900330    0.13000000    0.79000002
   17.11638832  151.66400146    0.13000000    0.79000002
   17.11944389  146.30099487    0.13000000    0.79000002
   17.12277794  148.80400085    0.13000000    0.79000002
   17.12583351  152.32299805    0.13000000    0.79000002
   17.13055611  152.32299805    0.13000000    0.79000002
   17.13444519  150.02600098    0.13000000    0.79000002
   17.13777733  153.14399719    0.13000000    0.79000002
   17.14111137  136.29600525    0.13000000    0.79000002
   17.14416695  157.65199280    0.13000000    0.79000002
   17.14749908  141.74200439    0.13000000    0.79000002
   17.15083313  148.29800415    0.13000000    0.79000002
   17.15388870  144.61000061    0.13000000    0.79000002
   17.15722275  153.96600342    0.13000000    0.79000002
   17.16027832  129.21600342    0.13000000    0.79000002
   17.16499901  129.21600342    0.13000000    0.79000002
   17.16916656  151.97700500    0.13000000    0.79000002
   17.17222214  155.29200745    0.13000000    0.79000002
   17.17555428  152.95199585    0.13000000    0.79000002
   17.17888832  155.29200745    0.13000000    0.79000002
   17.18194389  149.92500305    0.13000000    0.79000002
   17.18527603  144.53799438    0.13000000    0.79000002
   17.18833160  153.01199341    0.13000000    0.79000002
   17.19166565  150.10600281    0.13000000    0.79000002
   17.19499969  151.29899597    0.13000000    0.79000002
   17.19944382  151.29899597    0.13000000    0.79000002
   17.20361137  148.93400574    0.13000000    0.79000002
   17.20694542  156.15400696    0.13000000    0.79000002
   17.21000099  158.94599915    0.13000000    0.79000002
   17.21333504  153.21400452    0.13000000    0.79000002
   17.21666718  149.95100403    0.13000000    0.79000002
   17.21972275  165.49400330    0.13000000    0.79000002
   17.22305679  156.45399475    0.13000000    0.79000002
   17.22611237  158.85800171    0.13000000    0.79000002
   17.22944450  152.49800110    0.13000000    0.79000002
   17.23388863  152.49800110    0.13000000    0.79000002
   17.23805618  160.64399719    0.13000000    0.79000002
   17.24138832  153.66499329    0.13000000    0.79000002
   17.24444389  148.32600403    0.13000000    0.79000002
   17.24777794  171.80999756    0.13000000    0.79000002
   17.25111198  168.78100586    0.13000000    0.79000002
   17.25416756  156.53399658    0.13000000    0.79000002
   17.25749969  152.87399292    0.13000000    0.79000002
   17.26083374  152.80200195    0.13000000    0.79000002
   17.26388931  148.25500488    0.13000000    0.79000002
   17.26861000  148.25500488    0.13000000    0.79000002
   17.27249908  162.30099487    0.13000000    0.79000002
   17.27583313  147.70399475    0.13000000    0.79000002
   17.27916718  158.42700195    0.13000000    0.79000002
   17.28222275  159.76100159    0.13000000    0.79000002
   17.28555489  144.33099365    0.13000000    0.79000002
   17.28888893  141.32400513    0.13000000    0.79000002
   17.29222107  160.49699402    0.13000000    0.79000002
   17.29555511  163.76199341    0.13000000    0.79000002
   17.29861069  168.06199646    0.13000000    0.79000002
   17.30305481  168.06199646    0.13000000    0.79000002
   17.30722237  152.16700745    0.13000000    0.79000002
   17.31027794  143.09700012    0.13000000    0.79000002
   17.31361008  139.11399841    0.13000000    0.79000002
   17.31666756  130.80999756    0.13000000    0.79000002
   17.32000160  138.98300171    0.13000000    0.79000002
   17.32333374  139.72500610    0.13000000    0.79000002
   17.32638931  147.17199707    0.13000000    0.79000002
   17.32972336  151.97200012    0.13000000    0.79000002
   17.33305550  153.52200317    0.13000000    0.79000002
   17.33750153  153.52200317    0.13000000    0.79000002
   17.34166718  151.87399292    0.13000000    0.79000002
   17.34500122  146.67900085    0.13000000    0.79000002
   17.34805679  163.33000183    0.13000000    0.79000002
   17.35138893  155.82800293    0.13000000    0.79000002
   17.35444450  147.37300110    0.13000000    0.79000002
   17.35777855  147.06100464    0.13000000    0.79000002
   17.36111069  155.33000183    0.13000000    0.79000002
   17.36416626  160.93800354    0.13000000    0.79000002
   17.36750031  150.91099548    0.13000000    0.79000002
   17.37194443  150.91099548    0.13000000    0.79000002
   17.37611198  150.53599548    0.13000000    0.79000002
   17.37944412  144.02999878    0.13000000    0.79000002
   17.38249969  153.54899597    0.13000000    0.79000002
   17.38583374  157.15499878    0.13000000    0.79000002
   17.38916588  143.41799927    0.13000000    0.79000002
   17.39222145  123.99700165    0.13000000    0.79000002
   17.39555550  163.47099304    0.13000000    0.79000002
   17.39861107  152.68699646    0.13000000    0.79000002
   17.40194321  151.25799561    0.13000000    0.79000002
   17.40638924  151.25799561    0.13000000    0.79000002
   17.41055489  156.25199890    0.13000000    0.79000002
   17.41388893  158.07899475    0.13000000    0.79000002
   17.41722107  154.83200073    0.13000000    0.79000002
   17.42027664  144.04800415    0.13000000    0.79000002
   17.42361069  154.97399902    0.13000000    0.79000002
   17.42666626  151.08900452    0.13000000    0.79000002
   17.43000031  148.97000122    0.13000000    0.79000002
   17.43333244  151.55200195    0.13000000    0.79000002
   17.43638802  143.11099243    0.13000000    0.79000002
   17.44111061  143.11099243    0.13000000    0.79000002
   17.44527626  150.64100647    0.13000000    0.79000002
   17.44833183  151.10800171    0.13000000    0.79000002
   17.45166779  161.13999939    0.13000000    0.79000002
   17.45472336  146.80599976    0.13000000    0.79000002
   17.45805550  148.61700439    0.13000000    0.79000002
   17.46138954  159.49299622    0.13000000    0.79000002
   17.46444511  167.05700684    0.13000000    0.79000002
   17.46777916  156.47900391    0.13000000    0.79000002
   17.47111130  168.99499512    0.13000000    0.79000002
   17.47555542  168.99499512    0.13000000    0.79000002
   17.47972298  165.93600464    0.13000000    0.79000002
   17.48277855  165.61099243    0.13000000    0.79000002
   17.48611069  171.57000732    0.13000000    0.79000002
   17.48944473  164.51100159    0.13000000    0.79000002
   17.49250031  172.28700256    0.13000000    0.79000002
   17.49583435  188.60800171    0.13000000    0.79000002
   17.49888992  170.45100403    0.13000000    0.79000002
   17.50222206  156.32299805    0.13000000    0.79000002
   17.50555611  175.14300537    0.13000000    0.79000002
   17.51000023  175.14300537    0.13000000    0.79000002
   17.51416588  155.78399658    0.13000000    0.79000002
   17.51749992  188.60800171    0.13000000    0.79000002
   17.52055550  161.03399658    0.13000000    0.79000002
   17.52388954  167.16200256    0.13000000    0.79000002
   17.52694511  166.97599792    0.13000000    0.79000002
   17.53027725  160.44400024    0.13000000    0.79000002
   17.53361130  150.58099365    0.13000000    0.79000002
   17.53666687  147.91799927    0.13000000    0.79000002
   17.54027748  166.57299805    0.13000000    0.79000002
   17.54444313  166.57299805    0.13000000    0.79000002
   17.54861069  175.02900696    0.13000000    0.79000002
   17.55194283  165.42700195    0.13000000    0.79000002
   17.55499840  157.01600647    0.13000000    0.79000002
   17.55833244  160.24699402    0.13000000    0.79000002
   17.56166649  177.46600342    0.13000000    0.79000002
   17.56472206  151.41099548    0.13000000    0.79000002
   17.56805611  171.06100464    0.13000000    0.79000002
   17.57139015  162.64500427    0.13000000    0.79000002
   17.57444572  167.23500061    0.13000000    0.79000002
   17.57916832  167.23500061    0.13000000    0.79000002
   17.58305550  155.89399719    0.13000000    0.79000002
   17.58638954  161.25900269    0.13000000    0.79000002
   17.58972359  143.68699646    0.13000000    0.79000002
   17.59277916  183.01199341    0.13000000    0.79000002
   17.59611130  157.44500732    0.13000000    0.79000002
   17.59944534  165.89700317    0.13000000    0.79000002
   17.60250092  163.82099915    0.13000000    0.79000002
   17.60583305  147.51499939    0.13000000    0.79000002
   17.60916710  159.38900757    0.13000000    0.79000002
   17.61361122  159.38900757    0.13000000    0.79000002
   17.61777878  158.49000549    0.13000000    0.79000002
   17.62083435  146.53100586    0.13000000    0.79000002
   17.62416649  159.01100159    0.13000000    0.79000002
   17.62750053  146.16799927    0.13000000    0.79000002
   17.63055611  163.78399658    0.13000000    0.79000002
   17.63388824  154.94700623    0.13000000    0.79000002
   17.63722229  144.19900513    0.13000000    0.79000002
   17.64027786  148.79100037    0.13000000    0.79000002
   17.64361191  139.00300598    0.13000000    0.79000002
   17.64805603  139.00300598    0.13000000    0.79000002
   17.65222168  165.01600647    0.13000000    0.79000002
   17.65555573  147.06300354    0.13000000    0.79000002
   17.65861130  150.16499329    0.13000000    0.79000002
   17.66194344  153.01400757    0.13000000    0.79000002
   17.66499901  143.16099548    0.13000000    0.79000002
   17.66833305  170.13200378    0.13000000    0.79000002
   17.67166519  160.55499268    0.13000000    0.79000002
   17.67472076  136.03500366    0.13000000    0.79000002
   17.67805481  155.50900269    0.13000000    0.79000002
   17.68249893  155.50900269    0.13000000    0.79000002
   17.68666649  147.61099243    0.13000000    0.79000002
   17.68999863  137.62699890    0.13000000    0.79000002
   17.69305420  140.85899353    0.13000000    0.79000002
   17.69638824  157.71499634    0.13000000    0.79000002
   17.69972038  146.18200684    0.13000000    0.79000002
   17.70277786  151.57400513    0.13000000    0.79000002
   17.70611191  182.29499817    0.13000000    0.79000002
   17.70944595  166.17700195    0.13000000    0.79000002
   17.71250153  174.68299866    0.13000000    0.79000002
   17.71694565  174.68299866    0.13000000    0.79000002
   17.72111130  163.38299561    0.13000000    0.79000002
   17.72444534  163.94900513    0.13000000    0.79000002
   17.72777748  164.42900085    0.13000000    0.79000002
   17.73083305  171.38699341    0.13000000    0.79000002
   17.73416710  149.54400635    0.13000000    0.79000002
   17.73722267  151.89199829    0.13000000    0.79000002
   17.74055672  162.48399353    0.13000000    0.79000002
   17.74388885  154.37600708    0.13000000    0.79000002
   17.74694443  150.50799561    0.13000000    0.79000002
   17.75166702  150.50799561    0.13000000    0.79000002
   17.75583267  165.38400269    0.13000000    0.79000002
   17.75888824  146.82499695    0.13000000    0.79000002
   17.76222229  134.92399597    0.13000000    0.79000002
   17.76527786  155.92399597    0.13000000    0.79000002
   17.76861000  148.83099365    0.13000000    0.79000002
   17.77194405  141.41999817    0.13000000    0.79000002
   17.77499962  160.13600159    0.13000000    0.79000002
   17.77833366  151.09800720    0.13000000    0.79000002
   17.78166580  130.05400085    0.13000000    0.79000002
   17.78610992  130.05400085    0.13000000    0.79000002
   17.79027748  151.00999451    0.13000000    0.79000002
   17.79333305  168.02400208    0.13000000    0.79000002
   17.79666710  142.90400696    0.13000000    0.79000002
   17.79999924  163.72500610    0.13000000    0.79000002
   17.80305481  162.22599792    0.13000000    0.79000002
   17.80638885  158.39199829    0.13000000    0.79000002
   17.80972099  170.07800293    0.13000000    0.79000002
   17.81277657  171.56799316    0.13000000    0.79000002
   17.81611061  149.71499634    0.13000000    0.79000002
   17.82055664  149.71499634    0.13000000    0.79000002
   17.82472229  162.92799377    0.13000000    0.79000002
   17.82805634  166.68600464    0.13000000    0.79000002
   17.83111191  151.94000244    0.13000000    0.79000002
   17.83444595  158.98699951    0.13000000    0.79000002
   17.83750153  175.26300049    0.13000000    0.79000002
   17.84083366  153.37699890    0.13000000    0.79000002
   17.84416771  160.66400146    0.13000000    0.79000002
   17.84722328  169.39300537    0.13000000    0.79000002
   17.85055542  167.30799866    0.13000000    0.79000002
   17.85499954  167.30799866    0.13000000    0.79000002
   17.85916710  164.28900146    0.13000000    0.79000002
   17.86250114  153.27299500    0.13000000    0.79000002
   17.86555672  145.13099670    0.13000000    0.79000002
   17.86888885  153.54200745    0.13000000    0.79000002
   17.87222290  151.54499817    0.13000000    0.79000002
   17.87527847  162.22700500    0.13000000    0.79000002
   17.87861061  154.91000366    0.13000000    0.79000002
   17.88166618  151.82299805    0.13000000    0.79000002
   17.88500023  171.47599792    0.13000000    0.79000002
   17.88972282  171.47599792    0.13000000    0.79000002
   17.89388847  171.36399841    0.13000000    0.79000002
   17.89694405  163.03700256    0.13000000    0.79000002
   17.90027809  160.49699402    0.13000000    0.79000002
   17.90333366  164.10699463    0.13000000    0.79000002
   17.90666580  180.87800598    0.13000000    0.79000002
   17.90999985  188.63699341    0.13000000    0.79000002
   17.91305542  164.25199890    0.13000000    0.79000002
   17.91638756  152.03500366    0.13000000    0.79000002
   17.91972160  171.75700378    0.13000000    0.79000002
   17.92416573  171.75700378    0.13000000    0.79000002
   17.92833328  174.54200745    0.13000000    0.79000002
   17.93138885  160.70199585    0.13000000    0.79000002
   17.93472099  156.14300537    0.13000000    0.79000002
   17.93777657  144.58999634    0.13000000    0.79000002
   17.94111061  147.03300476    0.13000000    0.79000002
   17.94444275  154.20899963    0.13000000    0.79000002
   17.94749832  153.89399719    0.13000000    0.79000002
   17.95083427  168.69999695    0.13000000    0.79000002
   17.95416832  152.69299316    0.13000000    0.79000002
   17.95861244  152.69299316    0.13000000    0.79000002
   17.96277809  155.20700073    0.13000000    0.79000002
   17.96583366  135.38099670    0.13000000    0.79000002
   17.96916771  152.00999451    0.13000000    0.79000002
   17.97249985  149.07499695    0.13000000    0.79000002
   17.97555542  164.25000000    0.13000000    0.79000002
   17.97888947  163.52200317    0.13000000    0.79000002
   17.98222351  163.78900146    0.13000000    0.79000002
   17.98527718  159.42100525    0.13000000    0.79000002
   17.98861122  155.31199646    0.13000000    0.79000002
   17.99305534  155.31199646    0.13000000    0.79000002
   17.99722290  155.63600159    0.13000000    0.79000002
   18.00055504  168.02600098    0.13000000    0.79000002
   18.00361061  155.00799561    0.13000000    0.79000002
   18.00694466  167.24699402    0.13000000    0.79000002
   18.01027870  140.30099487    0.13000000    0.79000002
   18.01333427  145.48699951    0.13000000    0.79000002
   18.01666641  149.21600342    0.13000000    0.79000002
   18.01972198  142.97000122    0.13000000    0.79000002
   18.04249954  142.97000122    0.13000000    0.79000002
   18.04666710  149.47799683    0.13000000    0.79000002
   18.04972076  149.22700500    0.13000000    0.79000002
   18.05305481  139.88499451    0.13000000    0.79000002
   18.05638885  144.36700439    0.13000000    0.79000002
   18.05944443  150.09700012    0.13000000    0.79000002
   18.06277657  154.93699646    0.13000000    0.79000002
   18.06583214  153.96699524    0.13000000    0.79000002
   18.06916809  155.09700012    0.13000000    0.79000002
   18.07250023  142.84199524    0.13000000    0.79000002
   18.07694626  142.84199524    0.13000000    0.79000002
   18.08111191  135.33799744    0.13000000    0.79000002
   18.08416748  153.20700073    0.13000000    0.79000002
   18.08750153  156.73500061    0.13000000    0.79000002
   18.09055710  154.82800293    0.13000000    0.79000002
   18.09388924  142.04899597    0.13000000    0.79000002
   18.09722328  141.53700256    0.13000000    0.79000002
   18.10027885  141.11099243    0.13000000    0.79000002
   18.10361099  140.87399292    0.13000000    0.79000002
   18.10694504  134.26499939    0.13000000    0.79000002
   18.11138916  134.26499939    0.13000000    0.79000002
   18.11555672  151.44500732    0.13000000    0.79000002
   18.11888885  146.44099426    0.13000000    0.79000002
   18.12194443  144.03500366    0.13000000    0.79000002
   18.12527847  137.89199829    0.13000000    0.79000002
   18.12833405  135.76899719    0.13000000    0.79000002
   18.13166618  148.68699646    0.13000000    0.79000002
   18.13500023  142.53500366    0.13000000    0.79000002
   18.13805580  145.91799927    0.13000000    0.79000002
   18.14138794  153.36500549    0.13000000    0.79000002
   18.14583397  153.36500549    0.13000000    0.79000002
   18.14999962  149.40800476    0.13000000    0.79000002
   18.15333366  139.37699890    0.13000000    0.79000002
   18.15638924  131.83799744    0.13000000    0.79000002
   18.15972137  144.92599487    0.13000000    0.79000002
   18.16305542  153.33599854    0.13000000    0.79000002
   18.16611099  153.07000732    0.13000000    0.79000002
   18.16944313  157.79699707    0.13000000    0.79000002
   18.17249870  163.90600586    0.13000000    0.79000002
   18.17583275  144.25799561    0.13000000    0.79000002
   18.18027687  144.25799561    0.13000000    0.79000002
   18.18444443  150.89700317    0.13000000    0.79000002
   18.18777657  137.73300171    0.13000000    0.79000002
   18.19111061  144.96600342    0.13000000    0.79000002
   18.19416618  154.24699402    0.13000000    0.79000002
   18.19749832  142.64100647    0.13000000    0.79000002
   18.20055580  159.90600586    0.13000000    0.79000002
   18.20388985  176.45700073    0.13000000    0.79000002
   18.20722389  147.99499512    0.13000000    0.79000002
   18.21027946  172.31399536    0.13000000    0.79000002
   18.21500015  172.31399536    0.13000000    0.79000002
   18.21888924  170.41299438    0.13000000    0.79000002
   18.22222328  155.27900696    0.13000000    0.79000002
   18.22555542  152.81599426    0.13000000    0.79000002
   18.22861099  142.10699463    0.13000000    0.79000002
   18.23194504  147.01899719    0.13000000    0.79000002
   18.23527718  162.35200500    0.13000000    0.79000002
   18.23833275  143.06399536    0.13000000    0.79000002
   18.24166679  154.22200012    0.13000000    0.79000002
   18.24500084  153.58399963    0.13000000    0.79000002
   18.24944496  153.58399963    0.13000000    0.79000002
   18.25361061  157.74299622    0.13000000    0.79000002
   18.25666618  151.89999390    0.13000000    0.79000002
   18.26000023  167.14799500    0.13000000    0.79000002
   18.26333427  131.54699707    0.13000000    0.79000002
   18.26638794  149.17999268    0.13000000    0.79000002
   18.26972198  145.03700256    0.13000000    0.79000002
   18.27277756  143.94700623    0.13000000    0.79000002
   18.27611160  144.77900696    0.13000000    0.79000002
   18.27944374  147.58500671    0.13000000    0.79000002
   18.28388786  147.58500671    0.13000000    0.79000002
   18.28805542  147.81100464    0.13000000    0.79000002
   18.29138756  152.28399658    0.13000000    0.79000002
   18.29444313  148.48500061    0.13000000    0.79000002
   18.29777718  158.57899475    0.13000000    0.79000002
   18.30083275  146.16000366    0.13000000    0.79000002
   18.30416679  149.85200500    0.13000000    0.79000002
   18.30749893  141.86700439    0.13000000    0.79000002
   18.31055450  126.31500244    0.13000000    0.79000002
   18.31388855  143.53700256    0.13000000    0.79000002
   18.31833458  143.53700256    0.13000000    0.79000002
   18.32250023  137.87899780    0.13000000    0.79000002
   18.32583427  133.87500000    0.13000000    0.79000002
   18.32916832  141.02600098    0.13000000    0.79000002
   18.33222389  129.35800171    0.13000000    0.79000002
   18.33555603  129.41499329    0.13000000    0.79000002
   18.33861160  136.56500244    0.13000000    0.79000002
   18.34194565  141.35699463    0.13000000    0.79000002
   18.34527779  130.46699524    0.13000000    0.79000002
   18.34833336  132.69900513    0.13000000    0.79000002
   18.35305595  132.69900513    0.13000000    0.79000002
   18.35694504  123.65399933    0.13000000    0.79000002
   18.36027908  131.57899475    0.13000000    0.79000002
   18.36361122  148.85000610    0.13000000    0.79000002
   18.36666679  148.31799316    0.13000000    0.79000002
   18.37000084  147.36300659    0.13000000    0.79000002
   18.37305641  143.37500000    0.13000000    0.79000002
   18.37638855  146.63999939    0.13000000    0.79000002
   18.37972260  141.13999939    0.13000000    0.79000002
   18.38277817  136.64700317    0.13000000    0.79000002
   18.38750076  136.64700317    0.13000000    0.79000002
   18.39166641  145.63999939    0.13000000    0.79000002
   18.39472198  138.79499817    0.13000000    0.79000002
   18.39805603  140.25100708    0.13000000    0.79000002
   18.40111160  139.59500122    0.13000000    0.79000002
   18.40444374  148.94700623    0.13000000    0.79000002
   18.40777779  156.35600281    0.13000000    0.79000002
   18.41083336  154.28199768    0.13000000    0.79000002
   18.41416550  143.51899719    0.13000000    0.79000002
   18.41749954  132.14300537    0.13000000    0.79000002
   18.42194366  132.14300537    0.13000000    0.79000002
   18.42611122  137.17199707    0.13000000    0.79000002
   18.42916679  139.64900208    0.13000000    0.79000002
   18.43249893  134.84100342    0.13000000    0.79000002
   18.43583298  130.64199829    0.13000000    0.79000002
   18.43888855  147.27200317    0.13000000    0.79000002
   18.44222069  150.81399536    0.13000000    0.79000002
   18.44555473  153.77200317    0.13000000    0.79000002
   18.44861031  168.55900574    0.13000000    0.79000002
   18.45194435  159.87899780    0.13000000    0.79000002
   18.45639038  159.87899780    0.13000000    0.79000002
   18.46055603  166.72399902    0.13000000    0.79000002
   18.46389008  173.67599487    0.13000000    0.79000002
   18.46694565  163.29200745    0.13000000    0.79000002
   18.47027779  162.02499390    0.13000000    0.79000002
   18.47361183  152.18299866    0.13000000    0.79000002
   18.47666740  162.15299988    0.13000000    0.79000002
   18.48000145  180.71200562    0.13000000    0.79000002
   18.48305511  150.57600403    0.13000000    0.79000002
   18.48638916  130.63999939    0.13000000    0.79000002
   18.49083328  130.63999939    0.13000000    0.79000002
   18.49500084  155.17100525    0.13000000    0.79000002
   18.49833298  168.40400696    0.13000000    0.79000002
   18.50166702  166.53500366    0.13000000    0.79000002
   18.50472260  168.61300659    0.13000000    0.79000002
   18.50805473  141.55000305    0.13000000    0.79000002
   18.51111031  139.18400574    0.13000000    0.79000002
   18.51444435  166.19900513    0.13000000    0.79000002
   18.51777840  160.61599731    0.13000000    0.79000002
   18.52083397  163.42500305    0.13000000    0.79000002
   18.52555466  163.42500305    0.13000000    0.79000002
   18.52944374  166.92199707    0.13000000    0.79000002
   18.53277779  157.77499390    0.13000000    0.79000002
   18.53610992  162.21200562    0.13000000    0.79000002
   18.53916550  153.74299622    0.13000000    0.79000002
   18.54249954  147.58700562    0.13000000    0.79000002
   18.54583359  173.45399475    0.13000000    0.79000002
   18.54888916  158.88000488    0.13000000    0.79000002
   18.55222130  144.81399536    0.13000000    0.79000002
   18.55527687  167.29299927    0.13000000    0.79000002
   18.55999947  167.29299927    0.13000000    0.79000002
   18.56416512  150.22399902    0.13000000    0.79000002
   18.56722260  158.55799866    0.13000000    0.79000002
   18.57055664  156.43299866    0.13000000    0.79000002
   18.57389069  165.93600464    0.13000000    0.79000002
   18.57694626  158.35099792    0.13000000    0.79000002
   18.58027840  158.55400085    0.13000000    0.79000002
   18.58361244  148.86399841    0.13000000    0.79000002
   18.58666801  165.51300049    0.13000000    0.79000002
   18.59000015  158.39100647    0.13000000    0.79000002
   18.59444427  158.39100647    0.13000000    0.79000002
   18.59861183  151.74499512    0.13000000    0.79000002
   18.60194397  133.84199524    0.13000000    0.79000002
   18.60499954  149.69500732    0.13000000    0.79000002
   18.60833359  155.08599854    0.13000000    0.79000002
   18.61138916  161.36000061    0.13000000    0.79000002
   18.61472321  156.26899719    0.13000000    0.79000002
   18.61805534  167.42900085    0.13000000    0.79000002
   18.62111092  147.10699463    0.13000000    0.79000002
   18.62444496  159.52200317    0.13000000    0.79000002
   18.62888908  159.52200317    0.13000000    0.79000002
   18.63305473  154.46000671    0.13000000    0.79000002
   18.63638878  168.15199280    0.13000000    0.79000002
   18.63944435  154.65899658    0.13000000    0.79000002
   18.64277840  175.86399841    0.13000000    0.79000002
   18.64611053  167.98399353    0.13000000    0.79000002
   18.64916611  160.01800537    0.13000000    0.79000002
   18.65250015  184.71200562    0.13000000    0.79000002
   18.65583229  185.27699280    0.13000000    0.79000002
   18.65888786  177.19299316    0.13000000    0.79000002
   18.66361046  177.19299316    0.13000000    0.79000002
   18.66749954  178.89599609    0.13000000    0.79000002
   18.67083359  173.95500183    0.13000000    0.79000002
   18.67416573  166.04499817    0.13000000    0.79000002
   18.67722130  161.63900757    0.13000000    0.79000002
   18.68055534  152.50399780    0.13000000    0.79000002
   18.68388748  156.99000549    0.13000000    0.79000002
   18.68694305  155.82200623    0.13000000    0.79000002
   18.69027710  160.17199707    0.13000000    0.79000002
   18.69333267  154.85800171    0.13000000    0.79000002
   18.69805527  154.85800171    0.13000000    0.79000002
   18.70222282  142.57499695    0.13000000    0.79000002
   18.70527840  149.07200623    0.13000000    0.79000002
   18.70861244  154.47799683    0.13000000    0.79000002
   18.71166801  147.59300232    0.13000000    0.79000002
   18.71500015  152.99400330    0.13000000    0.79000002
   18.71833420  149.71899414    0.13000000    0.79000002
   18.72138977  151.38600159    0.13000000    0.79000002
   18.72472191  140.29400635    0.13000000    0.79000002
   18.72805595  151.78999329    0.13000000    0.79000002
   18.73250008  151.78999329    0.13000000    0.79000002
   18.73666763  136.66799927    0.13000000    0.79000002
   18.73972321  148.47799683    0.13000000    0.79000002
   18.74305534  145.05900574    0.13000000    0.79000002
   18.74638939  142.70100403    0.13000000    0.79000002
   18.74944496  136.08799744    0.13000000    0.79000002
   18.75277710  139.92599487    0.13000000    0.79000002
   18.75611115  144.57400513    0.13000000    0.79000002
   18.75916672  151.84800720    0.13000000    0.79000002
   18.76250076  140.76199341    0.13000000    0.79000002
   18.76694489  140.76199341    0.13000000    0.79000002
   18.77111053  133.68600464    0.13000000    0.79000002
   18.77444458  136.77099609    0.13000000    0.79000002
   18.77750015  129.71000671    0.13000000    0.79000002
   18.78083229  141.03500366    0.13000000    0.79000002
   18.78416634  136.25500488    0.13000000    0.79000002
   18.78722191  136.02999878    0.13000000    0.79000002
   18.79055595  132.08099365    0.13000000    0.79000002
   18.79361153  133.13999939    0.13000000    0.79000002
   18.79694366  137.66600037    0.13000000    0.79000002
   18.80138779  137.66600037    0.13000000    0.79000002
   18.80555534  137.55799866    0.13000000    0.79000002
   18.80888748  135.49200439    0.13000000    0.79000002
   18.81222153  133.20500183    0.13000000    0.79000002
   18.81527710  145.59199524    0.13000000    0.79000002
   18.81861115  145.18699646    0.13000000    0.79000002
   18.82166672  139.96699524    0.13000000    0.79000002
   18.82500076  140.84100342    0.13000000    0.79000002
   18.82833481  140.63800049    0.13000000    0.79000002
   18.83139038  131.85600281    0.13000000    0.79000002
   18.83611107  131.85600281    0.13000000    0.79000002
   18.84027863  136.73300171    0.13000000    0.79000002
   18.84333420  141.94400024    0.13000000    0.79000002
   18.84666824  134.70399475    0.13000000    0.79000002
   18.84972191  140.54800415    0.13000000    0.79000002
   18.85305595  148.08799744    0.13000000    0.79000002
   18.85639000  142.41900635    0.13000000    0.79000002
   18.85944557  144.01300049    0.13000000    0.79000002
   18.86277771  141.75799561    0.13000000    0.79000002
   18.86611176  144.99200439    0.13000000    0.79000002
   18.87055588  144.99200439    0.13000000    0.79000002
   18.87472153  132.15299988    0.13000000    0.79000002
   18.87777710  147.94099426    0.13000000    0.79000002
   18.88111115  137.54100037    0.13000000    0.79000002
   18.88444519  139.75100708    0.13000000    0.79000002
   18.88750076  128.00100708    0.13000000    0.79000002
   18.89083290  125.13800049    0.13000000    0.79000002
   18.89416695  135.63999939    0.13000000    0.79000002
   18.89722252  147.39700317    0.13000000    0.79000002
   18.90055466  134.50500488    0.13000000    0.79000002
   18.90499878  134.50500488    0.13000000    0.79000002
   18.90916634  128.19400024    0.13000000    0.79000002
   18.91250038  141.50900269    0.13000000    0.79000002
   18.91555595  137.39999390    0.13000000    0.79000002
   18.91888809  133.35000610    0.13000000    0.79000002
   18.92222214  145.46600342    0.13000000    0.79000002
   18.92527771  140.02600098    0.13000000    0.79000002
   18.92860985  137.46899414    0.13000000    0.79000002
   18.93166542  151.04899597    0.13000000    0.79000002
   18.93499947  137.39399719    0.13000000    0.79000002
   18.93944359  137.39399719    0.13000000    0.79000002
   18.94361115  138.16900635    0.13000000    0.79000002
   18.94694328  138.32299805    0.13000000    0.79000002
   18.95000076  126.42400360    0.13000000    0.79000002
   18.95333481  129.25199890    0.13000000    0.79000002
   18.95666695  120.72000122    0.13000000    0.79000002
   18.95972252  141.51300049    0.13000000    0.79000002
   18.96305656  124.96299744    0.13000000    0.79000002
   18.96638870  122.57599640    0.13000000    0.79000002
   18.96944427  127.77200317    0.13000000    0.79000002
   18.97416687  127.77200317    0.13000000    0.79000002
   18.97805595  123.34600067    0.13000000    0.79000002
   18.98139000  126.42600250    0.13000000    0.79000002
   18.98472214  133.96899414    0.13000000    0.79000002
   18.98777771  124.52300262    0.13000000    0.79000002
   18.99111176  139.79400635    0.13000000    0.79000002
   18.99444389  129.30099487    0.13000000    0.79000002
   18.99749947  131.07899475    0.13000000    0.79000002
   19.00083351  125.44599915    0.13000000    0.79000002
   19.00388908  124.89199829    0.13000000    0.79000002
   19.00861168  124.89199829    0.13000000    0.79000002
   19.01277733  123.78299713    0.13000000    0.79000002
   19.01583290  140.53300476    0.13000000    0.79000002
   19.01916695  129.94200134    0.13000000    0.79000002
   19.02249908  128.27200317    0.13000000    0.79000002
   19.02555466  130.28100586    0.13000000    0.79000002
   19.02888870  133.15699768    0.13000000    0.79000002
   19.03194427  125.34300232    0.13000000    0.79000002
   19.03527641  133.45300293    0.13000000    0.79000002
   19.03861046  126.36499786    0.13000000    0.79000002
   19.05916595  126.36499786    0.13000000    0.79000002
   19.06333351  126.59200287    0.13000000    0.79000002
   19.06638718  122.78500366    0.13000000    0.79000002
   19.06972313  124.85299683    0.13000000    0.79000002
   19.07305717  133.07299805    0.13000000    0.79000002
   19.07611275  115.65399933    0.13000000    0.79000002
   19.07944489  126.08699799    0.13000000    0.79000002
   19.08277893  126.99800110    0.13000000    0.79000002
   19.08583450  120.43199921    0.13000000    0.79000002
   19.08916664  127.08699799    0.13000000    0.79000002
   19.09361267  127.08699799    0.13000000    0.79000002
   19.09777832  118.30000305    0.13000000    0.79000002
   19.10083389  120.31300354    0.13000000    0.79000002
   19.10416794  120.83000183    0.13000000    0.79000002
   19.10750008  142.32699585    0.13000000    0.79000002
   19.11055565  128.01800537    0.13000000    0.79000002
   19.11388969  142.33500671    0.13000000    0.79000002
   19.11722183  113.96299744    0.13000000    0.79000002
   19.12027740  128.42100525    0.13000000    0.79000002
   19.12361145  122.59100342    0.13000000    0.79000002
   19.12805557  122.59100342    0.13000000    0.79000002
   19.13222313  122.66400146    0.13000000    0.79000002
   19.13555527  135.86999512    0.13000000    0.79000002
   19.13861084  125.72200012    0.13000000    0.79000002
   19.14194489  122.88500214    0.13000000    0.79000002
   19.14500046  114.15499878    0.13000000    0.79000002
   19.14833260  117.12400055    0.13000000    0.79000002
   19.15166664  122.56500244    0.13000000    0.79000002
   19.15472221  113.80300140    0.13000000    0.79000002
   19.15805435  114.65599823    0.13000000    0.79000002
   19.16250038  114.65599823    0.13000000    0.79000002
   19.16666603  116.02899933    0.13000000    0.79000002
   19.17000008  117.85600281    0.13000000    0.79000002
   19.17333221  112.35299683    0.13000000    0.79000002
   19.17638779  113.47000122    0.13000000    0.79000002
   19.17972183  113.63200378    0.13000000    0.79000002
   19.18277740  118.57800293    0.13000000    0.79000002
   19.18610954  122.30400085    0.13000000    0.79000002
   19.18944359  129.79899597    0.13000000    0.79000002
   19.19249916  120.72299957    0.13000000    0.79000002
   19.19722176  120.72299957    0.13000000    0.79000002
   19.20111275  117.42900085    0.13000000    0.79000002
   19.20444489  129.32400513    0.13000000    0.79000002
   19.20777893  123.43099976    0.13000000    0.79000002
   19.21083450  121.70500183    0.13000000    0.79000002
   19.21416664  130.42799377    0.13000000    0.79000002
   19.21750069  120.04699707    0.13000000    0.79000002
   19.22055626  119.29100037    0.13000000    0.79000002
   19.22389030  117.08200073    0.13000000    0.79000002
   19.22694588  119.63700104    0.13000000    0.79000002
   19.23166656  119.63700104    0.13000000    0.79000002
   19.23583412  124.06300354    0.13000000    0.79000002
   19.23888969  126.73600006    0.13000000    0.79000002
   19.24222183  123.87999725    0.13000000    0.79000002
   19.24527740  124.77600098    0.13000000    0.79000002
   19.24861145  134.15899658    0.13000000    0.79000002
   19.25194359  117.42800140    0.13000000    0.79000002
   19.25499916  117.77200317    0.13000000    0.79000002
   19.25833321  122.92500305    0.13000000    0.79000002
   19.26166725  130.50199890    0.13000000    0.79000002
   19.26611137  130.50199890    0.13000000    0.79000002
   19.27027702  130.38900757    0.13000000    0.79000002
   19.27333260  126.46299744    0.13000000    0.79000002
   19.27666664  129.08000183    0.13000000    0.79000002
   19.28000069  131.71800232    0.13000000    0.79000002
   19.28305435  126.12699890    0.13000000    0.79000002
   19.28638840  108.57199860    0.13000000    0.79000002
   19.28972244  118.45300293    0.13000000    0.79000002
   19.29277802  131.35800171    0.13000000    0.79000002
   19.29611015  123.93099976    0.13000000    0.79000002
   19.30055428  123.93099976    0.13000000    0.79000002
   19.30472183  120.10399628    0.13000000    0.79000002
   19.30805397  120.64600372    0.13000000    0.79000002
   19.31110954  123.90200043    0.13000000    0.79000002
   19.31444359  120.34700012    0.13000000    0.79000002
   19.31777954  123.28199768    0.13000000    0.79000002
   19.32083511  124.84799957    0.13000000    0.79000002
   19.32416725  119.02600098    0.13000000    0.79000002
   19.32750130  128.02200317    0.13000000    0.79000002
   19.33055687  128.47999573    0.13000000    0.79000002
   19.33500099  128.47999573    0.13000000    0.79000002
   19.33916664  132.64100647    0.13000000    0.79000002
   19.34250069  127.49800110    0.13000000    0.79000002
   19.34583473  118.05200195    0.13000000    0.79000002
   19.34889030  119.95800018    0.13000000    0.79000002
   19.35222244  126.49500275    0.13000000    0.79000002
   19.35555649  116.26100159    0.13000000    0.79000002
   19.35888863  121.55500031    0.13000000    0.79000002
   19.36194420  126.24700165    0.13000000    0.79000002
   19.36527824  115.27400208    0.13000000    0.79000002
   19.36972237  115.27400208    0.13000000    0.79000002
   19.37388992  119.19499969    0.13000000    0.79000002
   19.37694550  124.56800079    0.13000000    0.79000002
   19.38027763  127.22299957    0.13000000    0.79000002
   19.38361168  123.13600159    0.13000000    0.79000002
   19.38666725  121.53900146    0.13000000    0.79000002
   19.38999939  117.86000061    0.13000000    0.79000002
   19.39305496  124.56400299    0.13000000    0.79000002
   19.39638901  122.91699982    0.13000000    0.79000002
   19.39972115  126.55699921    0.13000000    0.79000002
   19.40416718  126.55699921    0.13000000    0.79000002
   19.40833282  119.07900238    0.13000000    0.79000002
   19.41138840  121.06400299    0.13000000    0.79000002
   19.41472244  112.47399902    0.13000000    0.79000002
   19.41805458  121.55999756    0.13000000    0.79000002
   19.42111015  123.87200165    0.13000000    0.79000002
   19.42444420  121.64399719    0.13000000    0.79000002
   19.42749977  119.44400024    0.13000000    0.79000002
   19.43083191  121.22299957    0.13000000    0.79000002
   19.43416595  125.07099915    0.13000000    0.79000002
   19.43861008  125.07099915    0.13000000    0.79000002
   19.44277763  128.85600281    0.13000000    0.79000002
   19.44610977  126.09600067    0.13000000    0.79000002
   19.44916534  124.15699768    0.13000000    0.79000002
   19.45250130  124.16999817    0.13000000    0.79000002
   19.45583344  129.44400024    0.13000000    0.79000002
   19.45888901  122.14600372    0.13000000    0.79000002
   19.46222305  125.62000275    0.13000000    0.79000002
   19.46527863  123.24600220    0.13000000    0.79000002
   19.46861076  125.81700134    0.13000000    0.79000002
   19.47305679  125.81700134    0.13000000    0.79000002
   19.47722244  117.41000366    0.13000000    0.79000002
   19.48055649  122.10099792    0.13000000    0.79000002
   19.48361206  118.25299835    0.13000000    0.79000002
   19.48694420  129.73500061    0.13000000    0.79000002
   19.49027824  124.34500122    0.13000000    0.79000002
   19.49333382  120.53500366    0.13000000    0.79000002
   19.49666786  121.73400116    0.13000000    0.79000002
   19.50000000  125.20700073    0.13000000    0.79000002
   19.50305557  122.15799713    0.13000000    0.79000002
   19.50777817  122.15799713    0.13000000    0.79000002
   19.51166725  118.23100281    0.13000000    0.79000002
   19.51499939  122.94799805    0.13000000    0.79000002
   19.51833344  145.04400635    0.13000000    0.79000002
   19.52138901  124.00900269    0.13000000    0.79000002
   19.52472115  124.40599823    0.13000000    0.79000002
   19.52805519  125.08499908    0.13000000    0.79000002
   19.53111076  121.32900238    0.13000000    0.79000002
   19.53444481  136.67199707    0.13000000    0.79000002
   19.53777695  128.28900146    0.13000000    0.79000002
   19.54222107  128.28900146    0.13000000    0.79000002
   19.54638863  134.25700378    0.13000000    0.79000002
   19.54944420  120.48999786    0.13000000    0.79000002
   19.55277634  127.30200195    0.13000000    0.79000002
   19.55611038  118.19400024    0.13000000    0.79000002
   19.55916595  119.10500336    0.13000000    0.79000002
   19.56250000  118.43000031    0.13000000    0.79000002
   19.56555557  118.18800354    0.13000000    0.79000002
   19.56888962  124.77300262    0.13000000    0.79000002
   19.57222366  122.90599823    0.13000000    0.79000002
   19.57666779  122.90599823    0.13000000    0.79000002
   19.58083344  119.76100159    0.13000000    0.79000002
   19.58388901  126.86900330    0.13000000    0.79000002
   19.58722305  126.55599976    0.13000000    0.79000002
   19.59055710  134.36999512    0.13000000    0.79000002
   19.59361267  124.26899719    0.13000000    0.79000002
   19.59694481  123.91600037    0.13000000    0.79000002
   19.60027885  120.15899658    0.13000000    0.79000002
   19.60333443  147.39199829    0.13000000    0.79000002
   19.60666656  118.13400269    0.13000000    0.79000002
   19.61111069  118.13400269    0.13000000    0.79000002
   19.61527824  124.40599823    0.13000000    0.79000002
   19.61861038  118.53500366    0.13000000    0.79000002
   19.62166595  128.30599976    0.13000000    0.79000002
   19.62500000  124.36299896    0.13000000    0.79000002
   19.62833405  128.17199707    0.13000000    0.79000002
   19.63138962  117.39800262    0.13000000    0.79000002
   19.63472176  123.18299866    0.13000000    0.79000002
   19.63777733  131.92100525    0.13000000    0.79000002
   19.64111137  129.74299622    0.13000000    0.79000002
   19.64555550  129.74299622    0.13000000    0.79000002
   19.64972115  124.30799866    0.13000000    0.79000002
   19.65305519  116.74400330    0.13000000    0.79000002
   19.65638924  122.52799988    0.13000000    0.79000002
   19.65944481  118.91300201    0.13000000    0.79000002
   19.66277695  117.55500031    0.13000000    0.79000002
   19.66583252  124.53500366    0.13000000    0.79000002
   19.66916656  122.25299835    0.13000000    0.79000002
   19.67249870  127.01599884    0.13000000    0.79000002
   19.67555428  118.08300018    0.13000000    0.79000002
   19.68027687  118.08300018    0.13000000    0.79000002
   19.68444443  120.15000153    0.13000000    0.79000002
   19.68750000  124.50900269    0.13000000    0.79000002
   19.69083214  118.65599823    0.13000000    0.79000002
   19.69388771  123.01499939    0.13000000    0.79000002
   19.69722176  126.75900269    0.13000000    0.79000002
   19.70055580  120.25099945    0.13000000    0.79000002
   19.70361137  124.76499939    0.13000000    0.79000002
   19.70694542  134.99899292    0.13000000    0.79000002
   19.71027946  122.05799866    0.13000000    0.79000002
   19.71472359  122.05799866    0.13000000    0.79000002
   19.71888924  126.31500244    0.13000000    0.79000002
   19.72194481  118.39600372    0.13000000    0.79000002
   19.72527885  133.54800415    0.13000000    0.79000002
   19.72861099  120.71299744    0.13000000    0.79000002
   19.73166656  123.58100128    0.13000000    0.79000002
   19.73500061  121.91200256    0.13000000    0.79000002
   19.73833275  116.43900299    0.13000000    0.79000002
   19.74138832  124.47399902    0.13000000    0.79000002
   19.74472237  127.86499786    0.13000000    0.79000002
   19.74916649  127.86499786    0.13000000    0.79000002
   19.75333405  126.15699768    0.13000000    0.79000002
   19.75666618  128.57600403    0.13000000    0.79000002
   19.75972176  122.79900360    0.13000000    0.79000002
   19.76305580  122.58300018    0.13000000    0.79000002
   19.76638794  127.59400177    0.13000000    0.79000002
   19.76944351  123.44100189    0.13000000    0.79000002
   19.77277756  126.80999756    0.13000000    0.79000002
   19.77583313  126.89800262    0.13000000    0.79000002
   19.77916718  126.97100067    0.13000000    0.79000002
   19.78361130  126.97100067    0.13000000    0.79000002
   19.78777695  124.59799957    0.13000000    0.79000002
   19.79111099  121.46399689    0.13000000    0.79000002
   19.79444313  121.30500031    0.13000000    0.79000002
   19.79749870  125.32399750    0.13000000    0.79000002
   19.80083275  126.43900299    0.13000000    0.79000002
   19.80388832  128.70300293    0.13000000    0.79000002
   19.80722237  130.32899475    0.13000000    0.79000002
   19.81055450  125.99400330    0.13000000    0.79000002
   19.81361008  127.76899719    0.13000000    0.79000002
   19.81833458  127.76899719    0.13000000    0.79000002
   19.82250023  135.53199768    0.13000000    0.79000002
   19.82555580  124.08799744    0.13000000    0.79000002
   19.82888985  134.99899292    0.13000000    0.79000002
   19.83194542  131.52299500    0.13000000    0.79000002
   19.83527756  129.00700378    0.13000000    0.79000002
   19.83861160  131.81599426    0.13000000    0.79000002
   19.84166718  130.56300354    0.13000000    0.79000002
   19.84500122  130.60800171    0.13000000    0.79000002
   19.84833336  140.70199585    0.13000000    0.79000002
   19.85277748  140.70199585    0.13000000    0.79000002
   19.85694504  132.61300659    0.13000000    0.79000002
   19.86000061  125.95300293    0.13000000    0.79000002
   19.86333466  127.17700195    0.13000000    0.79000002
   19.86666679  130.41299438    0.13000000    0.79000002
   19.86972237  128.94299316    0.13000000    0.79000002
   19.87305641  124.84899902    0.13000000    0.79000002
   19.87638855  119.89800262    0.13000000    0.79000002
   19.87944412  129.71400452    0.13000000    0.79000002
   19.88277817  127.90699768    0.13000000    0.79000002
   19.88722229  127.90699768    0.13000000    0.79000002
   19.89138794  124.43199921    0.13000000    0.79000002
   19.89472198  126.74400330    0.13000000    0.79000002
   19.89777756  127.37799835    0.13000000    0.79000002
   19.90111160  134.43499756    0.13000000    0.79000002
   19.90416718  129.16400146    0.13000000    0.79000002
   19.90749931  130.49000549    0.13000000    0.79000002
   19.91083336  121.46700287    0.13000000    0.79000002
   19.91388893  128.45599365    0.13000000    0.79000002
   19.91722107  128.14199829    0.13000000    0.79000002
   19.92166519  128.14199829    0.13000000    0.79000002
   19.92583275  126.70899963    0.13000000    0.79000002
   19.92916679  115.31400299    0.13000000    0.79000002
   19.93222237  131.40800476    0.13000000    0.79000002
   19.93555450  119.18299866    0.13000000    0.79000002
   19.93888855  128.72399902    0.13000000    0.79000002
   19.94194412  126.52300262    0.13000000    0.79000002
   19.94527626  129.61700439    0.13000000    0.79000002
   19.94861031  130.98100281    0.13000000    0.79000002
   19.95166779  120.53199768    0.13000000    0.79000002
   19.95639038  120.53199768    0.13000000    0.79000002
   19.96027946  121.24500275    0.13000000    0.79000002
   19.96361160  127.86699677    0.13000000    0.79000002
   19.96694565  125.35299683    0.13000000    0.79000002
   19.97000122  120.71800232    0.13000000    0.79000002
   19.97333336  119.52600098    0.13000000    0.79000002
   19.97666740  123.48899841    0.13000000    0.79000002
   19.97972298  121.01599884    0.13000000    0.79000002
   19.98305511  116.94599915    0.13000000    0.79000002
   19.98611069  126.59600067    0.13000000    0.79000002
   19.99083328  126.59600067    0.13000000    0.79000002
   19.99500084  118.11199951    0.13000000    0.79000002
   19.99805641  115.35600281    0.13000000    0.79000002
   20.00138855  116.73899841    0.13000000    0.79000002
   20.00444412  115.51799774    0.13000000    0.79000002
   20.00777817  113.89900208    0.13000000    0.79000002
   20.01111031  118.87699890    0.13000000    0.79000002
   20.01416588  117.70099640    0.13000000    0.79000002
   20.01749992  123.86699677    0.13000000    0.79000002
   20.02083397  114.27899933    0.13000000    0.79000002
   20.02527809  114.27899933    0.13000000    0.79000002
   20.02944374  128.63600159    0.13000000    0.79000002
   20.03249931  126.93599701    0.13000000    0.79000002
   20.03583336  122.17600250    0.13000000    0.79000002
   20.03916550  123.83699799    0.13000000    0.79000002
   20.04222107  123.44300079    0.13000000    0.79000002
   20.04555511  123.33899689    0.13000000    0.79000002
   20.04888916  122.41400146    0.13000000    0.79000002
   20.05194283  120.53399658    0.13000000    0.79000002
   20.05527687  117.27899933    0.13000000    0.79000002
   20.07583427  117.27899933    0.13000000    0.79000002
   20.08000183  128.54899597    0.13000000    0.79000002
   20.08333397  122.54699707    0.13000000    0.79000002
   20.08638954  130.51600647    0.13000000    0.79000002
   20.08972359  128.44299316    0.13000000    0.79000002
   20.09305573  123.28299713    0.13000000    0.79000002
   20.09611130  127.06600189    0.13000000    0.79000002
   20.09944534  122.76899719    0.13000000    0.79000002
   20.10277748  128.03100586    0.13000000    0.79000002
   20.10583305  122.17900085    0.13000000    0.79000002
   20.11027908  122.17900085    0.13000000    0.79000002
   20.11444473  125.44799805    0.13000000    0.79000002
   20.11777878  133.21800232    0.13000000    0.79000002
   20.12083435  132.35099792    0.13000000    0.79000002
   20.12416649  125.81400299    0.13000000    0.79000002
   20.12722206  119.46600342    0.13000000    0.79000002
   20.13055611  122.78600311    0.13000000    0.79000002
   20.13388824  119.06700134    0.13000000    0.79000002
   20.13694382  120.31199646    0.13000000    0.79000002
   20.14027786  116.83300018    0.13000000    0.79000002
   20.14472198  116.83300018    0.13000000    0.79000002
   20.14888954  122.78099823    0.13000000    0.79000002
   20.15222168  120.74199677    0.13000000    0.79000002
   20.15527725  113.75599670    0.13000000    0.79000002
   20.15861130  129.64399719    0.13000000    0.79000002
   20.16194344  120.84300232    0.13000000    0.79000002
   20.16499901  121.26300049    0.13000000    0.79000002
   20.16833305  131.65600586    0.13000000    0.79000002
   20.17166519  117.46800232    0.13000000    0.79000002
   20.17472076  108.73000336    0.13000000    0.79000002
   20.17944336  108.73000336    0.13000000    0.79000002
   20.18333244  131.74000549    0.13000000    0.79000002
   20.18666649  126.19599915    0.13000000    0.79000002
   20.18999863  152.33500671    0.13000000    0.79000002
   20.19305420  133.74200439    0.13000000    0.79000002
   20.19638824  132.62800598    0.13000000    0.79000002
   20.19972038  135.92300415    0.13000000    0.79000002
   20.20277786  131.23899841    0.13000000    0.79000002
   20.20611191  155.54800415    0.13000000    0.79000002
   20.20916748  129.84800720    0.13000000    0.79000002
   20.21389008  129.84800720    0.13000000    0.79000002
   20.21805573  123.48600006    0.13000000    0.79000002
   20.22111130  122.93299866    0.13000000    0.79000002
   20.22444534  118.89299774    0.13000000    0.79000002
   20.22777748  130.22799683    0.13000000    0.79000002
   20.23083305  130.75599670    0.13000000    0.79000002
   20.23416710  140.81300354    0.13000000    0.79000002
   20.23722267  131.28700256    0.13000000    0.79000002
   20.24055672  159.67799377    0.13000000    0.79000002
   20.24388885  148.25100708    0.13000000    0.79000002
   20.24833298  148.25100708    0.13000000    0.79000002
   20.25250053  199.96000671    0.13000000    0.79000002
   20.25583267  149.54299927    0.13000000    0.79000002
   20.25888824  156.97799683    0.13000000    0.79000002
   20.26222229  198.67900085    0.13000000    0.79000002
   20.26527786  154.89900208    0.13000000    0.79000002
   20.26861000  173.32200623    0.13000000    0.79000002
   20.27194405  166.62899780    0.13000000    0.79000002
   20.27499962  160.58200073    0.13000000    0.79000002
   20.27833366  123.02999878    0.13000000    0.79000002
   20.28277779  123.02999878    0.13000000    0.79000002
   20.28694344  124.23200226    0.13000000    0.79000002
   20.29027748  131.64199829    0.13000000    0.79000002
   20.29333305  134.73500061    0.13000000    0.79000002
   20.29666710  124.79799652    0.13000000    0.79000002
   20.29999924  129.06300354    0.13000000    0.79000002
   20.30305481  130.55700684    0.13000000    0.79000002
   20.30638885  117.06400299    0.13000000    0.79000002
   20.30972099  128.74099731    0.13000000    0.79000002
   20.31277657  122.77799988    0.13000000    0.79000002
   20.31722260  122.77799988    0.13000000    0.79000002
   20.32139015  116.08599854    0.13000000    0.79000002
   20.32472229  124.18399811    0.13000000    0.79000002
   20.32805634  135.40699768    0.13000000    0.79000002
   20.33111191  123.02700043    0.13000000    0.79000002
   20.33444595  144.24800110    0.13000000    0.79000002
   20.33750153  121.45099640    0.13000000    0.79000002
   20.34083366  147.65299988    0.13000000    0.79000002
   20.34416771  139.73899841    0.13000000    0.79000002
   20.34722328  143.04499817    0.13000000    0.79000002
   20.35194397  143.04499817    0.13000000    0.79000002
   20.35611153  136.61399841    0.13000000    0.79000002
   20.35916710  134.04299927    0.13000000    0.79000002
   20.36250114  143.66299438    0.13000000    0.79000002
   20.36555672  129.68600464    0.13000000    0.79000002
   20.36888885  128.64799500    0.13000000    0.79000002
   20.37222290  140.68600464    0.13000000    0.79000002
   20.37527847  121.68199921    0.13000000    0.79000002
   20.37861061  120.42900085    0.13000000    0.79000002
   20.38194466  140.54600525    0.13000000    0.79000002
   20.38638878  140.54600525    0.13000000    0.79000002
   20.39055634  129.86799622    0.13000000    0.79000002
   20.39361191  141.48699951    0.13000000    0.79000002
   20.39694405  119.45600128    0.13000000    0.79000002
   20.40027809  144.02699280    0.13000000    0.79000002
   20.40333366  140.52200317    0.13000000    0.79000002
   20.40666580  121.52700043    0.13000000    0.79000002
   20.40999985  128.81100464    0.13000000    0.79000002
   20.41305542  142.62100220    0.13000000    0.79000002
   20.41638756  141.90400696    0.13000000    0.79000002
   20.42083359  141.90400696    0.13000000    0.79000002
   20.42499924  119.93800354    0.13000000    0.79000002
   20.42833328  151.72399902    0.13000000    0.79000002
   20.43138885  138.59300232    0.13000000    0.79000002
   20.43472099  140.11599731    0.13000000    0.79000002
   20.43777657  122.49900055    0.13000000    0.79000002
   20.44111061  121.99500275    0.13000000    0.79000002
   20.44444275  138.21000671    0.13000000    0.79000002
   20.44749832  123.99900055    0.13000000    0.79000002
   20.45083427  121.56300354    0.13000000    0.79000002
   20.45527840  121.56300354    0.13000000    0.79000002
   20.45944595  120.36499786    0.13000000    0.79000002
   20.46277809  134.10699463    0.13000000    0.79000002
   20.46583366  130.85099792    0.13000000    0.79000002
   20.46916771  130.56399536    0.13000000    0.79000002
   20.47249985  149.90299988    0.13000000    0.79000002
   20.47555542  139.91600037    0.13000000    0.79000002
   20.47888947  129.25500488    0.13000000    0.79000002
   20.48222351  135.55700684    0.13000000    0.79000002
   20.48527718  137.10699463    0.13000000    0.79000002
   20.48999977  137.10699463    0.13000000    0.79000002
   20.49388885  117.93499756    0.13000000    0.79000002
   20.49722290  123.21099854    0.13000000    0.79000002
   20.50055504  127.15399933    0.13000000    0.79000002
   20.50361061  114.95800018    0.13000000    0.79000002
   20.50694466  129.71499634    0.13000000    0.79000002
   20.51027870  117.12400055    0.13000000    0.79000002
   20.51333427  120.19100189    0.13000000    0.79000002
   20.51666641  128.86900330    0.13000000    0.79000002
   20.51972198  122.64099884    0.13000000    0.79000002
   20.52444458  122.64099884    0.13000000    0.79000002
   20.52861023  115.51000214    0.13000000    0.79000002
   20.53166580  115.67700195    0.13000000    0.79000002
   20.53499985  123.72699738    0.13000000    0.79000002
   20.53833199  119.47299957    0.13000000    0.79000002
   20.54138756  113.38200378    0.13000000    0.79000002
   20.54472160  153.36500549    0.13000000    0.79000002
   20.54777718  112.71499634    0.13000000    0.79000002
   20.55111122  102.94400024    0.13000000    0.79000002
   20.55444336  112.74600220    0.13000000    0.79000002
   20.55888748  112.74600220    0.13000000    0.79000002
   20.56305504  116.73899841    0.13000000    0.79000002
   20.56638718  107.99800110    0.13000000    0.79000002
   20.56944466  108.54399872    0.13000000    0.79000002
   20.57277870  110.38500214    0.13000000    0.79000002
   20.57583427  106.82900238    0.13000000    0.79000002
   20.57916832  106.67099762    0.13000000    0.79000002
   20.58250046  106.35500336    0.13000000    0.79000002
   20.58555603  115.24400330    0.13000000    0.79000002
   20.58889008  108.12200165    0.13000000    0.79000002
   20.59333420  108.12200165    0.13000000    0.79000002
   20.59749985  109.38099670    0.13000000    0.79000002
   20.60083389  103.81600189    0.13000000    0.79000002
   20.60388947  117.66500092    0.13000000    0.79000002
   20.60722351  113.77300262    0.13000000    0.79000002
   20.61055565  106.08999634    0.13000000    0.79000002
   20.61361122  113.93900299    0.13000000    0.79000002
   20.61694527  110.13800049    0.13000000    0.79000002
   20.62000084  102.62599945    0.13000000    0.79000002
   20.62333298  105.02100372    0.13000000    0.79000002
   20.62777710  105.02100372    0.13000000    0.79000002
   20.63194466  112.05599976    0.13000000    0.79000002
   20.63527679  120.48100281    0.13000000    0.79000002
   20.63861084  117.86599731    0.13000000    0.79000002
   20.64166641  116.69999695    0.13000000    0.79000002
   20.64500046  116.99099731    0.13000000    0.79000002
   20.64833260  111.46199799    0.13000000    0.79000002
   20.65138817  112.81500244    0.13000000    0.79000002
   20.65472221  109.73999786    0.13000000    0.79000002
   20.65777779  114.82599640    0.13000000    0.79000002
   20.66250038  114.82599640    0.13000000    0.79000002
   20.66666603  111.91200256    0.13000000    0.79000002
   20.66972160  114.20800018    0.13000000    0.79000002
   20.67305565  108.51999664    0.13000000    0.79000002
   20.67611122  115.93699646    0.13000000    0.79000002
   20.67944336  120.46800232    0.13000000    0.79000002
   20.68277740  128.12600708    0.13000000    0.79000002
   20.68583298  127.73400116    0.13000000    0.79000002
   20.68916512  116.15100098    0.13000000    0.79000002
   20.69249916  134.98599243    0.13000000    0.79000002
   20.69694328  134.98599243    0.13000000    0.79000002
   20.70111275  116.21700287    0.13000000    0.79000002
   20.70416832  127.04199982    0.13000000    0.79000002
   20.70750046  131.25199890    0.13000000    0.79000002
   20.71083450  134.75399780    0.13000000    0.79000002
   20.71389008  123.30400085    0.13000000    0.79000002
   20.71722221  125.85099792    0.13000000    0.79000002
   20.72055626  119.02700043    0.13000000    0.79000002
   20.72361183  134.97599792    0.13000000    0.79000002
   20.72694588  123.47599792    0.13000000    0.79000002
   20.73139000  123.47599792    0.13000000    0.79000002
   20.73555565  123.55100250    0.13000000    0.79000002
   20.73888969  129.00300598    0.13000000    0.79000002
   20.74222183  111.54299927    0.13000000    0.79000002
   20.74527740  121.27600098    0.13000000    0.79000002
   20.74861145  122.33699799    0.13000000    0.79000002
   20.75166702  138.24400330    0.13000000    0.79000002
   20.75499916  132.43699646    0.13000000    0.79000002
   20.75833321  135.44999695    0.13000000    0.79000002
   20.76138878  119.20400238    0.13000000    0.79000002
   20.76583290  119.20400238    0.13000000    0.79000002
   20.77000046  104.21099854    0.13000000    0.79000002
   20.77333260  137.93099976    0.13000000    0.79000002
   20.77666664  121.53500366    0.13000000    0.79000002
   20.77972221  124.55599976    0.13000000    0.79000002
   20.78305435  136.46400452    0.13000000    0.79000002
   20.78638840  132.84899902    0.13000000    0.79000002
   20.78944397  129.23500061    0.13000000    0.79000002
   20.79277802  115.04299927    0.13000000    0.79000002
   20.79583359  136.00500488    0.13000000    0.79000002
   20.80055428  136.00500488    0.13000000    0.79000002
   20.80444336  116.27200317    0.13000000    0.79000002
   20.80777740  109.03500366    0.13000000    0.79000002
   20.81110954  125.57900238    0.13000000    0.79000002
   20.81416512  128.46699524    0.13000000    0.79000002
   20.81750107  115.22499847    0.13000000    0.79000002
   20.82083511  109.57299805    0.13000000    0.79000002
   20.82389069  110.84100342    0.13000000    0.79000002
   20.82722282  107.41999817    0.13000000    0.79000002
   20.83055687  103.78099823    0.13000000    0.79000002
   20.83500099  103.78099823    0.13000000    0.79000002
   20.83916664  125.90699768    0.13000000    0.79000002
   20.84222221   98.63300323    0.13000000    0.79000002
   20.84555626  107.74299622    0.13000000    0.79000002
   20.84889030  117.22699738    0.13000000    0.79000002
   20.85194397  115.46700287    0.13000000    0.79000002
   20.85527802  111.16699982    0.13000000    0.79000002
   20.85833359  116.54699707    0.13000000    0.79000002
   20.86166763  114.38899994    0.13000000    0.79000002
   20.86499977  124.17099762    0.13000000    0.79000002
   20.86944389  124.17099762    0.13000000    0.79000002
   20.87361145  114.29599762    0.13000000    0.79000002
   20.87694550  110.23200226    0.13000000    0.79000002
   20.88000107  108.00900269    0.13000000    0.79000002
   20.88333321  106.11900330    0.13000000    0.79000002
   20.88638878  114.88999939    0.13000000    0.79000002
   20.88972282  108.11199951    0.13000000    0.79000002
   20.89305496  106.79699707    0.13000000    0.79000002
   20.89611053  114.59899902    0.13000000    0.79000002
   20.89944458  116.02200317    0.13000000    0.79000002
   20.90388870  116.02200317    0.13000000    0.79000002
   20.90805435  120.49500275    0.13000000    0.79000002
   20.91138840  117.17299652    0.13000000    0.79000002
   20.91444397  135.81599426    0.13000000    0.79000002
   20.91777802  113.00199890    0.13000000    0.79000002
   20.92111015  101.70300293    0.13000000    0.79000002
   20.92416573  128.48699951    0.13000000    0.79000002
   20.92749977  125.83899689    0.13000000    0.79000002
   20.93083191  121.79399872    0.13000000    0.79000002
   20.93388748  130.55000305    0.13000000    0.79000002
   20.93861008  130.55000305    0.13000000    0.79000002
   20.94249916  128.66299438    0.13000000    0.79000002
   20.94583321  132.37699890    0.13000000    0.79000002
   20.94916534  137.88499451    0.13000000    0.79000002
   20.95222282  127.09700012    0.13000000    0.79000002
   20.95555687  117.61199951    0.13000000    0.79000002
   20.95888901  142.80000305    0.13000000    0.79000002
   20.96194458  125.79699707    0.13000000    0.79000002
   20.96527863  132.62199402    0.13000000    0.79000002
   20.96833420  120.30899811    0.13000000    0.79000002
   20.97305679  120.30899811    0.13000000    0.79000002
   20.97722244  143.02299500    0.13000000    0.79000002
   20.98027802  136.83599854    0.13000000    0.79000002
   20.98361206  141.15100098    0.13000000    0.79000002
   20.98666763  130.33200073    0.13000000    0.79000002
   20.98999977  121.03500366    0.13000000    0.79000002
   20.99333382  144.01100159    0.13000000    0.79000002
   20.99638939  139.42799377    0.13000000    0.79000002
   20.99972153  124.08599854    0.13000000    0.79000002
   21.00305557  139.60800171    0.13000000    0.79000002
   21.00749969  139.60800171    0.13000000    0.79000002
   21.01166725  148.77200317    0.13000000    0.79000002
   21.01472282  144.03700256    0.13000000    0.79000002
   21.01805496  137.03199768    0.13000000    0.79000002
   21.02138901  137.53799438    0.13000000    0.79000002
   21.02444458  138.89199829    0.13000000    0.79000002
   21.02777672  131.81300354    0.13000000    0.79000002
   21.03111076  127.32599640    0.13000000    0.79000002
   21.03416634  121.83300018    0.13000000    0.79000002
   21.03750038  116.54100037    0.13000000    0.79000002
   21.04194450  116.54100037    0.13000000    0.79000002
   21.04611015  123.28700256    0.13000000    0.79000002
   21.04944420  138.69500732    0.13000000    0.79000002
   21.05249977  123.97399902    0.13000000    0.79000002
   21.05583191  113.31999969    0.13000000    0.79000002
   21.05916595  126.16400146    0.13000000    0.79000002
   21.06222153  116.13400269    0.13000000    0.79000002
   21.06555557  124.52600098    0.13000000    0.79000002
   21.06861115  120.76599884    0.13000000    0.79000002
   21.07194519  114.97499847    0.13000000    0.79000002
   21.09277916  114.97499847    0.13000000    0.79000002
   21.09666824  115.57700348    0.13000000    0.79000002
   21.10000038  105.45999908    0.13000000    0.79000002
   21.10333443  107.70500183    0.13000000    0.79000002
   21.10639000  105.66300201    0.13000000    0.79000002
   21.10972214   99.32589722    0.13000000    0.79000002
   21.11305618  101.42500305    0.13000000    0.79000002
   21.11611176  110.90000153    0.13000000    0.79000002
   21.11944389  106.48699951    0.13000000    0.79000002
   21.12249947  105.31099701    0.13000000    0.79000002
   21.12694550  105.31099701    0.13000000    0.79000002
   21.13111115  118.18699646    0.13000000    0.79000002
   21.13444519  112.43900299    0.13000000    0.79000002
   21.13777733  111.07599640    0.13000000    0.79000002
   21.14083290  107.50199890    0.13000000    0.79000002
   21.14416695  112.97699738    0.13000000    0.79000002
   21.14722252  111.43699646    0.13000000    0.79000002
   21.15055466  115.08000183    0.13000000    0.79000002
   21.15388870  110.42800140    0.13000000    0.79000002
   21.15694427  109.73600006    0.13000000    0.79000002
   21.16166687  109.73600006    0.13000000    0.79000002
   21.16583252  102.25900269    0.13000000    0.79000002
   21.16888809  106.39800262    0.13000000    0.79000002
   21.17222214  106.21399689    0.13000000    0.79000002
   21.17555428  106.49700165    0.13000000    0.79000002
   21.17860985  106.09300232    0.13000000    0.79000002
   21.18194389  105.10399628    0.13000000    0.79000002
   21.18527603  105.37300110    0.13000000    0.79000002
   21.18833160  103.44699860    0.13000000    0.79000002
   21.19166565  107.43900299    0.13000000    0.79000002
   21.19610977  107.43900299    0.13000000    0.79000002
   21.20027924  108.83599854    0.13000000    0.79000002
   21.20333481  105.03900146    0.13000000    0.79000002
   21.20666695  109.25299835    0.13000000    0.79000002
   21.21000099  111.86199951    0.13000000    0.79000002
   21.21305656  110.19300079    0.13000000    0.79000002
   21.21638870  115.56999969    0.13000000    0.79000002
   21.21972275  114.88999939    0.13000000    0.79000002
   21.22277832  104.01499939    0.13000000    0.79000002
   21.22611237  108.50499725    0.13000000    0.79000002
   21.23055649  108.50499725    0.13000000    0.79000002
   21.23472214  106.87799835    0.13000000    0.79000002
   21.23805618  110.31400299    0.13000000    0.79000002
   21.24111176  114.75499725    0.13000000    0.79000002
   21.24444389  102.09400177    0.13000000    0.79000002
   21.24749947  103.70099640    0.13000000    0.79000002
   21.25083351  108.28099823    0.13000000    0.79000002
   21.25416756  110.13800049    0.13000000    0.79000002
   21.25722313  123.48000336    0.13000000    0.79000002
   21.26055527  101.24600220    0.13000000    0.79000002
   21.26499939  101.24600220    0.13000000    0.79000002
   21.26916695   97.95619965    0.13000000    0.79000002
   21.27249908  112.93900299    0.13000000    0.79000002
   21.27555466  106.58899689    0.13000000    0.79000002
   21.27888870  106.74199677    0.13000000    0.79000002
   21.28222275  107.53500366    0.13000000    0.79000002
   21.28527641  101.57499695    0.13000000    0.79000002
   21.28861046   96.95739746    0.13000000    0.79000002
   21.29194450  100.86499786    0.13000000    0.79000002
   21.29500008   96.67510223    0.13000000    0.79000002
   21.29972076   96.67510223    0.13000000    0.79000002
   21.30360985  102.62200165    0.13000000    0.79000002
   21.30694389   99.05850220    0.13000000    0.79000002
   21.31027794   98.13300323    0.13000000    0.79000002
   21.31333351  105.03500366    0.13000000    0.79000002
   21.31666756  100.73799896    0.13000000    0.79000002
   21.32000160   98.98040009    0.13000000    0.79000002
   21.32305717  100.78500366    0.13000000    0.79000002
   21.32638931  101.39800262    0.13000000    0.79000002
   21.32944489   96.20989990    0.13000000    0.79000002
   21.33416748   96.20989990    0.13000000    0.79000002
   21.33833313  106.01799774    0.13000000    0.79000002
   21.34138870   95.73950195    0.13000000    0.79000002
   21.34472275  102.03500366    0.13000000    0.79000002
   21.34805679  105.60600281    0.13000000    0.79000002
   21.35111237  103.20899963    0.13000000    0.79000002
   21.35444450  106.95400238    0.13000000    0.79000002
   21.35750008  101.32900238    0.13000000    0.79000002
   21.36083412  105.43099976    0.13000000    0.79000002
   21.36416626  108.63200378    0.13000000    0.79000002
   21.36861038  108.63200378    0.13000000    0.79000002
   21.37277794  106.82800293    0.13000000    0.79000002
   21.37611198  102.87300110    0.13000000    0.79000002
   21.37916756  112.21499634    0.13000000    0.79000002
   21.38249969  102.94100189    0.13000000    0.79000002
   21.38555527  100.91600037    0.13000000    0.79000002
   21.38888931  102.28299713    0.13000000    0.79000002
   21.39222145  104.52600098    0.13000000    0.79000002
   21.39527702  109.08899689    0.13000000    0.79000002
   21.39861107  111.72499847    0.13000000    0.79000002
   21.40305519  111.72499847    0.13000000    0.79000002
   21.40722275  110.28700256    0.13000000    0.79000002
   21.41055489  107.09899902    0.13000000    0.79000002
   21.41361046  107.31800079    0.13000000    0.79000002
   21.41694450   99.73500061    0.13000000    0.79000002
   21.42027664  111.32299805    0.13000000    0.79000002
   21.42333221  103.53800201    0.13000000    0.79000002
   21.42666626  110.45400238    0.13000000    0.79000002
   21.43000031  114.72200012    0.13000000    0.79000002
   21.43305397   96.46009827    0.13000000    0.79000002
   21.43750000   96.46009827    0.13000000    0.79000002
   21.44166565  105.47599792    0.13000000    0.79000002
   21.44499969  106.19899750    0.13000000    0.79000002
   21.44833183  117.20300293    0.13000000    0.79000002
   21.45138931  113.12500000    0.13000000    0.79000002
   21.45472336  115.80300140    0.13000000    0.79000002
   21.45777893  107.81600189    0.13000000    0.79000002
   21.46111107  107.84999847    0.13000000    0.79000002
   21.46444511  100.94300079    0.13000000    0.79000002
   21.46750069  107.47499847    0.13000000    0.79000002
   21.47222328  107.47499847    0.13000000    0.79000002
   21.47638893  107.12300110    0.13000000    0.79000002
   21.47944450  105.24700165    0.13000000    0.79000002
   21.48277855  114.20700073    0.13000000    0.79000002
   21.48583412  114.16899872    0.13000000    0.79000002
   21.48916626  106.09100342    0.13000000    0.79000002
   21.49250031  102.26899719    0.13000000    0.79000002
   21.49555588  108.45400238    0.13000000    0.79000002
   21.49888992  106.77799988    0.13000000    0.79000002
   21.50222206  103.23300171    0.13000000    0.79000002
   21.50666618  103.23300171    0.13000000    0.79000002
   21.51083374   99.88639832    0.13000000    0.79000002
   21.51388931  106.55699921    0.13000000    0.79000002
   21.51722145  102.83699799    0.13000000    0.79000002
   21.52055550  111.46499634    0.13000000    0.79000002
   21.52361107  100.94200134    0.13000000    0.79000002
   21.52694511   98.37599945    0.13000000    0.79000002
   21.53027725  104.85199738    0.13000000    0.79000002
   21.53333282  108.40799713    0.13000000    0.79000002
   21.53666687  113.62999725    0.13000000    0.79000002
   21.54111099  113.62999725    0.13000000    0.79000002
   21.54527664  109.36000061    0.13000000    0.79000002
   21.54861069  109.53399658    0.13000000    0.79000002
   21.55166626   97.44450378    0.13000000    0.79000002
   21.55499840   98.53150177    0.13000000    0.79000002
   21.55833244   99.94249725    0.13000000    0.79000002
   21.56138802  104.41899872    0.13000000    0.79000002
   21.56472206   98.32430267    0.13000000    0.79000002
   21.56777954  101.03900146    0.13000000    0.79000002
   21.57111168  100.47799683    0.13000000    0.79000002
   21.57555580  100.47799683    0.13000000    0.79000002
   21.57972336  105.42800140    0.13000000    0.79000002
   21.58305550   96.14009857    0.13000000    0.79000002
   21.58638954   99.75779724    0.13000000    0.79000002
   21.58944511  102.54399872    0.13000000    0.79000002
   21.59277916   97.17259979    0.13000000    0.79000002
   21.59611130  100.66300201    0.13000000    0.79000002
   21.59916687   99.92900085    0.13000000    0.79000002
   21.60250092  102.07900238    0.13000000    0.79000002
   21.60555649   92.18800354    0.13000000    0.79000002
   21.61027908   92.18800354    0.13000000    0.79000002
   21.61416626  105.04000092    0.13000000    0.79000002
   21.61750031   97.50640106    0.13000000    0.79000002
   21.62083435  103.86699677    0.13000000    0.79000002
   21.62388992  105.58799744    0.13000000    0.79000002
   21.62722206   99.44400024    0.13000000    0.79000002
   21.63055611  100.24900055    0.13000000    0.79000002
   21.63361168  100.84999847    0.13000000    0.79000002
   21.63694382  100.93199921    0.13000000    0.79000002
   21.63999939   98.60220337    0.13000000    0.79000002
   21.64472198   98.60220337    0.13000000    0.79000002
   21.64888954  101.22599792    0.13000000    0.79000002
   21.65194321  103.80799866    0.13000000    0.79000002
   21.65527725   97.75289917    0.13000000    0.79000002
   21.65861130  102.13899994    0.13000000    0.79000002
   21.66166687  105.11799622    0.13000000    0.79000002
   21.66499901  101.54299927    0.13000000    0.79000002
   21.66805458  106.97399902    0.13000000    0.79000002
   21.67138863  100.40000153    0.13000000    0.79000002
   21.67472076   98.98919678    0.13000000    0.79000002
   21.67916679   98.98919678    0.13000000    0.79000002
   21.68333244  101.00900269    0.13000000    0.79000002
   21.68666649   99.63890076    0.13000000    0.79000002
   21.68972206  107.31500244    0.13000000    0.79000002
   21.69305420  105.86399841    0.13000000    0.79000002
   21.69610977  109.12100220    0.13000000    0.79000002
   21.69944382  105.82800293    0.13000000    0.79000002
   21.70277786  102.19200134    0.13000000    0.79000002
   21.70583344  110.01100159    0.13000000    0.79000002
   21.70916748  114.44200134    0.13000000    0.79000002
   21.71361160  114.44200134    0.13000000    0.79000002
   21.71777916  111.82499695    0.13000000    0.79000002
   21.72111130  101.07099915    0.13000000    0.79000002
   21.72416687  102.25900269    0.13000000    0.79000002
   21.72750092  103.23500061    0.13000000    0.79000002
   21.73083305   98.05680084    0.13000000    0.79000002
   21.73388863  103.22299957    0.13000000    0.79000002
   21.73722267  103.79199982    0.13000000    0.79000002
   21.74055672  103.66000366    0.13000000    0.79000002
   21.74361229  109.33100128    0.13000000    0.79000002
   21.74805641  109.33100128    0.13000000    0.79000002
   21.75222206  107.06999969    0.13000000    0.79000002
   21.75555611  103.93900299    0.13000000    0.79000002
   21.75888824   98.29160309    0.13000000    0.79000002
   21.76194382  100.15699768    0.13000000    0.79000002
   21.76527786   82.72959900    0.13000000    0.79000002
   21.76861000   83.74009705    0.13000000    0.79000002
   21.77166557   83.04830170    0.13000000    0.79000002
   21.77499962   93.86979675    0.13000000    0.79000002
   21.77833366  104.62799835    0.13000000    0.79000002
