    HOUR (UT)   FLARE FACTOR    SKY TESTER    SUN TESTER
   12.26999950   -1.00000000   -1.00000000   -1.00000000
   12.29361153  438.11999512    4.90999985    1.75000000
   12.29944515  388.16500854    4.90999985    1.75000000
   12.30166721  348.56100464    4.90999985    1.75000000
   12.30277824  358.66400146    4.90999985    1.75000000
   12.30416679  382.70001221    4.90999985    1.75000000
   12.30555534  330.58599854    4.90999985    1.75000000
   12.30694485  385.42599487    4.90999985    1.75000000
   12.30833340  335.84298706    4.90999985    1.76999998
   12.30972195  333.36898804    4.90999985    1.76999998
   12.31111145  389.07299805    4.90999985    1.76999998
   12.31250000  322.08898926    4.90999985    1.75000000
   12.31388950  333.62100220    4.90999985    1.76999998
   12.31527805  324.45199585    4.90999985    1.76999998
   12.31666660  315.94198608    4.90999985    1.76999998
   12.31805515  328.84399414    4.90999985    1.76999998
   12.31944466  310.05700684    4.90999985    1.76999998
   12.32083321  311.59899902    4.90999985    1.76999998
   12.32222176  296.78601074    4.90999985    1.76999998
   12.32361126  343.07400513    4.90999985    1.76999998
   12.32499981  296.97000122    4.90999985    1.76999998
   12.32638836  320.63101196    4.90999985    1.78999996
   12.32777786  300.49798584    4.90999985    1.78999996
   12.32916641  320.10198975    4.90999985    1.78999996
   12.33055592  289.11099243    4.90999985    1.78999996
   12.33194447  339.04400635    4.90999985    1.78999996
   12.33333302  335.00799561    4.90999985    1.78999996
   12.33472157  331.20300293    4.90999985    1.78999996
   12.33611107  308.33999634    4.90999985    1.78999996
   12.33749962  333.62899780    4.90999985    1.78999996
   12.33888817  332.02600098    4.90999985    1.78999996
   12.34027767  314.70401001    4.90999985    1.78999996
   12.34166622  285.32400513    4.90999985    1.78999996
   12.34305477  350.30801392    4.90999985    1.78999996
   12.34444427  309.73199463    4.90999985    1.78999996
   12.34583282  289.49899292    4.90999985    1.80999994
   12.34722233  315.11999512    4.90999985    1.80999994
   12.34861088  322.55999756    4.90999985    1.80999994
   12.35000038  316.15899658    4.90999985    1.80999994
   12.35138893  310.05099487    4.90999985    1.80999994
   12.35277843  313.38299561    4.90999985    1.80999994
   12.35416698  319.74099731    4.90999985    1.80999994
   12.35555553  302.61999512    4.90999985    1.80999994
   12.35694504  342.34600830    4.90999985    1.80999994
   12.35833359  337.98999023    4.90999985    1.80999994
   12.35972214  335.45199585    4.90999985    1.80999994
   12.36111164  335.75900269    4.90999985    1.80999994
   12.36250019  337.82901001    4.90999985    1.83000004
   12.36388969  337.14801025    4.90999985    1.83000004
   12.36527824  324.51300049    4.90999985    1.80999994
   12.36722279  331.26501465    4.90999985    1.83000004
   12.36805534  316.65701294    4.90999985    1.83000004
   12.36944485  380.76800537    4.90999985    1.83000004
   12.37083340  369.11999512    4.90999985    1.83000004
   12.37277794  332.01098633    4.90999985    1.83000004
   12.37361145  340.12100220    4.90999985    1.83000004
   12.37500000  345.05398560    4.90999985    1.83000004
   12.37638855  309.04800415    4.90999985    1.83000004
   12.37777805  306.09600830    4.90999985    1.83000004
   12.37916660  309.15899658    4.90999985    1.83000004
   12.38055611  357.42599487    4.90999985    1.83000004
   12.38194466  322.78799438    4.90999985    1.83000004
   12.38333321  310.89099121    4.90999985    1.83000004
   12.38472176  329.71301270    4.90999985    1.83000004
   12.38611126  303.51901245    4.90999985    1.85000002
   12.38749981  325.19400024    4.90999985    1.85000002
   12.38888836  329.45999146    4.90999985    1.85000002
   12.39027786  339.26998901    4.90999985    1.83000004
   12.39166641  339.48999023    4.90999985    1.85000002
   12.39305496  327.92700195    4.90999985    1.85000002
   12.39444447  330.64099121    4.90999985    1.85000002
   12.39583302  346.04699707    4.90999985    1.86000001
   12.39722252  335.06900024    4.90999985    1.85000002
   12.39861107  328.07501221    4.90999985    1.86000001
   12.39999962  320.14099121    4.90999985    1.85000002
   12.40138817  302.26501465    4.90999985    1.86000001
   12.40277767  283.79098511    4.90999985    1.86000001
   12.40416622  306.45800781    4.90999985    1.85000002
   12.40555477  313.81201172    4.90999985    1.85000002
   12.40694427  292.47198486    4.90999985    1.86000001
   12.40833282  309.72100830    4.90999985    1.86000001
   12.40972137  302.72000122    4.90999985    1.86000001
   12.41111088  305.60299683    4.90999985    1.86000001
   12.41249943  285.04800415    4.90999985    1.86000001
   12.41388893  290.53201294    4.90999985    1.86000001
   12.41527748  299.28399658    4.90999985    1.86000001
   12.41666698  276.36199951    4.90999985    1.86000001
   12.41805553  282.94198608    4.90999985    1.86000001
   12.41944504  285.00799561    4.90999985    1.86000001
   12.42083359  272.30398560    4.90999985    1.86000001
   12.42222214  277.18600464    4.90999985    1.88000000
   12.42361164  322.31298828    4.90999985    1.88000000
   12.42500019  317.38900757    4.90999985    1.88000000
   12.42638874  338.37100220    4.90999985    1.88000000
   12.42777824  328.71701050    4.90999985    1.88000000
   12.42916679  294.41101074    4.90999985    1.89999998
   12.43055630  370.28799438    4.90999985    1.89999998
   12.43194485  310.70300293    4.90999985    1.89999998
   12.43333340  311.47299194    4.90999985    1.89999998
   12.43472195  318.38101196    4.90999985    1.88000000
   12.43611145  318.80099487    4.90999985    1.88000000
   12.43750000  323.84600830    4.90999985    1.89999998
   12.43888855  345.55801392    4.90999985    1.88000000
   12.44027805  375.69400024    4.90999985    1.88000000
   12.44166660  330.12100220    4.90999985    1.89999998
   12.44305515  334.96301270    4.90999985    1.89999998
   12.44444466  326.87100220    4.90999985    1.89999998
   12.44583321  369.84500122    4.90999985    1.89999998
   12.44722271  317.54098511    4.90999985    1.89999998
   12.44861126  278.44000244    4.90999985    1.89999998
   12.44999981  295.09298706    4.90999985    1.89999998
   12.45138836  313.18200684    4.90999985    1.89999998
   12.45277786  279.64199829    4.90999985    1.89999998
   12.45416641  277.53601074    4.90999985    1.89999998
   12.45555496  293.42098999    4.90999985    1.89999998
   12.45694447  334.12799072    4.90999985    1.89999998
   12.45833302  277.22000122    4.90999985    1.89999998
   12.45972157  299.41699219    4.90999985    1.89999998
   12.46111107  312.76000977    4.90999985    1.89999998
   12.46249962  331.51300049    4.90999985    1.89999998
   12.46388912  318.77600098    4.90999985    1.89999998
   12.46527767  298.90798950    4.90999985    1.91999996
   12.46666622  305.44601440    4.90999985    1.91999996
   12.46805477  329.77200317    4.90999985    1.91999996
   12.46944427  311.88500977    4.90999985    1.91999996
   12.47083282  327.92599487    4.90999985    1.89999998
   12.47222137  323.93499756    4.90999985    1.91999996
   12.47361088  346.18099976    4.90999985    1.91999996
   12.47499943  327.07101440    4.90999985    1.89999998
   12.47638798  286.59399414    4.90999985    1.89999998
   12.47777748  348.77700806    4.90999985    1.91999996
   12.47916603  310.15399170    4.90999985    1.89999998
   12.48055553  337.96398926    4.90999985    1.91999996
   12.48194408  322.01400757    4.90999985    1.91999996
   12.48333359  291.59298706    4.90999985    1.91999996
   12.48472214  332.98400879    4.90999985    1.91999996
   12.48611164  259.58200073    4.90999985    1.89999998
   12.48750019  319.59298706    4.90999985    1.91999996
   12.48888874  317.77999878    4.90999985    1.91999996
   12.49027824  304.45401001    4.90999985    1.91999996
   12.49166679  296.95700073    4.90999985    1.91999996
   12.49305534  306.81698608    4.90999985    1.91999996
   12.49444485  359.45599365    4.90999985    1.91999996
   12.49583340  360.52999878    4.90999985    1.94000006
   12.49722290  344.50500488    4.90999985    1.94000006
   12.49861145  314.83099365    4.90999985    1.94000006
   12.50000000  286.75500488    4.90999985    1.94000006
   12.50138855  302.19500732    4.90999985    1.94000006
   12.50277805  305.60501099    4.90999985    1.94000006
   12.50416660  318.19799805    4.90999985    1.94000006
   12.50555515  311.55700684    4.90999985    1.94000006
   12.50694466  308.83099365    4.90999985    1.94000006
   12.50833321  348.38699341    4.90999985    1.96000004
   12.50972176  307.78201294    4.90999985    1.94000006
   12.51111126  311.93399048    4.90999985    1.94000006
   12.51249981  327.55499268    4.90999985    1.94000006
   12.51388931  317.68099976    4.90999985    1.94000006
   12.51527786  308.30700684    4.90999985    1.94000006
   12.51666641  293.10501099    4.90999985    1.94000006
   12.51805496  318.20001221    4.90999985    1.94000006
   12.51944447  295.65100098    4.90999985    1.96000004
   12.52083302  302.96200562    4.90999985    1.96000004
   12.52222157  320.39700317    4.90999985    1.94000006
   12.52361107  305.80398560    4.90999985    1.94000006
   12.52499962  318.80999756    4.90999985    1.94000006
   12.52638817  310.58099365    4.90999985    1.96000004
   12.52777767  321.98199463    4.90999985    1.94000006
   12.52916622  319.34100342    4.90999985    1.96000004
   12.53055573  299.93301392    4.90999985    1.98000002
   12.53194427  283.12600708    4.90999985    1.96000004
   12.53333378  299.30999756    4.90999985    1.98000002
   12.53472233  278.24499512    4.90999985    1.96000004
   12.53611183  289.14300537    4.90999985    1.98000002
   12.53750038  272.67898560    4.90999985    1.98000002
   12.53888893  278.59698486    4.90999985    1.98000002
   12.54027843  298.78399658    4.90999985    1.98000002
   12.54166698  284.61801147    4.90999985    1.98000002
   12.54305553  271.14498901    4.90999985    1.98000002
   12.54444504  243.59899902    4.90999985    1.98000002
   12.54472256  388.16500854    4.90999985    1.75000000
   12.54527855  275.95901489    4.90999985    1.98000002
   12.54861164  277.61499023    4.90999985    1.98000002
   12.55166721  292.63299561    4.90999985    2.00000000
   12.55500031  261.12600708    4.90999985    1.98000002
   12.55833340  247.76699829    4.90999985    2.00000000
   12.56138897  249.43699646    4.90999985    2.00000000
   12.56555557  249.43699646    4.90999985    2.00000000
   12.56972218  234.19700623    4.90999985    2.01999998
   12.57305527  250.91099548    4.90999985    2.00000000
   12.57638836  262.35900879    4.90999985    2.00000000
   12.57833290  228.08000183    4.90999985    2.00000000
   12.57999992  239.64399719    4.90999985    2.01999998
   12.58333302  246.97799683    4.90999985    2.01999998
   12.58638859  257.12799072    4.90999985    2.01999998
   12.58972168  248.58000183    4.90999985    2.01999998
   12.59305477  247.71000671    4.90999985    2.01999998
   12.59611034  261.01300049    4.90999985    2.01999998
   12.59944439  240.91900635    4.90999985    2.01999998
   12.60249996  258.61401367    4.90999985    2.03999996
   12.60861111  258.61401367    4.90999985    2.03999996
   12.61250019  247.28999329    4.90999985    2.01999998
   12.61583328  251.07299805    4.90999985    2.01999998
   12.61916637  275.34100342    4.90999985    2.01999998
   12.62222195  262.87500000    4.90999985    2.03999996
   12.62555599  238.82899475    4.90999985    2.03999996
   12.62888908  248.73399353    4.90999985    2.03999996
   12.63194466  251.66999817    4.90999985    2.03999996
   12.63527775  262.38299561    4.90999985    2.05999994
   12.63833332  238.26400757    4.90999985    2.05999994
   12.64166641  251.83500671    4.90999985    2.05999994
   12.64499950  261.16799927    4.90999985    2.05999994
   12.64555550  263.13800049    4.90999985    2.05999994
   12.65138817  263.13800049    4.90999985    2.05999994
   12.65555477  243.67399597    4.90999985    2.03999996
   12.65861034  255.53100586    4.90999985    2.05999994
   12.66194439  256.66699219    4.90999985    2.05999994
   12.66527748  227.06900024    4.90999985    2.07999992
   12.66833401  256.56900024    4.90999985    2.05999994
   12.67166710  261.81900024    4.90999985    2.07999992
   12.67472267  240.85000610    4.90999985    2.05999994
   12.67805576  249.07499695    4.90999985    2.07999992
   12.67888927  263.14300537    4.90999985    2.07999992
   12.68166733  285.93099976    4.90999985    2.07999992
   12.68500042  231.05299377    4.90999985    2.07999992
   12.68833351  241.79100037    4.90999985    2.07999992
   12.69416714  241.79100037    4.90999985    2.09999990
   12.69833374  246.36099243    4.90999985    2.07999992
   12.70166683  243.93400574    4.90999985    2.07999992
   12.70472240  233.12500000    4.90999985    2.09999990
   12.70805550  243.77299500    4.90999985    2.09999990
   12.71111107  258.60101318    4.90999985    2.09999990
   12.71222210  249.63699341    4.90999985    2.09999990
   12.71472168  271.98800659    4.90999985    2.09999990
   12.71805477  246.99200439    4.90999985    2.09999990
   12.72138882  270.24499512    4.90999985    2.09999990
   12.72444439  276.02099609    4.90999985    2.11999989
   12.72777748  258.58700562    4.90999985    2.11999989
   12.73083305  263.57299805    4.90999985    2.09999990
   12.73694515  263.57299805    4.90999985    2.11999989
   12.74111176  297.59600830    4.90999985    2.11999989
   12.74444485  267.05099487    4.90999985    2.11999989
   12.74555588  298.17001343    4.90999985    2.11999989
   12.74805546  292.81399536    4.90999985    2.11999989
   12.75138855  259.45999146    4.90999985    2.11999989
   12.75472260  284.92199707    4.90999985    2.13000011
   12.75777817  266.24798584    4.90999985    2.13000011
   12.76111126  289.43701172    4.90999985    2.11999989
   12.76416683  262.89599609    4.90999985    2.13000011
   12.76749992  271.20300293    4.90999985    2.13000011
   12.77083302  270.30700684    4.90999985    2.13000011
   12.77388859  278.99301147    4.90999985    2.13000011
   12.77999973  278.99301147    4.90999985    2.13000011
   12.78388977  285.48599243    4.90999985    2.13000011
   12.78722286  274.14199829    4.90999985    2.13000011
   12.79055595  287.95800781    4.90999985    2.13000011
   12.79361153  281.45800781    4.90999985    2.13000011
   12.79694462  281.30700684    4.90999985    2.15000010
   12.80000019  295.41900635    4.90999985    2.15000010
   12.80333328  295.39700317    4.90999985    2.15000010
   12.80666733  283.16198730    4.90999985    2.15000010
   12.80972195  276.84298706    4.90999985    2.15000010
   12.81222248  285.15399170    4.90999985    2.15000010
   12.81333351  266.56201172    4.90999985    2.15000010
   12.81666660  277.34600830    4.90999985    2.17000008
   12.82277775  277.34600830    4.90999985    2.17000008
   12.82694435  256.08099365    4.90999985    2.17000008
   12.82999992  246.62699890    4.90999985    2.17000008
   12.83333302  273.24899292    4.90999985    2.17000008
   12.83638859  259.14999390    4.90999985    2.17000008
   12.83972168  277.71499634    4.90999985    2.17000008
   12.84305477  279.11199951    4.90999985    2.17000008
   12.84555531  283.73999023    4.90999985    2.17000008
   12.84638882  271.36801147    4.90999985    2.17000008
   12.84972191  280.11599731    4.90999985    2.17000008
   12.85305595  274.49499512    4.90999985    2.17000008
   12.85611153  266.94400024    4.90999985    2.17000008
   12.85944462  279.79998779    4.90999985    2.17000008
   12.86555576  279.79998779    4.90999985    2.19000006
   12.86972237  261.13000488    4.90999985    2.19000006
   12.87305546  273.73001099    4.90999985    2.17000008
   12.87611103  281.16198730    4.90999985    2.17000008
   12.87888908  305.12899780    4.90999985    2.17000008
   12.87972260  280.74499512    4.90999985    2.19000006
   12.88305569  279.43899536    4.90999985    2.19000006
   12.88638878  264.80499268    4.90999985    2.19000006
   12.88944435  273.10699463    4.90999985    2.19000006
   12.89277744  286.79998779    4.90999985    2.21000004
   12.89583302  269.05700684    4.90999985    2.21000004
   12.89916611  272.63299561    4.90999985    2.21000004
   12.90249920  272.82800293    4.90999985    2.21000004
   12.90833282  272.82800293    4.90999985    2.21000004
   12.91249943  283.39199829    4.90999985    2.21000004
   12.91583252  276.44799805    4.90999985    2.21000004
   12.91888905  255.35899353    4.90999985    2.21000004
   12.92222214  249.30999756    4.90999985    2.21000004
   12.92555618  258.03601074    4.90999985    2.21000004
   12.92861176  267.83898926    4.90999985    2.23000002
   12.93194485  251.13499451    4.90999985    2.21000004
   12.93527794  260.22601318    4.90999985    2.21000004
   12.93833351  263.62200928    4.90999985    2.21000004
   12.94166660  262.34600830    4.90999985    2.23000002
   12.94472218  269.79299927    4.90999985    2.23000002
   12.94555569  262.86898804    4.90999985    2.23000002
   12.95111084  262.86898804    4.90999985    2.21000004
   12.95527744  265.02600098    4.90999985    2.23000002
   12.95861053  270.62500000    4.90999985    2.23000002
   12.96194458  249.67599487    4.90999985    2.23000002
   12.96500015  256.75000000    4.90999985    2.23000002
   12.96833324  270.06201172    4.90999985    2.25000000
   12.97138882  259.36999512    4.90999985    2.23000002
   12.97472191  260.61099243    4.90999985    2.25000000
   12.97805500  258.78298950    4.90999985    2.23000002
   12.97888851  250.72700500    4.90999985    2.25000000
   12.98138809  267.67199707    4.90999985    2.23000002
   12.98472214  251.91299438    4.90999985    2.25000000
   12.98805618  259.71200562    4.90999985    2.25000000
   12.99416733  259.71200562    4.90999985    2.25000000
   12.99833393  249.11900330    4.90999985    2.25000000
   13.00138855  252.72200012    4.90999985    2.25000000
   13.00472260  245.90499878    4.90999985    2.26999998
   13.00777817  238.39199829    4.90999985    2.25000000
   13.01111126  249.38000488    4.90999985    2.25000000
   13.01222229  248.61799622    4.90999985    2.25000000
   13.01472187  239.50199890    4.90999985    2.25000000
   13.01805496  244.76400757    4.90999985    2.25000000
   13.02138901  232.62500000    4.90999985    2.25000000
   13.02444458  237.84899902    4.90999985    2.25000000
   13.02777767  231.97000122    4.90999985    2.25000000
   13.03111076  241.40800476    4.86999989    2.26999998
   13.03694534  241.40800476    4.86999989    2.26999998
   13.04111195  242.42599487    4.84999990    2.28999996
   13.04416752  225.56199646    4.80999994    2.26999998
   13.04555607  237.71200562    4.82999992    2.28999996
   13.04777813  213.78300476    4.84999990    2.28999996
   13.05111122  223.38099670    4.82999992    2.26999998
   13.05444431  243.19799805    4.84999990    2.26999998
   13.05749989  229.38299561    4.86999989    2.26999998
   13.06083393  250.72500610    4.86999989    2.26999998
   13.06416702  246.62800598    4.88999987    2.28999996
   13.06722260  247.35299683    4.90999985    2.26999998
   13.07055569  233.97500610    4.90999985    2.28999996
   13.07361126  236.38800049    4.90999985    2.28999996
   13.07972240  236.38800049    4.90999985    2.28999996
   13.08388901  221.09199524    4.90999985    2.26999998
   13.08722210  243.81700134    4.90999985    2.26999998
   13.09027767  253.54200745    4.90999985    2.28999996
   13.09361076  233.23800659    4.90999985    2.28999996
   13.09694386  248.61399841    4.90999985    2.26999998
   13.10000038  244.63800049    4.90999985    2.26999998
   13.10333347  239.09399414    4.90999985    2.28999996
   13.10638905  241.53900146    4.90999985    2.28999996
   13.10972214  241.13000488    4.90999985    2.26999998
   13.11222267  235.14799500    4.90999985    2.28999996
   13.11361122  229.37600708    4.90999985    2.28999996
   13.11666679  226.83500671    4.90999985    2.28999996
   13.12250042  226.83500671    4.90999985    2.28999996
   13.12666702  223.48399353    4.90999985    2.28999996
   13.13000011  228.18299866    4.90999985    2.28999996
   13.13333321  209.78799438    4.90999985    2.30999994
   13.13638878  227.63400269    4.90999985    2.30999994
   13.13972187  222.05400085    4.90999985    2.28999996
   13.14277744  215.63800049    4.90999985    2.28999996
   13.14555550  225.43499756    4.90999985    2.30999994
   13.14638901  231.08399963    4.90999985    2.30999994
   13.14972210  230.77299500    4.90999985    2.30999994
   13.15305519  238.75900269    4.90999985    2.28999996
   13.15611076  240.00199890    4.90999985    2.28999996
   13.15944386  226.16299438    4.90999985    2.30999994
   13.16555500  226.16299438    4.90999985    2.28999996
   13.16972256  223.99099731    4.90999985    2.30999994
   13.17277813  233.48199463    4.90999985    2.30999994
   13.17611122  232.88900757    4.90999985    2.30999994
   13.17888927  206.96699524    4.90999985    2.32999992
   13.17972279  202.51699829    4.90999985    2.32999992
   13.18277836  211.72900391    4.90999985    2.32999992
   13.18611145  230.29200745    4.90999985    2.30999994
   13.18916702  222.02000427    4.90999985    2.30999994
   13.19250011  218.92999268    4.90999985    2.32999992
   13.19583321  204.63099670    4.90999985    2.32999992
   13.19888878  212.35899353    4.90999985    2.30999994
   13.20222187  212.67300415    4.90999985    2.30999994
   13.20833302  212.67300415    4.90999985    2.32999992
   13.21249962  204.63299561    4.90999985    2.32999992
   13.21555519  204.26199341    4.90999985    2.32999992
   13.21888828  212.61099243    4.90999985    2.32999992
   13.22222137  222.59500122    4.90999985    2.30999994
   13.22555542  227.24499512    4.90999985    2.32999992
   13.22861099  213.29200745    4.90999985    2.32999992
   13.23194408  205.02200317    4.90999985    2.32999992
   13.23500061  214.46699524    4.90999985    2.32999992
   13.23833370  207.73699951    4.90999985    2.32999992
   13.24166679  211.62300110    4.90999985    2.30999994
   13.24472237  216.02400208    4.90999985    2.32999992
   13.24555588  209.17300415    4.90999985    2.32999992
   13.25111103  209.17300415    4.90999985    2.32999992
   13.25527763  207.22399902    4.90999985    2.32999992
   13.25861073  205.18899536    4.90999985    2.32999992
   13.26166630  206.63699341    4.90999985    2.32999992
   13.26500034  207.17100525    4.90999985    2.32999992
   13.26833344  212.90199280    4.90999985    2.32999992
   13.27138901  207.39300537    4.90999985    2.32999992
   13.27472210  210.11000061    4.90999985    2.32999992
   13.27777767  215.44900513    4.90999985    2.32999992
   13.27888870  210.78599548    4.90999985    2.34999990
   13.28166676  203.53599548    4.90999985    2.34999990
   13.28472233  206.13499451    4.90999985    2.32999992
   13.28805637  198.06700134    4.90999985    2.34999990
   13.31055546  207.79499817    4.90999985    2.32999992
   13.31111145  209.50999451    4.90999985    2.32999992
   13.31222248  218.78199768    4.90999985    2.34999990
   13.31472206  211.40600586    4.90999985    2.34999990
   13.31805515  207.72300720    4.90999985    2.34999990
   13.32111073  207.50199890    4.90999985    2.36999989
   13.32444477  205.11399841    4.90999985    2.34999990
   13.32750034  221.19999695    4.90999985    2.34999990
   13.33083344  201.25500488    4.90999985    2.36999989
   13.33694458  201.25500488    4.90999985    2.34999990
   13.34111118  205.64599609    4.90999985    2.36999989
   13.34416676  204.25799561    4.90999985    2.34999990
   13.34555531  211.54899597    4.90999985    2.34999990
   13.34777737  208.25100708    4.90999985    2.36999989
   13.35111141  201.88099670    4.90999985    2.36999989
   13.35416698  200.34599304    4.90999985    2.34999990
   13.35750008  216.31199646    4.90999985    2.36999989
   13.36083412  198.06399536    4.90999985    2.34999990
   13.36388969  196.31500244    4.90999985    2.36999989
   13.36722279  204.44799805    4.90999985    2.36999989
   13.37027836  206.75799561    4.90999985    2.36999989
   13.37361145  196.69400024    4.90999985    2.34999990
   13.37972260  196.69400024    4.90999985    2.36999989
   13.38388920  218.10600281    4.90999985    2.36999989
   13.38722229  200.31799316    4.90999985    2.36999989
   13.39027786  198.64500427    4.90999985    2.36999989
   13.39361095  202.24699402    4.90999985    2.39000010
   13.39694405  188.92300415    4.90999985    2.39000010
   13.39999962  188.06799316    4.90999985    2.39000010
   13.40333271  193.56399536    4.90999985    2.36999989
   13.40666676  196.64599609    4.90999985    2.36999989
   13.40972137  189.62399292    4.90999985    2.36999989
   13.41222191  187.31100464    4.90999985    2.39000010
   13.41333294  187.99699402    4.90999985    2.36999989
   13.41666698  181.22300720    4.90999985    2.36999989
   13.42250061  181.22300720    4.90999985    2.39000010
   13.42666721  191.49499512    4.90999985    2.39000010
   13.43000031  181.72000122    4.90999985    2.36999989
   13.43305588  191.38000488    4.90999985    2.39000010
   13.43638897  200.92500305    4.90999985    2.36999989
   13.43972206  187.70300293    4.90999985    2.39000010
   13.44277763  182.99899292    4.90999985    2.36999989
   13.44555569  192.55400085    4.90999985    2.36999989
   13.44638920  190.68699646    4.90999985    2.36999989
   13.44972229  184.54899597    4.90999985    2.39000010
   13.45277786  176.97999573    4.90999985    2.39000010
   13.45611095  179.38000488    4.90999985    2.39000010
   13.45944405  187.72900391    4.90999985    2.39000010
   13.57750034   -1.00000000   -1.00000000   -1.00000000
   13.67111111   -1.00000000   -1.00000000   -1.00000000
   13.76805496   -1.00000000   -1.00000000   -1.00000000
   13.86055565   -1.00000000   -1.00000000   -1.00000000
   13.96888828   -1.00000000   -1.00000000   -1.00000000
   14.07583332   -1.00000000   -1.00000000   -1.00000000
   14.17111111   -1.00000000   -1.00000000   -1.00000000
   14.26638889   -1.00000000   -1.00000000   -1.00000000
   14.36472225   -1.00000000   -1.00000000   -1.00000000
   14.39361095   72.52880096    4.90999985    2.53999996
   14.39694405  133.05299377    4.90999985    2.53999996
   14.40027714  145.03300476    4.90999985    2.53999996
   14.40333271  144.82000732    4.90999985    2.53999996
   14.40666676  142.38200378    4.90999985    2.51999998
   14.40972137  134.90400696    4.90999985    2.51999998
   14.41388893  134.90400696    4.90999985    2.55999994
   14.41805553  152.23599243    4.90999985    2.53999996
   14.42138958  153.49099731    4.90999985    2.53999996
   14.42472267  146.87699890    4.90999985    2.53999996
   14.42694473  149.10099792    4.90999985    2.53999996
   14.42805576  150.14300537    4.90999985    2.53999996
   14.43138885  144.91900635    4.90999985    2.53999996
   14.43472195  150.47300720    4.90999985    2.55999994
   14.43777752  162.41700745    4.90999985    2.51999998
   14.44111156  153.53300476    4.90999985    2.53999996
   14.44444466  155.84700012    4.90999985    2.51999998
   14.44750023  155.06199646    4.90999985    2.53999996
   14.45083332  142.96000671    4.90999985    2.53999996
   14.45694447  142.96000671    4.90999985    2.51999998
   14.46083355  154.70500183    4.90999985    2.53999996
   14.46416664  156.15100098    4.90999985    2.53999996
   14.46749973  150.96200562    4.90999985    2.53999996
   14.47055531  150.41099548    4.90999985    2.51999998
   14.47388840  141.04100037    4.90999985    2.53999996
   14.47722149  144.81399536    4.90999985    2.53999996
   14.48027706  144.09399414    4.90999985    2.55999994
   14.48361111  152.50599670    4.90999985    2.53999996
   14.48666668  146.50399780    4.90999985    2.53999996
   14.49000072  143.05200195    4.90999985    2.53999996
   14.49333382  149.85499573    4.90999985    2.55999994
   14.49388885  148.36799622    4.90999985    2.53999996
   14.49972248  148.36799622    4.90999985    2.55999994
   14.50388908  157.87100220    4.90999985    2.53999996
   14.50694466  152.21600342    4.90999985    2.53999996
   14.51027775  155.37199402    4.90999985    2.53999996
   14.51361084  159.75300598    4.90999985    2.53999996
   14.51666641  157.03300476    4.90999985    2.55999994
   14.51999950  156.79699707    4.90999985    2.53999996
   14.52305508  159.55200195    4.90999985    2.55999994
   14.52638817  152.99000549    4.90999985    2.53999996
   14.52722168  152.16099548    4.90999985    2.55999994
   14.52999973  152.24899292    4.90999985    2.55999994
   14.53333378  153.15800476    4.90999985    2.53999996
   14.53666687  163.31100464    4.90999985    2.55999994
   14.54250050  163.31100464    4.90999985    2.55999994
   14.54666710  159.60200500    4.90999985    2.55999994
   14.55000019  158.88000488    4.90999985    2.55999994
   14.55305576  160.11000061    4.90999985    2.55999994
   14.55638885  160.38099670    4.90999985    2.55999994
   14.55944443  156.61300659    4.90999985    2.55999994
   14.56055546  158.07000732    4.90999985    2.55999994
   14.56305599  158.48300171    4.90999985    2.55999994
   14.56638908  163.29499817    4.90999985    2.57999992
   14.56972218  163.05499268    4.90999985    2.57999992
   14.57277775  159.55200195    4.90999985    2.55999994
   14.57611084  162.88999939    4.90999985    2.55999994
   14.57916641  157.47399902    4.90999985    2.55999994
   14.58527756  157.47399902    4.90999985    2.55999994
   14.58944416  162.60499573    4.90999985    2.55999994
   14.59277725  161.83000183    4.90999985    2.55999994
   14.59388828  161.41700745    4.90999985    2.55999994
   14.59638882  154.09300232    4.90999985    2.55999994
   14.59972191  156.67599487    4.90999985    2.53999996
   14.60305595  168.05000305    4.90999985    2.55999994
   14.60611153  163.72599792    4.90999985    2.55999994
   14.60944462  159.92300415    4.90999985    2.55999994
   14.61250019  171.66999817    4.90999985    2.55999994
   14.61583328  174.37300110    4.90999985    2.55999994
   14.61916637  176.47200012    4.90999985    2.55999994
   14.62222195  175.69299316    4.90999985    2.55999994
   14.62805557  175.69299316    4.90999985    2.55999994
   14.63222218  164.88400269    4.90999985    2.55999994
   14.63555527  170.55099487    4.90999985    2.55999994
   14.63888836  167.34399414    4.90999985    2.57999992
   14.64194393  173.91000366    4.90999985    2.55999994
   14.64527798  166.34300232    4.90999985    2.55999994
   14.64833355  164.22999573    4.90999985    2.55999994
   14.65166664  164.55499268    4.90999985    2.53999996
   14.65499973  166.88999939    4.90999985    2.55999994
   14.65805531  168.16299438    4.90999985    2.55999994
   14.66055489  161.54699707    4.90999985    2.55999994
   14.66166592  167.58700562    4.90999985    2.55999994
   14.66499996  158.54699707    4.90999985    2.55999994
   14.67111111  158.54699707    4.90999985    2.55999994
   14.67527771  154.86300659    4.90999985    2.55999994
   14.67833328  166.33099365    4.90999985    2.55999994
   14.68166733  175.62300110    4.90999985    2.55999994
   14.68472195  177.40800476    4.90999985    2.55999994
   14.68805599  174.59399414    4.90999985    2.55999994
   14.69138908  179.57000732    4.90999985    2.55999994
   14.69388866  177.87399292    4.90999985    2.55999994
   14.69499969  174.69700623    4.90999985    2.55999994
   14.69833374  182.92500305    4.90999985    2.55999994
   14.70138836  178.89100647    4.90999985    2.55999994
   14.70472240  178.77999878    4.90999985    2.55999994
   14.70805550  177.51699829    4.90999985    2.55999994
   14.71388912  177.51699829    4.90999985    2.55999994
   14.71805477  178.02400208    4.90999985    2.55999994
   14.72138882  181.94200134    4.90999985    2.55999994
   14.72444439  198.87300110    4.90999985    2.57999992
   14.72722149  178.15800476    4.90999985    2.55999994
   14.72805500  184.37199402    4.90999985    2.55999994
   14.73138809  182.37399292    4.90999985    2.55999994
   14.73472214  186.58999634    4.90999985    2.55999994
   14.73777771  178.88200378    4.90999985    2.55999994
   14.74111176  181.85400391    4.90999985    2.55999994
   14.74416733  170.09199524    4.90999985    2.55999994
   14.74750042  179.82000732    4.90999985    2.57999992
   14.75083351  170.74299622    4.90999985    2.55999994
   14.75666714  170.74299622    4.90999985    2.55999994
   14.76083374  183.40699768    4.90999985    2.57999992
   14.76416683  186.56700134    4.90999985    2.55999994
   14.76722240  196.26300049    4.90999985    2.55999994
   14.77055550  178.00999451    4.90999985    2.57999992
   14.77388859  191.37600708    4.90999985    2.55999994
   14.77722168  181.22300720    4.90999985    2.57999992
   14.78027725  180.62500000    4.90999985    2.57999992
   14.78361130  185.60899353    4.90999985    2.57999992
   14.78666687  170.68800354    4.90999985    2.57999992
   14.79000092  174.30799866    4.90999985    2.57999992
   14.79333401  185.04699707    4.90999985    2.55999994
   14.79388905  181.72999573    4.90999985    2.57999992
   14.79944515  181.72999573    4.90999985    2.57999992
   14.80361176  176.93299866    4.90999985    2.57999992
   14.80694485  177.97000122    4.90999985    2.57999992
   14.81027794  185.37800598    4.90999985    2.57999992
   14.81333351  181.38699341    4.90999985    2.57999992
   14.81666660  181.35000610    4.90999985    2.57999992
   14.81999969  181.87199402    4.90999985    2.55999994
   14.82305527  168.84100342    4.90999985    2.57999992
   14.82638836  179.90899658    4.90999985    2.55999994
   14.82722187  187.61199951    4.90999985    2.55999994
   14.82972240  198.97000122    4.90999985    2.55999994
   14.83305550  165.75900269    4.90999985    2.57999992
   14.83638859  161.18299866    4.90999985    2.55999994
   14.84249973  161.18299866    4.90999985    2.57999992
   14.84666634  183.17999268    4.90999985    2.57999992
   14.84972191  180.48899841    4.90999985    2.57999992
   14.85305595  185.47500610    4.90999985    2.57999992
   14.85638905  182.27000427    4.90999985    2.57999992
   14.85944462  179.17100525    4.90999985    2.57999992
   14.86055565  184.93800354    4.90999985    2.57999992
   14.86305618  181.31399536    4.90999985    2.57999992
   14.86638927  172.29800415    4.90999985    2.57999992
   14.86972237  190.76400757    4.90999985    2.59999990
   14.87277794  188.61999512    4.90999985    2.57999992
   14.87611103  183.25000000    4.90999985    2.57999992
   14.87944412  176.63499451    4.90999985    2.57999992
   14.88527775  176.63499451    4.90999985    2.57999992
   14.88944435  172.95399475    4.90999985    2.55999994
   14.89249992  176.23100281    4.90999985    2.57999992
   14.89388847  172.18499756    4.90999985    2.57999992
   14.89611053  173.13800049    4.90999985    2.57999992
   14.89944458  174.12399292    4.90999985    2.57999992
   14.90277767  177.67599487    4.90999985    2.59999990
   14.90583324  191.14300537    4.90999985    2.59999990
   14.90916634  172.35400391    4.90999985    2.57999992
   14.91222191  179.50100708    4.90999985    2.57999992
   14.91555500  176.38600159    4.90999985    2.55999994
   14.91888905  165.66499329    4.90999985    2.59999990
   14.92194462  183.22999573    4.90999985    2.59999990
   14.92805576  183.22999573    4.90999985    2.57999992
   14.93222237  181.16099548    4.90999985    2.59999990
   14.93555546  193.74800110    4.90999985    2.59999990
   14.93861103  182.97300720    4.90999985    2.57999992
   14.94194412  177.32299805    4.90999985    2.59999990
   14.94527817  168.53199768    4.90999985    2.57999992
   14.94833374  181.44700623    4.90999985    2.61999989
   14.95166683  170.80799866    4.90999985    2.57999992
   14.95499992  178.23500061    4.90999985    2.59999990
   14.95805550  181.32800293    4.90999985    2.59999990
   14.96055508  179.74600220    4.90999985    2.59999990
   14.96166611  174.07800293    4.90999985    2.59999990
   14.96500015  172.30900574    4.90999985    2.57999992
   14.97111034  172.30900574    4.90999985    2.59999990
   14.97499943  175.30400085    4.90999985    2.59999990
   14.97833252  181.87100220    4.90999985    2.59999990
   14.98166656  174.66099548    4.90999985    2.57999992
   14.98472214  174.92399597    4.90999985    2.59999990
   14.98805618  177.00799561    4.90999985    2.59999990
   14.99111176  180.38200378    4.90999985    2.59999990
   14.99388885  179.34100342    4.90999985    2.57999992
   14.99472237  176.27499390    4.90999985    2.59999990
   14.99805546  174.91799927    4.90999985    2.59999990
   15.00138855  178.92100525    4.90999985    2.59999990
   15.00444412  190.94999695    4.90999985    2.59999990
   15.00777817  176.38600159    4.90999985    2.59999990
   15.01388931  176.38600159    4.90999985    2.59999990
   15.01805496  174.73899841    4.90999985    2.59999990
   15.02111053  186.52900696    4.90999985    2.57999992
   15.02444458  176.06500244    4.90999985    2.57999992
   15.02722168  161.00999451    4.90999985    2.57999992
   15.02805519  161.84500122    4.90999985    2.59999990
   15.03138828  176.86099243    4.90999985    2.59999990
   15.03472233  176.21200562    4.90999985    2.59999990
   15.03777790  182.54899597    4.90999985    2.59999990
   15.04111195  164.48199463    4.90999985    2.59999990
   15.04416752  166.18699646    4.90999985    2.59999990
   15.04750061  179.44299316    4.90999985    2.55999994
   15.05083370  182.21899414    4.90999985    2.57999992
   15.05666733  182.21899414    4.90999985    2.59999990
   15.06083393  179.17799377    4.90999985    2.59999990
   15.06388950  194.01800537    4.90999985    2.59999990
   15.06722260  186.12500000    4.90999985    2.59999990
   15.07055569  173.83900452    4.90999985    2.59999990
   15.07361126  191.51199341    4.90999985    2.59999990
   15.07694435  188.70599365    4.90999985    2.59999990
   15.08027744  187.45399475    4.90999985    2.59999990
   15.08333302  204.84100342    4.90999985    2.57999992
   15.08666611  195.84100342    4.90999985    2.59999990
   15.08972168  188.13600159    4.90999985    2.57999992
   15.09305477  184.28900146    4.90999985    2.59999990
   15.09388828  176.28900146    4.90999985    2.59999990
   15.09944439  176.28900146    4.90999985    2.59999990
   15.10361195  194.83200073    4.90999985    2.61999989
   15.10694504  197.97399902    4.90999985    2.59999990
   15.11000061  181.55000305    4.90999985    2.59999990
   15.11333370  171.44700623    4.90999985    2.59999990
   15.11666679  181.49899292    4.90999985    2.59999990
   15.11972237  185.77499390    4.90999985    2.61999989
   15.12305546  196.02499390    4.90999985    2.59999990
   15.12638855  179.60099792    4.90999985    2.59999990
   15.12722206  187.80700684    4.90999985    2.59999990
   15.12972260  196.12699890    4.90999985    2.61999989
   15.13305569  190.79899597    4.90999985    2.59999990
   15.13638878  185.07499695    4.90999985    2.59999990
   15.14249992  185.07499695    4.90999985    2.59999990
   15.14638901  183.47000122    4.90999985    2.59999990
   15.14972210  191.33799744    4.90999985    2.59999990
   15.15305519  206.13699341    4.90999985    2.59999990
   15.15611076  192.69299316    4.90999985    2.59999990
   15.15944386  195.02400208    4.90999985    2.61999989
   15.16055489  193.82800293    4.90999985    2.59999990
   15.16277695  190.86399841    4.90999985    2.59999990
   15.16611099  201.89900208    4.90999985    2.59999990
   15.16944504  194.20199585    4.90999985    2.61999989
   15.17250061  188.88200378    4.90999985    2.61999989
   15.17583370  211.08200073    4.90999985    2.61999989
   15.17916679  204.34300232    4.90999985    2.59999990
   15.18527794  204.34300232    4.90999985    2.59999990
   15.18944454  191.57899475    4.90999985    2.61999989
   15.19250011  190.08799744    4.90999985    2.61999989
   15.19388866  186.16400146    4.90999985    2.59999990
   15.19611073  196.15199280    4.90999985    2.59999990
   15.19944477  175.28700256    4.90999985    2.59999990
   15.20277786  179.25900269    4.90999985    2.61999989
   15.20583344  162.51800537    4.90999985    2.61999989
   15.20916653  185.72500610    4.90999985    2.59999990
   15.21249962  163.32299805    4.90999985    2.59999990
   15.21555519  174.13900757    4.90999985    2.61999989
   15.21888828  184.21099854    4.90999985    2.59999990
   15.22194386  171.97000122    4.90999985    2.59999990
   15.22805500  171.97000122    4.90999985    2.59999990
   15.23222160  187.35899353    4.90999985    2.59999990
   15.23527813  189.41099548    4.90999985    2.59999990
   15.23861122  190.88099670    4.90999985    2.59999990
   15.24194431  186.64300537    4.90999985    2.59999990
   15.24499989  190.85899353    4.90999985    2.59999990
   15.24833393  176.55599976    4.90999985    2.59999990
   15.25166702  186.98100281    4.90999985    2.59999990
   15.25472260  186.41499329    4.90999985    2.59999990
   15.25805569  178.94099426    4.90999985    2.59999990
   15.26055527  184.88900757    4.90999985    2.59999990
   15.26138878  181.76600647    4.90999985    2.59999990
   15.26472187  193.03500366    4.90999985    2.59999990
   15.27083302  193.03500366    4.90999985    2.59999990
   15.27499962  169.82099915    4.90999985    2.59999990
   15.27833271  185.17700195    4.90999985    2.59999990
   15.28138828  186.31300354    4.90999985    2.59999990
   15.28472233  191.51499939    4.90999985    2.59999990
   15.28805637  180.63699341    4.90999985    2.59999990
   15.29111195  179.78900146    4.90999985    2.59999990
   15.29388905  177.05700684    4.90999985    2.61999989
   15.29500008  178.80900574    4.90999985    2.61999989
   15.29805565  175.36399841    4.90999985    2.59999990
   15.30138874  176.17199707    4.90999985    2.59999990
   15.30444431  172.17599487    4.90999985    2.61999989
   15.30777836  177.36900330    4.90999985    2.61999989
   15.31388950  177.36900330    4.90999985    2.59999990
   15.31777763  179.62800598    4.90999985    2.61999989
   15.32111073  176.43699646    4.90999985    2.59999990
   15.32444477  174.10899353    4.90999985    2.61999989
   15.32722187  173.31599426    4.90999985    2.59999990
   15.32805538  175.38600159    4.90999985    2.59999990
   15.33111095  177.71699524    4.90999985    2.59999990
   15.33444405  176.81500244    4.90999985    2.59999990
   15.33749962  179.08999634    4.90999985    2.59999990
   15.34083271  174.27999878    4.90999985    2.59999990
   15.34416676  175.09199524    4.90999985    2.59999990
   15.34722233  165.55900574    4.90999985    2.59999990
   15.35055637  172.38299561    4.90999985    2.59999990
   15.35666752  172.38299561    4.90999985    2.59999990
   15.36083412  167.97999573    4.90999985    2.59999990
   15.36388969  157.04899597    4.90999985    2.59999990
   15.36722279  171.13699341    4.90999985    2.61999989
   15.37027836  163.39100647    4.90999985    2.59999990
   15.37361145  165.26300049    4.90999985    2.59999990
   15.37694454  164.85099792    4.90999985    2.59999990
   15.38000011  160.91700745    4.90999985    2.59999990
   15.38333321  156.08399963    4.90999985    2.59999990
   15.38666630  158.15699768    4.90999985    2.61999989
   15.38972187  159.40199280    4.90999985    2.61999989
   15.39305496  180.00199890    4.90999985    2.59999990
   15.39388847  165.03599548    4.90999985    2.59999990
   15.41444397  165.03599548    4.90999985    2.61999989
   15.41861153  170.96299744    4.90999985    2.61999989
   15.42194462  161.35299683    4.90999985    2.61999989
   15.42500019  157.04200745    4.90999985    2.61999989
   15.42722225  176.22900391    4.90999985    2.61999989
   15.42888927  164.72399902    4.90999985    2.59999990
   15.43194485  159.20300293    4.90999985    2.59999990
   15.43527794  164.73199463    4.90999985    2.61999989
   15.43833351  173.27099609    4.90999985    2.61999989
   15.44166660  165.33700562    4.90999985    2.59999990
   15.44499969  161.05499268    4.90999985    2.61999989
   15.44805527  152.42900085    4.90999985    2.61999989
   15.45138836  165.46800232    4.90999985    2.59999990
   15.45722198  165.46800232    4.90999985    2.61999989
   15.46138859  170.49699402    4.90999985    2.59999990
   15.46472168  166.03799438    4.90999985    2.61999989
   15.46777725  169.97500610    4.90999985    2.61999989
   15.47111034  174.94099426    4.90999985    2.61999989
   15.47416592  175.11099243    4.90999985    2.61999989
   15.47749996  145.82499695    4.90999985    2.61999989
   15.48083305  167.65199280    4.90999985    2.61999989
   15.48388958  173.22399902    4.90999985    2.61999989
   15.48722267  172.74699402    4.90999985    2.61999989
   15.49055576  160.02799988    4.90999985    2.61999989
   15.49361134  160.43400574    4.90999985    2.61999989
   15.49416733  166.33700562    4.90999985    2.61999989
   15.50000000  166.33700562    4.90999985    2.61999989
   15.50416660  166.15600586    4.90999985    2.61999989
   15.50749969  165.69200134    4.90999985    2.64000010
   15.51055527  164.21400452    4.90999985    2.61999989
   15.51388931  166.60800171    4.90999985    2.61999989
   15.51722240  166.49000549    4.90999985    2.59999990
   15.52027798  164.93499756    4.90999985    2.61999989
   15.52361107  161.29499817    4.90999985    2.61999989
   15.52694416  148.50500488    4.90999985    2.61999989
   15.52750015  156.89599609    4.90999985    2.61999989
   15.53055573  159.50199890    4.90999985    2.59999990
   15.53388977  155.75100708    4.90999985    2.61999989
   15.53694534  166.14999390    4.90999985    2.61999989
   15.54305553  166.14999390    4.90999985    2.61999989
   15.54694462  154.21600342    4.90999985    2.61999989
   15.55027771  157.03900146    4.90999985    2.61999989
   15.55361176  157.76499939    4.90999985    2.61999989
   15.55666733  154.22700500    4.90999985    2.64000010
   15.56000042  160.24499512    4.90999985    2.59999990
   15.56083393  158.06199646    4.90999985    2.61999989
   15.56361103  153.39900208    4.90999985    2.61999989
   15.56666660  150.13299561    4.90999985    2.61999989
   15.56999969  155.75399780    4.90999985    2.61999989
   15.57333374  150.07200623    4.90999985    2.61999989
   15.57638836  158.17300415    4.90999985    2.61999989
   15.57972240  159.97500610    4.90999985    2.61999989
   15.58583260  159.97500610    4.90999985    2.59999990
   15.59000015  147.91000366    4.90999985    2.61999989
   15.59305477  164.41200256    4.90999985    2.61999989
   15.59416676  157.26600647    4.90999985    2.61999989
   15.59694386  168.41200256    4.90999985    2.61999989
   15.60000038  145.73500061    4.90999985    2.59999990
   15.60333347  155.56599426    4.90999985    2.61999989
   15.60666752  145.34800720    4.90999985    2.61999989
   15.60972214  151.11399841    4.90999985    2.59999990
   15.61305618  158.06700134    4.90999985    2.61999989
   15.61638927  156.65400696    4.90999985    2.61999989
   15.61944485  151.15100098    4.90999985    2.61999989
   15.62277794  152.88099670    4.90999985    2.61999989
   15.62861156  152.88099670    4.90999985    2.61999989
   15.63277817  151.36500549    4.90999985    2.61999989
   15.63611126  151.23300171    4.90999985    2.61999989
   15.63916683  150.60400391    4.90999985    2.61999989
   15.64249992  157.59300232    4.90999985    2.64000010
   15.64555550  144.41099548    4.90999985    2.64000010
   15.64888859  138.97399902    4.90999985    2.61999989
   15.65222168  136.62800598    4.90999985    2.64000010
   15.65527725  149.72999573    4.90999985    2.61999989
   15.65861034  136.94200134    4.90999985    2.61999989
   15.66083336  141.44799805    4.90999985    2.61999989
   15.66222191  153.55299377    4.90999985    2.64000010
   15.66527748  146.74299622    4.90999985    2.64000010
   15.67138958  146.74299622    4.90999985    2.61999989
   15.67555618  152.91999817    4.90999985    2.61999989
   15.67888927  147.73399353    4.90999985    2.64000010
   15.68194485  148.97099304    4.90999985    2.61999989
   15.68527794  141.55599976    4.90999985    2.61999989
   15.68861103  150.32899475    4.90999985    2.61999989
   15.69166660  153.42900085    4.90999985    2.61999989
   15.69416714  155.19200134    4.90999985    2.61999989
   15.69555569  144.89300537    4.90999985    2.61999989
   15.69861126  155.72000122    4.90999985    2.59999990
   15.70194435  155.77000427    4.90999985    2.61999989
   15.70527744  144.36500549    4.90999985    2.61999989
   15.70833302  143.90499878    4.90999985    2.59999990
   15.71444416  143.90499878    4.90999985    2.59999990
   15.71833324  152.38099670    4.90999985    2.61999989
   15.72166634  152.67300415    4.90999985    2.61999989
   15.72499943  149.64100647    4.90999985    2.61999989
   15.72749996  147.55599976    4.90999985    2.61999989
   15.72861099  150.06500244    4.90999985    2.61999989
   15.73166656  146.99000549    4.90999985    2.59999990
   15.73500061  153.43299866    4.90999985    2.61999989
   15.73833370  146.37399292    4.90999985    2.61999989
   15.74138927  159.40199280    4.90999985    2.59999990
   15.74472237  149.12699890    4.90999985    2.61999989
   15.74805546  151.97500610    4.90999985    2.61999989
   15.75111103  152.22399902    4.90999985    2.61999989
   15.75722218  152.22399902    4.90999985    2.61999989
   15.76138878  146.80599976    4.90999985    2.61999989
   15.76444435  149.28799438    4.90999985    2.61999989
   15.76777744  140.59100342    4.90999985    2.61999989
   15.77111053  141.70199585    4.90999985    2.64000010
   15.77416611  149.64300537    4.90999985    2.64000010
   15.77750015  141.23300171    4.90999985    2.64000010
   15.78055573  135.89500427    4.90999985    2.64000010
   15.78388977  145.52900696    4.90999985    2.61999989
   15.78722286  144.79299927    4.90999985    2.64000010
   15.79027843  143.18899536    4.90999985    2.64000010
   15.79361153  138.41299438    4.90999985    2.64000010
   15.79416752  152.71899414    4.90999985    2.64000010
   15.80000019  152.71899414    4.90999985    2.64000010
   15.80416679  140.07499695    4.90999985    2.64000010
   15.80749989  145.57899475    4.90999985    2.64000010
   15.81055546  148.84899902    4.90999985    2.61999989
   15.81388950  143.52499390    4.90999985    2.64000010
   15.81694412  148.88900757    4.90999985    2.64000010
   15.82027817  146.72099304    4.90999985    2.61999989
   15.82361126  149.03700256    4.90999985    2.64000010
   15.82666683  142.11799622    4.90999985    2.64000010
   15.82750034  135.51499939    4.90999985    2.61999989
   15.83027744  139.34700012    4.90999985    2.64000010
   15.83361053  139.77799988    4.90999985    2.64000010
   15.83666611  145.51899719    4.90999985    2.64000010
   15.84277725  145.51899719    4.90999985    2.64000010
   15.84694386  137.03900146    4.90999985    2.61999989
   15.85027790  144.59500122    4.90999985    2.64000010
   15.85361195  141.25500488    4.90999985    2.64000010
   15.85666752  139.99699402    4.90999985    2.61999989
   15.86000061  142.71699524    4.90999985    2.61999989
   15.86083412  145.29499817    4.90999985    2.61999989
   15.86361122  146.13800049    4.90999985    2.64000010
   15.86694431  133.91099548    4.90999985    2.64000010
   15.86999989  141.00599670    4.90999985    2.64000010
   15.87333393  143.34199524    4.90999985    2.64000010
   15.87666702  150.80999756    4.90999985    2.64000010
   15.87972260  143.10699463    4.90999985    2.64000010
   15.88583279  143.10699463    4.90999985    2.64000010
   15.89000034  140.72000122    4.90999985    2.64000010
   15.89305496  148.19799805    4.90999985    2.64000010
   15.89416695  148.38200378    4.90999985    2.64000010
   15.89666653  145.10499573    4.90999985    2.61999989
   15.89999962  140.43899536    4.90999985    2.64000010
   15.90305519  132.75199890    4.90999985    2.61999989
   15.90638828  138.30299377    4.90999985    2.64000010
   15.90944386  148.58900452    4.90999985    2.61999989
   15.91277695  139.33299255    4.90999985    2.61999989
   15.91611099  141.25799561    4.90999985    2.64000010
   15.91916656  138.53300476    4.90999985    2.64000010
   15.92250061  145.14399719    4.90999985    2.61999989
   15.92861176  145.14399719    4.90999985    2.61999989
   15.93277836  144.97599792    4.90999985    2.61999989
   15.93583298  145.41999817    4.90999985    2.61999989
   15.93916702  147.30200195    4.90999985    2.61999989
   15.94250011  147.03399658    4.90999985    2.61999989
   15.94555569  149.12300110    4.90999985    2.64000010
   15.94888878  141.75100708    4.90999985    2.64000010
   15.95222187  144.44799805    4.90999985    2.61999989
   15.95527744  148.01199341    4.90999985    2.64000010
   15.95861053  143.46200562    4.90999985    2.61999989
   15.96083355  144.55200195    4.90999985    2.61999989
   15.96222210  141.49699402    4.90999985    2.64000010
   15.96555519  140.58700562    4.90999985    2.64000010
   15.97138882  140.58700562    4.90999985    2.61999989
   15.97555542  147.29600525    4.90999985    2.61999989
   15.97888851  150.14199829    4.90999985    2.61999989
   15.98194408  141.47900391    4.90999985    2.61999989
   15.98527813  136.50700378    4.90999985    2.64000010
   15.98861122  143.43099976    4.90999985    2.64000010
   15.99166679  143.46099854    4.90999985    2.64000010
   15.99416733  141.86099243    4.90999985    2.64000010
   15.99527836  147.05799866    4.90999985    2.61999989
   15.99861145  141.43699646    4.90999985    2.61999989
   16.00166702  143.96099854    4.90999985    2.61999989
   16.00499916  140.30900574    4.90999985    2.59999990
   16.00805473  146.40800476    4.90999985    2.61999989
   16.01416588  146.40800476    4.90999985    2.64000010
   16.01833344  141.59800720    4.90999985    2.64000010
   16.02166557  137.05700684    4.90999985    2.61999989
   16.02472115  146.46699524    4.90999985    2.61999989
   16.02750015  145.19099426    4.90999985    2.61999989
   16.02861023  141.42900085    4.90999985    2.61999989
   16.03194427  141.02799988    4.90999985    2.61999989
   16.03499985  147.40899658    4.90999985    2.61999989
   16.03833199  136.83099365    4.90999985    2.61999989
   16.04138756  145.32299805    4.90999985    2.61999989
   16.04472160  140.97000122    4.90999985    2.61999989
   16.04805565  148.97900391    4.90999985    2.64000010
   16.05111122  144.65800476    4.90999985    2.64000010
   16.05722237  144.65800476    4.90999985    2.64000010
   16.06110954  145.51100159    4.90999985    2.64000010
   16.06444359  145.43099976    4.90999985    2.61999989
   16.06777954  152.08500671    4.90999985    2.64000010
   16.07083511  132.31500244    4.90999985    2.61999989
   16.07416725  142.02900696    4.90999985    2.64000010
   16.07750130  130.75399780    4.90999985    2.64000010
   16.08055687  136.61900330    4.90999985    2.64000010
   16.08388901  138.52600098    4.90999985    2.64000010
   16.08694458  136.28599548    4.90999985    2.66000009
   16.09027863  140.12100220    4.90999985    2.61999989
   16.09361267  144.28900146    4.90999985    2.64000010
   16.09416771  134.47700500    4.90999985    2.64000010
   16.10000038  134.47700500    4.90999985    2.64000010
   16.10416794  141.28100586    4.90999985    2.64000010
   16.10722351  138.78900146    4.90999985    2.64000010
   16.11055565  141.10000610    4.90999985    2.64000010
   16.11388969  135.68699646    4.90999985    2.64000010
   16.11694527  139.47700500    4.90999985    2.64000010
   16.12027740  139.85400391    4.90999985    2.64000010
   16.12361145  140.62699890    4.90999985    2.61999989
   16.12666702  145.80000305    4.90999985    2.64000010
   16.12750053  143.05099487    4.90999985    2.64000010
   16.13027763  138.77900696    4.90999985    2.61999989
   16.13361168  144.38600159    4.90999985    2.61999989
   16.13666725  140.84899902    4.90999985    2.61999989
   16.14277840  140.84899902    4.90999985    2.61999989
   16.14694405  143.98899841    4.90999985    2.61999989
   16.15027809  147.13000488    4.90999985    2.61999989
   16.15333366  149.28100586    4.90999985    2.61999989
   16.15666580  139.85600281    4.90999985    2.64000010
   16.15972137  143.05000305    4.90999985    2.61999989
   16.16083336  147.54299927    4.90999985    2.64000010
   16.16333389  141.72700500    4.90999985    2.64000010
   16.16666603  147.39900208    4.90999985    2.61999989
   16.16972160  144.23500061    4.90999985    2.61999989
   16.17305565  143.96699524    4.90999985    2.61999989
   16.17638779  148.56700134    4.90999985    2.61999989
   16.17944336  143.48100281    4.90999985    2.61999989
   16.18555450  143.48100281    4.90999985    2.64000010
   16.18972206  140.39500427    4.90999985    2.64000010
   16.19305420  134.16400146    4.90999985    2.64000010
   16.19416618  130.98800659    4.90999985    2.66000009
   16.19666672  139.71299744    4.90999985    2.64000010
   16.20000076  134.99800110    4.90999985    2.64000010
   16.20305634  135.64599609    4.90999985    2.61999989
   16.20639038  133.65400696    4.90999985    2.64000010
   16.20972252  147.65499878    4.90999985    2.64000010
   16.21277809  140.19700623    4.90999985    2.64000010
   16.21611214  146.44599915    4.90999985    2.64000010
   16.21916771  145.48899841    4.90999985    2.64000010
   16.22249985  139.51400757    4.90999985    2.64000010
   16.22861099  139.51400757    4.90999985    2.64000010
   16.23277855  132.03100586    4.90999985    2.61999989
   16.23583412  134.34599304    4.90999985    2.64000010
   16.23916626  150.40600586    4.90999985    2.64000010
   16.24222183  149.06399536    4.90999985    2.61999989
   16.24555588  139.38499451    4.90999985    2.64000010
   16.24888992  141.06599426    4.90999985    2.64000010
   16.25194359  139.93400574    4.90999985    2.64000010
   16.25527763  142.80700684    4.90999985    2.66000009
   16.25861168  135.68899536    4.90999985    2.64000010
   16.26083374  138.25300598    4.90999985    2.64000010
   16.26222229  142.33799744    4.90999985    2.64000010
   16.26555634  142.35499573    4.90999985    2.64000010
   16.27138901  142.35499573    4.90999985    2.64000010
   16.27555466  139.07800293    4.90999985    2.61999989
   16.27861023  135.73599243    4.90999985    2.61999989
   16.28194427  141.31900024    4.90999985    2.61999989
   16.28527641  133.64799500    4.90999985    2.64000010
   16.28833199  145.51199341    4.90999985    2.64000010
   16.29166603  137.36900330    4.90999985    2.61999989
   16.29416656  139.44700623    4.90999985    2.61999989
   16.29527664  139.98100281    4.90999985    2.61999989
   16.29861069  142.33000183    4.90999985    2.64000010
   16.30166626  141.05599976    4.90999985    2.61999989
   16.30499840  142.64599609    4.90999985    2.61999989
   16.30833244  142.39100647    4.90999985    2.61999989
   16.31416512  142.39100647    4.90999985    2.64000010
   16.31833458  137.58900452    4.90999985    2.61999989
   16.32166672  137.17599487    4.90999985    2.61999989
   16.32472229  136.56700134    4.90999985    2.64000010
   16.32750130  141.14199829    4.90999985    2.64000010
   16.32833481  134.94099426    4.90999985    2.64000010
   16.33166695  131.41200256    4.90999985    2.61999989
   16.33472252  141.02999878    4.90999985    2.61999989
   16.33805656  145.54699707    4.90999985    2.64000010
   16.34138870  134.48100281    4.90999985    2.61999989
   16.34444427  130.80200195    4.90999985    2.61999989
   16.34777832  139.07200623    4.90999985    2.61999989
   16.35083389  133.64700317    4.90999985    2.61999989
   16.35694504  133.64700317    4.90999985    2.64000010
   16.36111069  133.36500549    4.90999985    2.61999989
   16.36444473  142.15400696    4.90999985    2.61999989
   16.36750031  139.61199951    4.90999985    2.64000010
   16.37083435  141.74899292    4.90999985    2.61999989
   16.37416649  137.41099548    4.90999985    2.61999989
   16.37722206  138.90899658    4.90999985    2.61999989
   16.38055611  144.47500610    4.90999985    2.61999989
   16.38388824  138.86999512    4.90999985    2.61999989
   16.38694382  139.13200378    4.90999985    2.61999989
   16.39027786  135.37300110    4.90999985    2.61999989
   16.39333344  138.26800537    4.90999985    2.59999990
   16.39444351  139.40899658    4.90999985    2.59999990
   16.39999962  139.40899658    4.90999985    2.61999989
   16.40388870  130.75700378    4.90999985    2.61999989
   16.40722275  135.46200562    4.90999985    2.61999989
   16.41055489  136.24699402    4.90999985    2.61999989
   16.42805481  140.17100525    4.90999985    2.61999989
   16.43055534  139.21499634    4.90999985    2.64000010
   16.43361092  139.04600525    4.90999985    2.61999989
   16.43694305  147.97300720    4.90999985    2.64000010
   16.44277763  147.97300720    4.90999985    2.61999989
   16.44694328  134.68299866    4.90999985    2.64000010
   16.45027924  137.37300110    4.90999985    2.64000010
   16.45361137  133.63900757    4.90999985    2.64000010
   16.45666695  136.13600159    4.90999985    2.64000010
   16.46000099  141.55799866    4.90999985    2.61999989
   16.46111107  137.44500732    4.90999985    2.61999989
   16.46361160  138.42700195    4.90999985    2.64000010
   16.46694565  139.78599548    4.90999985    2.61999989
   16.47027779  137.63200378    4.90999985    2.61999989
   16.47333336  137.01400757    4.90999985    2.61999989
   16.47666740  141.42100525    4.90999985    2.64000010
   16.48000145  140.82400513    4.90999985    2.59999990
   16.48583412  140.82400513    4.90999985    2.61999989
   16.48999977  135.76400757    4.90999985    2.61999989
   16.49305534  145.40600586    4.90999985    2.61999989
   16.49472237  141.37899780    4.90999985    2.61999989
   16.49666786  139.26800537    4.90999985    2.61999989
   16.50000000  137.00599670    4.90999985    2.61999989
   16.50305557  134.79200745    4.90999985    2.64000010
   16.50638962  138.69500732    4.90999985    2.61999989
   16.50972176  136.43299866    4.90999985    2.61999989
   16.51277733  132.93299866    4.90999985    2.61999989
   16.51611137  145.61099243    4.90999985    2.61999989
   16.51944351  139.75399780    4.90999985    2.61999989
   16.52249908  145.26699829    4.90999985    2.61999989
   16.52861023  145.26699829    4.90999985    2.64000010
   16.53277779  141.22900391    4.90999985    2.64000010
   16.53583336  141.66099548    4.90999985    2.64000010
   16.53916550  142.58599854    4.90999985    2.64000010
   16.54249954  139.80299377    4.90999985    2.64000010
   16.54555511  140.12600708    4.90999985    2.61999989
   16.54888916  140.93600464    4.90999985    2.64000010
   16.55222130  143.32499695    4.90999985    2.64000010
   16.55527687  141.66600037    4.90999985    2.64000010
   16.55861092  141.55700684    4.90999985    2.61999989
   16.56138802  136.87399292    4.90999985    2.64000010
   16.56222153  142.05299377    4.90999985    2.64000010
   16.56555557  141.28399658    4.90999985    2.64000010
   16.57139015  141.28399658    4.90999985    2.64000010
   16.57555580  142.58200073    4.90999985    2.64000010
   16.57888985  144.17199707    4.90999985    2.64000010
   16.58194542  138.32299805    4.90999985    2.64000010
   16.58527756  147.52699280    4.90999985    2.61999989
   16.58861160  139.22599792    4.90999985    2.64000010
   16.59166718  141.23899841    4.90999985    2.64000010
   16.59472275  145.53799438    4.90999985    2.64000010
   16.59527779  145.54400635    4.90999985    2.61999989
   16.59861183  145.92199707    4.90999985    2.61999989
   16.60194397  143.09300232    4.90999985    2.64000010
   16.60499954  141.42300415    4.90999985    2.61999989
   16.60833359  146.58099365    4.90999985    2.61999989
   16.61416626  146.58099365    4.90999985    2.64000010
   16.61833382  140.64199829    4.90999985    2.61999989
   16.62166595  142.95799255    4.90999985    2.61999989
   16.62500000  144.08999634    4.90999985    2.61999989
   16.62805557  145.65699768    4.90999985    2.61999989
   16.62833405  140.28700256    4.90999985    2.61999989
   16.63166618  147.21699524    4.90999985    2.64000010
   16.63500023  137.64500427    4.90999985    2.64000010
   16.63805580  139.48199463    4.90999985    2.61999989
   16.64138794  144.94500732    4.90999985    2.64000010
   16.64472198  140.62600708    4.90999985    2.61999989
   16.64777756  143.73100281    4.90999985    2.64000010
   16.65111160  146.07099915    4.90999985    2.61999989
   16.65722275  146.07099915    4.90999985    2.66000009
   16.66138840  147.55599976    4.90999985    2.59999990
   16.66166687  139.05299377    4.90999985    2.64000010
   16.66499901  146.49600220    4.90999985    2.64000010
   16.66833305  147.77099609    4.90999985    2.64000010
   16.67138863  144.82099915    4.90999985    2.64000010
   16.67472076  148.84800720    4.90999985    2.64000010
   16.67777634  146.97000122    4.90999985    2.64000010
   16.68111038  143.53500366    4.90999985    2.64000010
   16.68444443  146.24299622    4.90999985    2.64000010
   16.68750000  146.64199829    4.90999985    2.64000010
   16.69083214  144.79600525    4.90999985    2.61999989
   16.69416618  140.73399353    4.90999985    2.64000010
   16.69472122  138.41299438    4.90999985    2.64000010
   16.70000076  138.41299438    4.90999985    2.64000010
   16.70416832  147.56300354    4.90999985    2.64000010
   16.70722389  141.25500488    4.90999985    2.64000010
   16.71055603  144.74499512    4.90999985    2.61999989
   16.71389008  145.13900757    4.90999985    2.61999989
   16.71694565  143.63299561    4.90999985    2.61999989
   16.72027779  142.15499878    4.90999985    2.64000010
   16.72361183  142.19500732    4.90999985    2.61999989
   16.72666740  149.97799683    4.90999985    2.64000010
   16.72805595  145.00500488    4.90999985    2.64000010
   16.73027802  153.34300232    4.90999985    2.61999989
   16.73361206  144.93299866    4.90999985    2.61999989
   16.73694420  143.45399475    4.90999985    2.64000010
   16.74277878  143.45399475    4.90999985    2.61999989
   16.74694443  139.61000061    4.90999985    2.61999989
   16.75027847  151.02999878    4.90999985    2.64000010
   16.75333405  146.30999756    4.90999985    2.61999989
   16.75666618  153.68699646    4.90999985    2.61999989
   16.76000023  151.47900391    4.90999985    2.61999989
   16.76138878  148.21099854    4.90999985    2.64000010
   16.76333427  149.09500122    4.90999985    2.64000010
   16.76666641  147.30400085    4.90999985    2.61999989
   16.77000046  144.25999451    4.90999985    2.61999989
   16.77305603  152.80000305    4.90999985    2.61999989
   16.77638817  146.00300598    4.90999985    2.61999989
   16.77972221  146.58999634    4.90999985    2.64000010
   16.78555489  146.58999634    4.90999985    2.61999989
   16.78972244  152.86500549    4.90999985    2.64000010
   16.79305458  140.57299805    4.90999985    2.64000010
   16.79472160  152.75000000    4.90999985    2.61999989
   16.79666710  150.15499878    4.90999985    2.61999989
   16.79999924  154.00100708    4.90999985    2.61999989
   16.80333328  148.05400085    4.90999985    2.61999989
   16.80638885  151.25500488    4.90999985    2.61999989
   16.80972099  147.07699585    4.90999985    2.61999989
   16.81305504  150.47099304    4.90999985    2.61999989
   16.81611061  153.63699341    4.90999985    2.61999989
   16.81944466  147.39500427    4.90999985    2.61999989
   16.82250023  155.07200623    4.90999985    2.61999989
   16.82861137  155.07200623    4.90999985    2.61999989
   16.83277893  143.74699402    4.90999985    2.61999989
   16.83583450  148.88900757    4.90999985    2.61999989
   16.83916664  159.48800659    4.90999985    2.61999989
   16.84222221  155.83799744    4.90999985    2.61999989
   16.84555626  161.42500305    4.90999985    2.61999989
   16.84889030  153.34300232    4.90999985    2.61999989
   16.85194397  152.90199280    4.90999985    2.61999989
   16.85527802  142.80799866    4.90999985    2.61999989
   16.85861206  165.50700378    4.90999985    2.61999989
   16.86138916  142.22799683    4.90999985    2.61999989
   16.86194420  163.89300537    4.90999985    2.61999989
   16.86527824  154.45100403    4.90999985    2.61999989
   16.87138939  154.45100403    4.90999985    2.61999989
   16.87555504  140.16400146    4.90999985    2.61999989
   16.87861061  152.91299438    4.90999985    2.61999989
   16.88194466  158.77699280    4.90999985    2.61999989
   16.88527679  158.91799927    4.90999985    2.61999989
   16.88833237  154.51199341    4.90999985    2.61999989
   16.89166641  150.06300354    4.90999985    2.61999989
   16.89472198  155.82299805    4.90999985    2.61999989
   16.89527702  149.37500000    4.90999985    2.61999989
   16.89861107  143.13600159    4.90999985    2.61999989
   16.90194321  151.98300171    4.90999985    2.61999989
   16.90499878  153.84599304    4.90999985    2.61999989
   16.90833282  143.02499390    4.90999985    2.61999989
   16.91416550  143.02499390    4.90999985    2.61999989
   16.91833305  157.19200134    4.90999985    2.61999989
   16.92166519  144.22799683    4.90999985    2.61999989
   16.92472076  154.42100525    4.90999985    2.61999989
   16.92805481  164.75999451    4.90999985    2.61999989
   16.92833328  154.32499695    4.90999985    2.61999989
   16.93166542  152.33599854    4.90999985    2.61999989
   16.93499947  154.46400452    4.90999985    2.61999989
   16.93805504  158.53599548    4.90999985    2.61999989
   16.94138718  151.23399353    4.90999985    2.61999989
   16.94472122  159.70199585    4.90999985    2.64000010
   16.94777679  141.01800537    4.90999985    2.59999990
   16.95111275  151.79299927    4.90999985    2.64000010
   16.95694542  151.79299927    4.90999985    2.64000010
   16.96111107  155.03300476    4.90999985    2.64000010
   16.96166801  157.12899780    4.90999985    2.61999989
   16.96500015  154.79200745    4.90999985    2.61999989
   16.96805573  158.93400574    4.90999985    2.61999989
   16.97138977  161.11799622    4.90999985    2.61999989
   16.97472191  156.53700256    4.90999985    2.61999989
   16.97777748  156.86799622    4.90999985    2.61999989
   16.98111153  154.25500488    4.90999985    2.61999989
   16.98416710  155.26400757    4.90999985    2.61999989
   16.98750114  161.77600098    4.90999985    2.61999989
   16.99083328  157.78599548    4.90999985    2.61999989
   16.99388885  152.94799805    4.90999985    2.61999989
   16.99500084  156.15899658    4.90999985    2.61999989
   17.00000000  156.15899658    4.90999985    2.64000010
   17.00388908  148.95100403    4.90999985    2.64000010
   17.00722313  156.83200073    4.90999985    2.61999989
   17.01055527  157.33399963    4.90999985    2.64000010
   17.01361084  159.49000549    4.90999985    2.64000010
   17.01694489  156.56799316    4.90999985    2.61999989
   17.02027702  148.66900635    4.90999985    2.64000010
   17.02333260  137.05999756    4.90999985    2.64000010
   17.02666664  146.46600342    4.90999985    2.64000010
   17.02833366  144.39300537    4.90999985    2.61999989
   17.03027725  151.09899902    4.90999985    2.64000010
   17.03333282  150.99499512    4.90999985    2.64000010
   17.03666687  153.49299622    4.90999985    2.59999990
   17.04277802  153.49299622    4.90999985    2.61999989
   17.04694366  146.48199463    4.90999985    2.61999989
   17.04999924  141.57200623    4.90999985    2.61999989
   17.05333328  137.07800293    4.90999985    2.64000010
   17.05666542  150.33299255    4.90999985    2.64000010
   17.05972099  143.56900024    4.90999985    2.61999989
   17.06166649  144.41400146    4.90999985    2.64000010
   17.06361008  143.79600525    4.90999985    2.61999989
   17.06666756  146.50500488    4.90999985    2.61999989
   17.07000160  146.79100037    4.90999985    2.61999989
   17.07333374  149.35499573    4.90999985    2.61999989
   17.07638931  146.63400269    4.90999985    2.61999989
   17.07972336  139.41099548    4.90999985    2.61999989
   17.08555603  139.41099548    4.90999985    2.61999989
   17.08972359  146.63800049    4.90999985    2.61999989
   17.09305573  148.25900269    4.90999985    2.59999990
   17.09500122  140.61599731    4.90999985    2.64000010
   17.09666824  151.58700562    4.90999985    2.61999989
   17.09972191  146.81700134    4.90999985    2.59999990
   17.10305595  151.24899292    4.90999985    2.61999989
   17.10639000  138.99000549    4.90999985    2.59999990
   17.10944557  143.69599915    4.90999985    2.59999990
   17.11277771  144.17199707    4.90999985    2.61999989
   17.11611176  145.22000122    4.90999985    2.59999990
   17.11916733  152.88299561    4.90999985    2.59999990
   17.12249947  147.81199646    4.90999985    2.61999989
   17.12833405  147.81199646    4.90999985    2.61999989
   17.13249969  153.65100098    4.90999985    2.61999989
   17.13583374  147.46400452    4.90999985    2.61999989
   17.13888931  141.58099365    4.90999985    2.61999989
   17.14222145  148.23599243    4.90999985    2.61999989
   17.14555550  145.97900391    4.90999985    2.59999990
   17.14861107  146.21200562    4.90999985    2.61999989
   17.15194321  137.66200256    4.90999985    2.59999990
   17.15527725  144.74800110    4.90999985    2.61999989
   17.15833282  143.84500122    4.90999985    2.61999989
   17.16166687  146.70899963    4.90999985    2.61999989
   17.16222191  144.67100525    4.90999985    2.61999989
   17.16527748  141.59199524    4.90999985    2.59999990
   17.17138863  141.59199524    4.90999985    2.61999989
   17.17527771  151.35899353    4.90999985    2.61999989
   17.17860985  162.65899658    4.90999985    2.61999989
   17.18194389  145.55900574    4.90999985    2.61999989
   17.18499947  140.75199890    4.90999985    2.64000010
   17.18833160  141.67199707    4.90999985    2.61999989
   17.19166565  150.04699707    4.90999985    2.59999990
   17.19472122  149.65100098    4.90999985    2.61999989
   17.19555473  140.63099670    4.90999985    2.64000010
   17.19833183  148.02299500    4.90999985    2.61999989
   17.20166779  141.69299316    4.90999985    2.61999989
   17.20499992  145.52799988    4.90999985    2.64000010
   17.20805550  152.37100220    4.90999985    2.61999989
   17.21416664  152.37100220    4.90999985    2.61999989
   17.21833420  154.36199951    4.90999985    2.61999989
   17.22138977  149.85099792    4.90999985    2.61999989
   17.22472191  151.04699707    4.90999985    2.61999989
   17.22805595  152.93499756    4.90999985    2.64000010
   17.22888947  138.56900024    4.90999985    2.64000010
   17.23139000  152.59500122    4.90999985    2.61999989
   17.23472214  145.51499939    4.90999985    2.61999989
   17.23805618  151.57800293    4.90999985    2.59999990
   17.24111176  147.88800049    4.90999985    2.61999989
   17.24444389  152.37500000    4.90999985    2.61999989
   17.24777794  154.29200745    4.90999985    2.61999989
   17.25083351  141.44200134    4.90999985    2.59999990
   17.25694466  141.44200134    4.90999985    2.61999989
   17.26111031  141.55799866    4.90999985    2.59999990
   17.26222229  150.37300110    4.90999985    2.59999990
   17.26472282  140.20599365    4.90999985    2.59999990
   17.26805496  140.50999451    4.90999985    2.61999989
   17.27138901  141.18499756    4.90999985    2.59999990
   17.27444458  144.36399841    4.90999985    2.61999989
   17.27777672  134.26800537    4.90999985    2.61999989
   17.28111076  140.43400574    4.90999985    2.61999989
   17.28416634  146.70399475    4.90999985    2.61999989
   17.28750038  140.32099915    4.90999985    2.61999989
   17.29055595  139.01100159    4.90999985    2.61999989
   17.29388809  151.11300659    4.90999985    2.61999989
   17.29555511  147.07600403    4.90999985    2.61999989
   17.29972076  147.07600403    4.90999985    2.61999989
   17.30388832  133.04100037    4.90999985    2.61999989
   17.30722237  140.83999634    4.90999985    2.59999990
   17.31027794  132.11799622    4.90999985    2.61999989
   17.31361008  142.83799744    4.90999985    2.59999990
   17.31694603  136.09800720    4.90999985    2.61999989
   17.32027817  134.92700195    4.90999985    2.61999989
   17.32333374  144.82099915    4.90999985    2.59999990
   17.32666779  141.13999939    4.90999985    2.59999990
   17.32888985  134.55599976    4.90999985    2.61999989
   17.33000183  143.18800354    4.90999985    2.61999989
   17.33333397  143.38800049    0.36000001    0.44000000
   17.33666801  145.81399536    0.15000001    0.07000000
   17.34277916  145.81399536    0.15000001    0.07000000
   17.34666824  142.41700745    0.15000001    0.07000000
   17.35000038  140.87300110    0.15000001    0.07000000
   17.35333443  141.10200500    0.15000001    0.07000000
   17.35639000  133.54499817    0.15000001    0.07000000
   17.35972214  134.79800415    0.15000001    0.07000000
   17.36222267  141.30700684    0.15000001    0.07000000
   17.36333466  139.89100647    0.15000001    0.07000000
   17.36666679  132.80700684    0.15000001    0.07000000
   17.37000084  141.10299683    0.15000001    0.07000000
   17.37305641  135.31199646    0.15000001    0.07000000
   17.37638855  139.44099426    0.15000001    0.07000000
   17.37972260  142.76100159    0.15000001    0.07000000
   17.38555527  142.76100159    0.15000001    0.07000000
   17.38972282  133.72999573    0.15000001    0.07000000
   17.39277840  148.45300293    0.15000001    0.07000000
   17.39555550  137.73399353    0.15000001    0.07000000
   17.39638901  136.96800232    0.15000001    0.07000000
   17.39972115  141.72200012    0.15000001    0.07000000
   17.40305519  140.62800598    0.15000001    0.07000000
   17.40611076  137.14500427    0.15000001    0.07000000
   17.40944481  131.98899841    0.15000001    0.07000000
   17.41277695  136.25199890    0.15000001    0.07000000
   17.41583252  142.61099243    0.15000001    0.07000000
   17.41916656  135.59199524    0.15000001    0.07000000
   17.42222214  128.29200745    0.15000001    0.07000000
   17.42833328  128.29200745    0.15000001    0.07000000
   17.44666672  136.80599976    0.15000001    0.07000000
   17.45000076  146.46600342    0.15000001    0.07000000
   17.45305634  146.60899353    0.15000001    0.07000000
   17.45639038  146.41299438    0.15000001    0.07000000
   17.45972252  135.71600342    0.15000001    0.07000000
   17.46277809  137.30700684    0.15000001    0.07000000
   17.46611214  134.79499817    0.15000001    0.07000000
   17.47138977  134.79499817    0.15000001    0.07000000
   17.47555542  128.82099915    0.15000001    0.07000000
   17.47888947  145.86500549    0.15000001    0.07000000
   17.47972298  139.15600586    0.15000001    0.07000000
   17.48250008  140.44700623    0.15000001    0.07000000
   17.48583412  150.89399719    0.15000001    0.07000000
   17.48888969  150.18600464    0.15000001    0.07000000
   17.49222183  137.84300232    0.15000001    0.07000000
   17.49527740  144.23100281    0.15000001    0.07000000
   17.49861145  145.11999512    0.15000001    0.07000000
   17.50194359  145.53599548    0.15000001    0.07000000
   17.50499916  143.99499512    0.15000001    0.07000000
   17.50833321  146.34300232    0.15000001    0.07000000
   17.51416588  146.34300232    0.15000001    0.07000000
   17.51833344  144.89700317    0.15000001    0.07000000
   17.52166557  139.09700012    0.15000001    0.07000000
   17.52499962  142.10699463    0.15000001    0.07000000
   17.52805519  139.35499573    0.15000001    0.07000000
   17.53138924  150.84899902    0.15000001    0.07000000
   17.53444481  140.97200012    0.15000001    0.07000000
   17.53777695  147.77799988    0.15000001    0.07000000
   17.54111099  150.11900330    0.15000001    0.07000000
   17.54416656  152.02900696    0.15000001    0.07000000
   17.54638863  142.59800720    0.15000001    0.07000000
   17.54805565  148.55200195    0.15000001    0.07000000
   17.55138779  144.35200500    0.15000001    0.07000000
   17.55722237  144.35200500    0.15000001    0.07000000
   17.56138802  159.66700745    0.15000001    0.07000000
   17.56444359  144.82400513    0.15000001    0.07000000
   17.56777954  148.98800659    0.15000001    0.07000000
   17.57083511  150.74800110    0.15000001    0.07000000
   17.57416725  134.14100647    0.15000001    0.07000000
   17.57750130  143.67799377    0.15000001    0.07000000
   17.57972336  150.58000183    0.15000001    0.07000000
   17.58111191  150.97099304    0.15000001    0.07000000
   17.58444595  140.42500305    0.15000001    0.07000000
   17.58750153  142.60699463    0.15000001    0.07000000
   17.59083366  145.05599976    0.15000001    0.07000000
   17.59388924  138.91999817    0.15000001    0.07000000
   17.60000038  138.91999817    0.15000001    0.07000000
   17.60416794  137.67799377    0.15000001    0.07000000
   17.60722351  145.53599548    0.15000001    0.07000000
   17.61055565  147.75999451    0.15000001    0.07000000
   17.61305618  144.86399841    0.15000001    0.07000000
   17.61416626  142.34199524    0.15000001    0.07000000
   17.61750031  155.69999695    0.15000001    0.07000000
   17.62055588  156.92300415    0.15000001    0.07000000
   17.62388992  149.90100098    0.15000001    0.07000000
   17.62694550  155.36999512    0.15000001    0.07000000
   17.63055611  145.88000488    0.15000001    0.07000000
   17.63361168  154.75100708    0.15000001    0.07000000
   17.63694382  148.03799438    0.15000001    0.07000000
   17.64277840  148.03799438    0.15000001    0.07000000
   17.64694405  150.92799377    0.15000001    0.07000000
   17.65027809  142.38000488    0.15000001    0.07000000
   17.65333366  153.01300049    0.15000001    0.07000000
   17.65666580  136.22999573    0.15000001    0.07000000
   17.65999985  150.61700439    0.15000001    0.07000000
   17.66305542  146.57499695    0.15000001    0.07000000
   17.66638756  147.33000183    0.15000001    0.07000000
   17.66944313  152.26899719    0.15000001    0.07000000
   17.67277718  143.31599426    0.15000001    0.07000000
   17.67611122  139.89500427    0.15000001    0.07000000
   17.67916679  134.49299622    0.15000001    0.07000000
   17.67972183  139.08999634    0.15000001    0.07000000
   17.68555450  139.08999634    0.15000001    0.07000000
   17.68972206  144.21600342    0.15000001    0.07000000
   17.69305420  147.12800598    0.15000001    0.07000000
   17.69638824  138.65600586    0.15000001    0.07000000
   17.69944382  132.48899841    0.15000001    0.07000000
   17.70277786  149.88299561    0.15000001    0.07000000
   17.70611191  137.30000305    0.15000001    0.07000000
   17.70916748  142.00500488    0.15000001    0.07000000
   17.71250153  139.96499634    0.15000001    0.07000000
   17.71333504  146.53900146    0.15000001    0.07000000
   17.71638870  146.72500610    0.15000001    0.07000000
   17.71972275  136.97599792    0.15000001    0.07000000
   17.72305679  149.91900635    0.15000001    0.07000000
   17.72861099  149.91900635    0.15000001    0.07000000
   17.73277855  136.32200623    0.15000001    0.07000000
   17.73611069  142.90899658    0.15000001    0.07000000
   17.73916626  142.78700256    0.15000001    0.07000000
   17.74250031  141.36199951    0.15000001    0.07000000
   17.74583435  140.48300171    0.15000001    0.07000000
   17.74638939  142.38200378    0.15000001    0.07000000
   17.74944496  140.18600464    0.15000001    0.07000000
   17.75277710  143.42599487    0.15000001    0.07000000
   17.75583267  150.10400391    0.15000001    0.07000000
   17.75916672  143.54400635    0.15000001    0.07000000
   17.76222229  154.67799377    0.15000001    0.07000000
   17.76555634  144.17500305    0.15000001    0.07000000
   17.77138901  144.17500305    0.15000001    0.07000000
   17.77555466  150.64100647    0.15000001    0.07000000
   17.77861023  150.50700378    0.15000001    0.07000000
   17.77972221  158.36599731    0.15000001    0.07000000
   17.78249931  151.03599548    0.15000001    0.07000000
   17.78583336  148.86000061    0.15000001    0.07000000
   17.78888893  137.19000244    0.15000001    0.07000000
   17.79222107  142.66799927    0.15000001    0.07000000
   17.79555511  134.21299744    0.15000001    0.07000000
   17.79861069  143.53300476    0.15000001    0.07000000
   17.80194283  140.85899353    0.15000001    0.07000000
   17.80555534  135.23800659    0.15000001    0.07000000
   17.80888748  129.05999756    0.15000001    0.07000000
   17.81416512  129.05999756    0.15000001    0.07000000
   17.81833458  135.55400085    0.15000001    0.07000000
   17.82166672  126.08000183    0.15000001    0.07000000
   17.82500076  146.50900269    0.15000001    0.07000000
   17.82833481  139.21299744    0.15000001    0.07000000
   17.83166695  152.28199768    0.15000001    0.07000000
   17.83555603  141.61500549    0.15000001    0.07000000
   17.83889008  137.07499695    0.15000001    0.07000000
   17.84194565  150.45500183    0.15000001    0.07000000
   17.84527779  137.86199951    0.15000001    0.07000000
   17.84638977  149.10299683    0.15000001    0.07000000
   17.84889030  154.28399658    0.15000001    0.07000000
   17.85222244  144.69099426    0.15000001    0.07000000
   17.85694504  144.69099426    0.15000001    0.07000000
   17.86111069  144.82299805    0.15000001    0.07000000
   17.86444473  139.83000183    0.15000001    0.07000000
   17.86777878  150.41299438    0.15000001    0.07000000
   17.87138939  147.34500122    0.15000001    0.07000000
   17.87500000  156.88099670    0.15000001    0.07000000
   17.87888908  151.77200317    0.15000001    0.07000000
   17.88138962  151.66000366    0.15000001    0.07000000
   17.88472176  143.74000549    0.15000001    0.07000000
   17.88805580  144.26400757    0.15000001    0.07000000
   17.89138794  144.52900696    0.15000001    0.07000000
   17.89500046  149.89799500    0.15000001    0.07000000
   17.89999962  149.89799500    0.15000001    0.07000000
   17.90416718  157.59599304    0.15000001    0.07000000
   17.90777779  155.52699280    0.15000001    0.07000000
   17.91110992  144.76300049    0.15000001    0.07000000
   17.91305542  142.85400391    0.15000001    0.07000000
   17.91472244  147.91799927    0.15000001    0.07000000
   17.91805458  147.72999573    0.15000001    0.07000000
   17.92111015  135.75799561    0.15000001    0.07000000
   17.92444420  152.88099670    0.15000001    0.07000000
   17.92777634  141.27999878    0.15000001    0.07000000
   17.93083191  128.69599915    0.15000001    0.07000000
   17.93416595  128.24000549    0.15000001    0.07000000
   17.93722153  143.92199707    0.15000001    0.07000000
   17.94277763  143.92199707    0.15000001    0.07000000
   17.94694328  141.73899841    0.15000001    0.07000000
   17.95027924  130.38999939    0.15000001    0.07000000
   17.95333481  143.65100098    0.15000001    0.07000000
   17.95666695  146.42599487    0.15000001    0.07000000
   17.95972252  151.17999268    0.15000001    0.07000000
   17.96305656  156.79499817    0.15000001    0.07000000
   17.96638870  148.80099487    0.15000001    0.07000000
   17.96944427  144.34300232    0.15000001    0.07000000
   17.97277832  134.67500305    0.15000001    0.07000000
   17.97611237  144.79400635    0.15000001    0.07000000
   17.97944450  137.69200134    0.15000001    0.07000000
   17.98000145  135.31599426    0.15000001    0.07000000
   17.98555565  135.31599426    0.15000001    0.07000000
   17.98972321  143.88000488    0.15000001    0.07000000
   17.99305534  148.41299438    0.15000001    0.07000000
   17.99611092  143.03700256    0.15000001    0.07000000
   17.99944496  140.64199829    0.15000001    0.07000000
   18.00277710  141.05900574    0.15000001    0.07000000
   18.00583267  151.07099915    0.15000001    0.07000000
   18.00916672  144.47099304    0.15000001    0.07000000
   18.01222229  146.98500061    0.15000001    0.07000000
   18.01333427  144.87100220    0.15000001    0.07000000
   18.01583290  144.86599731    0.15000001    0.07000000
   18.01916695  149.29100037    0.15000001    0.07000000
   18.02249908  151.84399414    0.15000001    0.07000000
   18.02833366  151.84399414    0.15000001    0.07000000
   18.03333282  139.73399353    0.15000001    0.07000000
   18.03722191  127.29199982    0.15000001    0.07000000
   18.04083252  135.77600098    0.15000001    0.07000000
   18.04416656  134.39199829    0.15000001    0.07000000
   18.04666710  140.38800049    0.15000001    0.07000000
   18.04777718  141.96800232    0.15000001    0.07000000
   18.05111122  141.67900085    0.15000001    0.07000000
   18.05444336  131.95199585    0.15000001    0.07000000
   18.05749893  138.45799255    0.15000001    0.07000000
   18.06083298  132.64300537    0.15000001    0.07000000
   18.06388855  134.62199402    0.15000001    0.07000000
   18.06722260  146.69599915    0.15000001    0.07000000
   18.07139015  146.69599915    0.15000001    0.07000000
   18.07555580  134.76199341    0.15000001    0.07000000
   18.07861137  136.88099670    0.15000001    0.07000000
   18.08000183  140.17100525    0.15000001    0.07000000
   18.08222389  132.55599976    0.15000001    0.07000000
   18.08555603  147.41000366    0.15000001    0.07000000
   18.08889008  139.64399719    0.15000001    0.07000000
   18.09194565  137.28900146    0.15000001    0.07000000
   18.09527779  142.01899719    0.15000001    0.07000000
   18.09833336  140.23699951    0.15000001    0.07000000
   18.10166740  136.43499756    0.15000001    0.07000000
   18.10499954  137.71400452    0.15000001    0.07000000
   18.10805511  143.81500244    0.15000001    0.07000000
   18.11416626  143.81500244    0.15000001    0.07000000
   18.11833382  143.03700256    0.15000001    0.07000000
   18.12166595  141.61599731    0.15000001    0.07000000
   18.12472153  124.78399658    0.15000001    0.07000000
   18.12805557  135.33299255    0.15000001    0.07000000
   18.13138962  137.74299622    0.15000001    0.07000000
   18.13444519  132.47200012    0.15000001    0.07000000
   18.13777733  139.38900757    0.15000001    0.07000000
   18.14083290  132.18200684    0.15000001    0.07000000
   18.14416695  130.24299622    0.15000001    0.07000000
   18.14666748  122.35099792    0.15000001    0.07000000
   18.14777756  130.19200134    0.15000001    0.07000000
   18.15111160  128.33200073    0.15000001    0.07000000
   18.15694427  128.33200073    0.15000001    0.07000000
   18.16110992  142.06300354    0.15000001    0.07000000
   18.16444397  136.20300293    0.15000001    0.07000000
   18.16777802  135.38499451    0.15000001    0.07000000
   18.17083359  132.22799683    0.15000001    0.07000000
   18.17416573  131.67100525    0.15000001    0.07000000
   18.17749977  126.84700012    0.15000001    0.07000000
   18.18000031  130.15800476    0.15000001    0.07000000
   18.18083191  129.58200073    0.15000001    0.07000000
   18.18416595  134.35400391    0.15000001    0.07000000
   18.18750000  127.60500336    0.15000001    0.07000000
   18.19055557  126.38600159    0.15000001    0.07000000
   18.19388771  137.95199585    0.15000001    0.07000000
   18.20000076  137.95199585    0.15000001    0.07000000
   18.20416832  127.40599823    0.15000001    0.07000000
   18.20722389  121.84999847    0.15000001    0.07000000
   18.21055603  136.51899719    0.15000001    0.07000000
   18.21333504  137.45899963    0.15000001    0.07000000
   18.21416664  136.24499512    0.15000001    0.07000000
   18.21750069  132.49299622    0.15000001    0.07000000
   18.22083473  129.44400024    0.15000001    0.07000000
