    HOUR (UT)   FLARE FACTOR    SKY TESTER    SUN TESTER
   11.72583294   -1.00000000   -1.00000000   -1.00000000
   12.56138897  112.63899994    0.20999999    0.41999999
   12.57194424  104.83000183    0.20999999    0.41999999
   12.57527733   85.27130127    0.20999999    0.41999999
   12.59527779   98.05400085    0.20999999    0.41999999
   12.59833336  104.01999664    0.23000000    0.41999999
   12.60166740  114.98500061    0.20999999    0.41999999
   12.60472298  106.67600250    0.20999999    0.41999999
   12.60805607  119.66899872    0.23000000    0.41999999
   12.61138916  106.66999817    1.41999996    2.17000008
   12.61555576  106.66999817    0.67000002    2.17000008
   12.61944485  113.84899902    0.51999998    2.17000008
   12.62277794  109.58599854    0.38000000    2.17000008
   12.62611103   98.95590210    0.36000001    2.17000008
   12.62861156  117.65299988    0.36000001    2.17000008
   12.62972260  108.73300171    0.36000001    2.19000006
   12.63305569  127.69300079    0.36000001    2.19000006
   12.63611126  120.86499786    0.36000001    2.19000006
   12.63944435  102.85399628    0.36000001    2.19000006
   12.64277744  117.22399902    0.36000001    2.19000006
   12.64583302  109.76699829    0.36000001    2.19000006
   12.64916611  112.86499786    0.36000001    2.19000006
   12.65249920  125.72000122    0.36000001    2.19000006
   12.65833282  125.72000122    0.36000001    2.21000004
   12.66249943  111.50800323    0.36000001    2.19000006
   12.66555500   97.39299774    0.36000001    2.19000006
   12.66888905   99.47869873    0.36000001    2.21000004
   12.67222214  111.22299957    0.36000001    2.21000004
   12.67527771   98.47799683    0.36000001    2.21000004
   12.67861176  102.08899689    0.36000001    2.21000004
   12.68166733   98.06349945    0.36000001    2.21000004
   12.68500042  107.12100220    0.36000001    2.21000004
   12.68833351  113.97499847    0.36000001    2.23000002
   12.69138908   85.50229645    0.36000001    2.21000004
   12.69472218  102.48999786    0.36000001    2.21000004
   12.69527817  105.65399933    0.36000001    2.21000004
   12.70111084  105.65399933    0.36000001    2.21000004
   12.70527744  106.40000153    0.36000001    2.21000004
   12.70861053  100.89900208    0.34000000    2.21000004
   12.71166611  106.65499878    0.34000000    2.23000002
   12.71500015  108.33599854    0.34000000    2.23000002
   12.71805477   92.82440186    0.34000000    2.23000002
   12.72138882  109.54900360    0.34000000    2.23000002
   12.72472191  104.07399750    0.34000000    2.23000002
   12.72777748   93.85669708    0.34000000    2.23000002
   12.72861099   92.79920197    0.34000000    2.23000002
   12.73138809  105.02799988    0.34000000    2.23000002
   12.73472214  115.52600098    0.34000000    2.23000002
   12.73805618  104.89199829    0.34000000    2.23000002
   12.74388885  104.89199829    0.34000000    2.23000002
   12.74805546  124.50199890    0.34000000    2.25000000
   12.75138855  124.47100067    0.34000000    2.25000000
   12.75472260  118.27999878    0.34000000    2.25000000
   12.75777817  111.06700134    0.34000000    2.25000000
   12.76111126  110.98500061    0.34000000    2.25000000
   12.76194477  124.66000366    0.34000000    2.25000000
   12.76472187   86.55829620    0.34000000    2.25000000
   12.76777744  106.16300201    0.34000000    2.23000002
   12.77111053  118.67800140    0.34000000    2.25000000
   12.77444458  126.16300201    0.34000000    2.25000000
   12.77750015  120.98300171    0.34000000    2.25000000
   12.78083324  135.43600464    0.34000000    2.25000000
   12.78694534  135.43600464    0.34000000    2.25000000
   12.79111195  121.22599792    0.34000000    2.26999998
   12.79416752  115.87400055    0.34000000    2.26999998
   12.79527855  110.51100159    0.34000000    2.26999998
   12.79805565  122.25900269    0.34000000    2.26999998
   12.80111122  121.60199738    0.34000000    2.26999998
   12.80444431  123.70899963    0.34000000    2.26999998
   12.80777836  119.37899780    0.34000000    2.26999998
   12.81083393  122.78900146    0.34000000    2.26999998
   12.81416702  123.79699707    0.34000000    2.26999998
   12.81722260  104.31400299    0.34000000    2.28999996
   12.82055569  111.50599670    0.31999999    2.26999998
   12.82388878  110.42400360    0.31999999    2.28999996
   12.82972240  110.42400360    0.31999999    2.28999996
   12.83388901  118.67400360    0.31999999    2.26999998
   12.83694458  112.97200012    0.31999999    2.26999998
   12.84027767  118.24299622    0.34000000    2.26999998
   12.84361076  129.00300598    0.31999999    2.26999998
   12.84666634  120.09400177    0.31999999    2.28999996
   12.85000038  115.94899750    0.31999999    2.28999996
   12.85305595  117.06500244    0.31999999    2.28999996
   12.85638905  117.48000336    0.31999999    2.28999996
   12.85972214  134.35699463    0.31999999    2.28999996
   12.86194515  129.41799927    0.31999999    2.28999996
   12.86333370  135.23800659    0.31999999    2.28999996
   12.86638927  127.14499664    0.31999999    2.28999996
   12.87250042  127.14499664    0.31999999    2.28999996
   12.87666702  105.05200195    0.31999999    2.30999994
   12.88000011  120.10399628    0.31999999    2.28999996
   12.88305569  116.40200043    0.31999999    2.28999996
   12.88638878  127.59400177    0.31999999    2.30999994
   12.88944435  128.26600647    0.31999999    2.30999994
   12.89277744  118.43800354    0.31999999    2.28999996
   12.89527798  129.35800171    0.31999999    2.30999994
   12.89666653  127.27600098    0.31999999    2.30999994
   12.89972210  119.46399689    0.31999999    2.30999994
   12.90305519   95.95929718    0.31999999    2.30999994
   12.90611076  127.15000153    0.31999999    2.30999994
   12.90944386  116.23300171    0.31999999    2.30999994
   12.91527748  116.23300171    0.31999999    2.30999994
   12.91944504  124.31099701    0.31999999    2.30999994
   12.92277813  137.37800598    0.31999999    2.32999992
   12.92583370  162.94000244    0.30000001    2.32999992
   12.92861176  157.06199646    0.30000001    2.32999992
   12.92972279  136.28500366    0.31999999    2.30999994
   12.93277836  157.33200073    0.30000001    2.30999994
   12.93611145  145.72599792    0.30000001    2.30999994
   12.93916702  148.36700439    0.30000001    2.32999992
   12.94250011  153.51699829    0.30000001    2.32999992
   12.94583321  149.11700439    0.30000001    2.32999992
   12.94888878  149.91499329    0.31999999    2.32999992
   12.95222187  149.81300354    0.30000001    2.32999992
   12.95833302  149.81300354    0.30000001    2.32999992
   12.96222210  159.24800110    0.30000001    2.32999992
   12.96555519  142.47300720    0.31999999    2.32999992
   12.96888828  149.02900696    0.31999999    2.32999992
   12.97194386  125.91699982    0.30000001    2.32999992
   12.97527695  151.41299438    0.30000001    2.32999992
   12.97861099  140.40699768    0.30000001    2.32999992
   12.98166656  166.80599976    0.30000001    2.32999992
   12.98500061  149.58099365    0.30000001    2.32999992
   12.98833370  151.00000000    0.30000001    2.32999992
   12.99138927  169.30700684    0.30000001    2.32999992
   12.99472237  165.71299744    0.31999999    2.32999992
   12.99527836  153.68699646    0.30000001    2.32999992
   13.00111103  153.68699646    0.30000001    2.34999990
   13.00527763  153.68099976    0.30000001    2.34999990
   13.00833321  179.87600708    0.30000001    2.34999990
   13.01166630  150.29800415    0.30000001    2.34999990
   13.01500034  147.04899597    0.30000001    2.34999990
   13.01805496  152.56700134    0.31999999    2.34999990
   13.02138901  166.91299438    0.30000001    2.34999990
   13.02444458  150.94799805    0.30000001    2.34999990
   13.02777767  143.60699463    0.30000001    2.34999990
   13.02861118  146.91999817    0.30000001    2.36999989
   13.03138828  179.92399597    0.30000001    2.34999990
   13.03444481  160.39100647    0.30000001    2.36999989
   13.03777790  161.34899902    0.30000001    2.34999990
   13.04388905  161.34899902    0.30000001    2.34999990
   13.04805565  168.44700623    0.30000001    2.34999990
   13.05138874  195.53100586    0.31999999    2.34999990
   13.05444431  200.00999451    0.30000001    2.36999989
   13.05777836  200.79600525    0.30000001    2.36999989
   13.06083393  209.58299255    0.30000001    2.36999989
   13.06194496  206.61799622    0.30000001    2.36999989
   13.06472206  211.34899902    0.30000001    2.36999989
   13.06805515  227.64199829    0.30000001    2.36999989
   13.07111073  220.62300110    0.30000001    2.36999989
   13.07444477  220.00999451    0.30000001    2.36999989
   13.07750034  238.64300537    0.30000001    2.36999989
   13.08083344  255.47700500    0.30000001    2.36999989
   13.08666611  255.47700500    0.30000001    2.36999989
   13.09083271  211.01600647    0.30000001    2.36999989
   13.09416676  236.00900269    0.30000001    2.39000010
   13.09527779  215.81300354    0.30000001    2.39000010
   13.09777737  228.40499878    0.30000001    2.36999989
   13.10083389  235.35899353    0.30000001    2.36999989
   13.10416698  248.03500366    0.30000001    2.39000010
   13.10750008  197.93299866    0.30000001    2.39000010
   13.11055565  211.56399536    0.30000001    2.39000010
   13.11388969  213.99600220    0.30000001    2.39000010
   13.11694431  239.48100281    0.30000001    2.39000010
   13.12027836  225.71000671    0.28000000    2.39000010
   13.12361145  228.79299927    0.30000001    2.39000010
   13.12972260  228.79299927    0.28000000    2.39000010
   13.13361073  250.16200256    0.28000000    2.39000010
   13.13694477  238.75500488    0.28000000    2.39000010
   13.14027786  230.13699341    0.28000000    2.40000010
   13.14333344  243.83599854    0.28000000    2.39000010
   13.14666653  261.36401367    0.30000001    2.39000010
   13.14999962  207.07400513    0.28000000    2.39000010
   13.15305519  225.20599365    0.28000000    2.39000010
   13.15638828  226.43200684    0.28000000    2.39000010
   13.15972137  211.33999634    0.28000000    2.39000010
   13.16194439  219.79100037    0.28000000    2.39000010
   13.16333294  189.72099304    0.28000000    2.39000010
   13.16638851  208.88800049    0.28000000    2.40000010
   13.17250061  208.88800049    0.28000000    2.40000010
   13.17666721  225.52400208    0.30000001    2.40000010
   13.17972279  209.09399414    0.28000000    2.40000010
   13.18305588  203.28300476    0.28000000    2.40000010
   13.18638897  209.23599243    0.28000000    2.40000010
   13.18944454  227.82000732    0.28000000    2.40000010
   13.19277763  200.93099976    0.28000000    2.40000010
   13.19527817  206.41200256    0.28000000    2.40000010
   13.19638920  217.08299255    0.28000000    2.40000010
   13.19944477  194.60600281    0.30000001    2.40000010
   13.20277786  190.88900757    0.28000000    2.40000010
   13.20611095  192.41299438    0.28000000    2.40000010
   13.20916653  209.70700073    0.28000000    2.40000010
   13.21527767  209.70700073    0.28000000    2.40000010
   13.21944427  198.88999939    0.28000000    2.40000010
   13.22277737  200.51100159    0.28000000    2.40000010
   13.22583294  197.35099792    0.28000000    2.40000010
   13.22861099  193.68200684    0.28000000    2.40000010
   13.22972202  194.46499634    0.28000000    2.40000010
   13.23277760  205.01400757    0.28000000    2.42000008
   13.23611164  191.68299866    0.28000000    2.42000008
   13.23944473  180.65699768    0.28000000    2.42000008
   13.24250031  191.24299622    0.28000000    2.42000008
   13.24583340  183.55200195    0.28000000    2.42000008
   13.24888897  188.29899597    0.28000000    2.42000008
   13.25222206  180.10699463    0.28000000    2.42000008
   13.25805569  180.10699463    0.28000000    2.42000008
   13.26222229  182.89100647    0.28000000    2.42000008
   13.26555538  178.64300537    0.28000000    2.42000008
   13.26861095  160.94700623    0.28000000    2.42000008
   13.27194405  163.91400146    0.28000000    2.42000008
   13.27527714  175.47399902    0.28000000    2.42000008
   13.27833271  169.85899353    0.28000000    2.42000008
   13.28166676  169.32800293    0.28000000    2.42000008
   13.28500080  184.16600037    0.28000000    2.42000008
   13.28805637  185.22700500    0.28000000    2.42000008
   13.29138947  167.70700073    0.28000000    2.44000006
   13.29472256  164.06599426    0.28000000    2.42000008
   13.29527855  159.89799500    0.28000000    2.42000008
   13.30111122  159.89799500    0.28000000    2.42000008
   13.30500031  158.11000061    0.28000000    2.44000006
   13.30833340  145.36799622    0.28000000    2.44000006
   13.31166649  153.86399841    0.28000000    2.44000006
   13.31472206  169.77299500    0.28000000    2.44000006
   13.31805515  157.97399902    0.28000000    2.44000006
   13.32138920  154.80400085    0.28000000    2.44000006
   13.32444477  161.44599915    0.28000000    2.44000006
   13.32777786  166.47999573    0.28000000    2.44000006
   13.32861137  170.13699341    0.28000000    2.44000006
   13.33138847  163.19099426    0.28000000    2.44000006
   13.33444405  157.18200684    0.28000000    2.44000006
   13.33777714  159.00199890    0.28000000    2.44000006
   13.34388828  159.00199890    0.28000000    2.46000004
   13.34805489  161.00799561    0.28000000    2.44000006
   13.35111141  182.25100708    0.28000000    2.46000004
   13.35444450  146.23699951    0.28000000    2.46000004
   13.35777855  170.94099426    0.28000000    2.44000006
   13.36083412  156.89199829    0.28000000    2.46000004
   13.36194515  155.12600708    0.28000000    2.44000006
   13.36444473  161.69999695    0.28000000    2.46000004
   13.36750031  149.39500427    0.28000000    2.46000004
   13.37083340  175.59599304    0.28000000    2.46000004
   13.37416649  161.10699463    0.28000000    2.44000006
   13.37722206  165.54699707    0.28000000    2.46000004
   13.38055611  148.12800598    0.28000000    2.46000004
   13.38666630  148.12800598    0.28000000    2.46000004
   13.39083290  159.22799683    0.28000000    2.46000004
   13.39416695  158.24299622    0.25999999    2.46000004
   13.39527798  151.28900146    0.25999999    2.46000004
   13.39777756  149.58700562    0.25999999    2.46000004
   13.40111065  147.31399536    0.28000000    2.46000004
   13.40416622  143.52400208    0.25999999    2.46000004
   13.40749931  156.40499878    0.28000000    2.46000004
   13.41055489  154.90199280    0.28000000    2.46000004
   13.41388893  155.56300354    0.25999999    2.46000004
   13.41722298  151.64500427    0.25999999    2.46000004
   13.42027855  148.77299500    0.25999999    2.46000004
   13.42361164  166.06399536    0.25999999    2.46000004
   13.42944431  166.06399536    0.25999999    2.46000004
   13.43361092  146.14799500    0.28000000    2.46000004
   13.43694496  141.47399902    0.25999999    2.46000004
   13.44000053  145.13000488    0.28000000    2.46000004
   13.44333363  141.00700378    0.28000000    2.46000004
   13.44666672  138.03799438    0.28000000    2.48000002
   13.44972229  144.97399902    0.28000000    2.46000004
   13.45305538  164.86199951    0.25999999    2.48000002
   13.45638847  139.03900146    0.25999999    2.48000002
   13.45944405  135.02099609    0.25999999    2.46000004
   13.46194458  145.23800659    0.25999999    2.46000004
   13.46305561  153.90699768    0.25999999    2.46000004
   13.46638870  153.09399414    0.25999999    2.46000004
   13.47249985  153.09399414    0.25999999    2.46000004
   13.47638798  148.64900208    0.25999999    2.46000004
   13.47972202  159.37300110    0.25999999    2.46000004
   13.48305511  141.78399658    0.25999999    2.48000002
   13.48611164  158.91600037    0.25999999    2.48000002
   13.48944473  148.00599670    0.25999999    2.48000002
   13.49277782  153.88999939    0.25999999    2.48000002
   13.49527836  145.44299316    0.25999999    2.48000002
   13.49638939  147.84199524    0.25999999    2.48000002
   13.49944496  141.67300415    0.25999999    2.48000002
   13.50277805  142.38800049    0.25999999    2.48000002
   13.50611115  145.49400330    0.25999999    2.48000002
   13.50916672  142.64700317    0.25999999    2.48000002
   13.51527786  142.64700317    0.25999999    2.48000002
   13.51944447  145.08399963    0.25999999    2.48000002
   13.52250004  141.93299866    0.25999999    2.48000002
   13.52583313  151.00199890    0.25999999    2.48000002
   13.52861118  146.26100159    0.25999999    2.48000002
   13.52944374  148.90800476    0.25999999    2.50000000
   13.53249931  147.05999756    0.25999999    2.48000002
   13.53583336  156.35000610    0.25999999    2.48000002
   13.53916740  140.12199402    0.25999999    2.48000002
   13.54222298  144.25599670    0.25999999    2.48000002
   13.54555607  140.42199707    0.25999999    2.48000002
   13.54888916  137.19599915    0.25999999    2.48000002
   13.55194473  164.88400269    0.25999999    2.50000000
   13.55805588  164.88400269    0.25999999    2.48000002
   13.56222248  142.42300415    0.25999999    2.50000000
   13.56555557  136.37899780    0.25999999    2.50000000
   13.56861115  134.60099792    0.25999999    2.50000000
   13.57194424  144.02400208    0.25999999    2.50000000
   13.57527733  141.84399414    0.25999999    2.48000002
   13.57833290  142.98699951    0.25999999    2.50000000
   13.58166695  140.98599243    0.25999999    2.50000000
   13.58472157  136.45399475    0.25999999    2.50000000
   13.58805561  128.08900452    0.25999999    2.50000000
   13.59138870  150.73899841    0.25999999    2.50000000
   13.59472179  137.36199951    0.25999999    2.50000000
   13.59527779  140.69799805    0.25999999    2.50000000
   13.61611176  140.69799805    0.25999999    2.50000000
   13.61999989  135.39799500    0.25000000    2.50000000
   13.62333393  140.23699951    0.25999999    2.50000000
   13.62666702  138.55700684    0.25999999    2.50000000
   13.62861156  137.24099731    0.25999999    2.51999998
   13.63027763  136.79499817    0.25999999    2.50000000
   13.63361073  137.86199951    0.25000000    2.50000000
   13.63666630  141.38000488    0.25000000    2.50000000
   13.64000034  139.31799316    0.25999999    2.50000000
   13.64305496  144.51899719    0.25999999    2.50000000
   13.64638901  147.50300598    0.25000000    2.50000000
   13.64972210  150.32000732    0.25999999    2.51999998
   13.65277767  144.62899780    0.25000000    2.50000000
   13.65888882  144.62899780    0.25000000    2.51999998
   13.66277695  135.42999268    0.25000000    2.50000000
   13.66611099  139.59700012    0.25000000    2.51999998
   13.66944504  137.06799316    0.25000000    2.51999998
   13.67250061  133.10000610    0.25000000    2.51999998
   13.67583370  130.90899658    0.25000000    2.51999998
   13.67916679  143.76199341    0.25000000    2.51999998
   13.68222237  147.00799561    0.25000000    2.51999998
   13.68555546  158.37800598    0.25000000    2.51999998
   13.68861103  150.61900330    0.25000000    2.51999998
   13.69194412  137.54200745    0.25000000    2.51999998
   13.69527817  149.35400391    0.25000000    2.51999998
   13.69583321  134.50100708    0.25000000    2.51999998
   13.70166683  134.50100708    0.25000000    2.51999998
   13.70583344  140.00000000    0.25000000    2.53999996
   13.70888901  144.85699463    0.25000000    2.51999998
   13.71222210  135.51899719    0.25000000    2.51999998
   13.71527767  133.48199463    0.25000000    2.51999998
   13.71861076  146.53500366    0.25999999    2.51999998
   13.72194386  129.60600281    0.25000000    2.51999998
   13.72499943  127.68800354    0.25000000    2.51999998
   13.72833252  140.19299316    0.25000000    2.51999998
   13.72916603  139.38699341    0.25000000    2.51999998
   13.73194408  128.97900391    0.25000000    2.51999998
   13.73527813  127.60500336    0.25000000    2.53999996
   13.73861122  134.04899597    0.25000000    2.51999998
   13.74444485  134.04899597    0.25000000    2.53999996
   13.74861145  139.99400330    0.25000000    2.53999996
   13.75166702  136.98599243    0.25000000    2.53999996
   13.75500011  130.08599854    0.25000000    2.53999996
   13.75833321  132.93400574    0.25000000    2.53999996
   13.76138878  124.17199707    0.25000000    2.51999998
   13.76249981  125.84600067    0.25000000    2.51999998
   13.76500034  124.70800018    0.25000000    2.53999996
   13.76833344  122.26399994    0.25000000    2.53999996
   13.77166653  143.93400574    0.25000000    2.53999996
   13.77472210  132.04499817    0.25000000    2.53999996
   13.77805519  127.99600220    0.25000000    2.53999996
   13.78111076  123.11900330    0.25000000    2.53999996
   13.78722286  123.11900330    0.25000000    2.53999996
   13.79138947  132.38099670    0.25000000    2.53999996
   13.79472256  123.80300140    0.25000000    2.53999996
   13.79583359  128.67399597    0.25000000    2.53999996
   13.79805565  135.15699768    0.25000000    2.53999996
   13.80138874  121.56999969    0.25000000    2.53999996
   13.80472279  120.09700012    0.25000000    2.53999996
   13.80777836  118.85299683    0.25000000    2.53999996
   13.81111145  122.10500336    0.25000000    2.53999996
   13.81416702  125.73799896    0.25000000    2.53999996
   13.81750011  123.70200348    0.25000000    2.53999996
   13.82083321  111.39700317    0.25000000    2.53999996
   13.82388878  115.80500031    0.25000000    2.53999996
   13.82999992  115.80500031    0.25000000    2.55999994
   13.83416653  120.21099854    0.25000000    2.53999996
   13.83749962  116.93099976    0.25000000    2.53999996
   13.84083271  114.80599976    0.25000000    2.53999996
   13.84388828  111.31300354    0.25000000    2.55999994
   13.84722233  120.26000214    0.25000000    2.53999996
   13.85027790  116.88300323    0.25000000    2.53999996
   13.85361195  121.94599915    0.25000000    2.53999996
   13.85694504  109.52799988    0.25000000    2.53999996
   13.86000061  122.66000366    0.25000000    2.53999996
   13.86250019  122.32599640    0.25000000    2.55999994
   13.86361122  111.31999969    0.25000000    2.55999994
   13.86694431  118.27400208    0.25000000    2.55999994
   13.87305546  118.27400208    0.25000000    2.55999994
   13.87722206  108.31500244    0.25000000    2.53999996
   13.88027763  112.13999939    0.25000000    2.53999996
   13.88361073  111.55999756    0.25000000    2.55999994
   13.88666630  117.81099701    0.25000000    2.55999994
   13.89000034  111.96499634    0.25000000    2.53999996
   13.89333344  125.43900299    0.25000000    2.55999994
   13.89583302  107.71600342    0.25000000    2.55999994
   13.89666653  108.27700043    0.25000000    2.55999994
   13.89999962  107.92800140    0.25000000    2.55999994
   13.90333271  107.17199707    0.25000000    2.55999994
   13.90638828  109.63300323    0.25000000    2.55999994
   13.90972137  119.63999939    0.25000000    2.55999994
   13.91583252  119.63999939    0.25000000    2.55999994
   13.92000008  123.96900177    0.25000000    2.55999994
   13.92305565  115.51200104    0.25000000    2.55999994
   13.92638874  121.15000153    0.25000000    2.53999996
   13.92916679  120.17700195    0.23000000    2.55999994
   13.93000031  119.35500336    0.25000000    2.55999994
   13.93333340  115.89199829    0.23000000    2.55999994
   13.93666649  131.65400696    0.23000000    2.55999994
   13.93972206  120.74299622    0.25000000    2.55999994
   13.94305515  108.99900055    0.23000000    2.55999994
   13.94611073  108.85399628    0.25000000    2.57999992
   13.94944477  120.03199768    0.25000000    2.55999994
   13.95277786  112.80100250    0.25000000    2.55999994
   13.95861053  112.80100250    0.23000000    2.55999994
   13.96277714  140.33299255    0.23000000    2.55999994
   13.96611118  113.13700104    0.25000000    2.55999994
   13.96916580  112.67600250    0.25000000    2.55999994
   13.97249985  117.38700104    0.23000000    2.57999992
   13.97583294  123.23300171    0.25000000    2.57999992
   13.97888851  116.11100006    0.25000000    2.55999994
   13.98222160  117.42400360    0.23000000    2.55999994
   13.98527813  113.08399963    0.25000000    2.55999994
   13.98861122  127.18000031    0.23000000    2.55999994
   13.99194431  130.25000000    0.23000000    2.55999994
   13.99499989  119.71199799    0.23000000    2.57999992
   13.99583340  129.86199951    0.23000000    2.57999992
   14.00138855  129.86199951    0.23000000    2.57999992
   14.00555515  124.88600159    0.23000000    2.57999992
   14.00888920  140.45899963    0.25000000    2.57999992
   14.01222229  149.73399353    0.25000000    2.55999994
   14.01527786  125.97299957    0.25000000    2.57999992
   14.01861095  126.20099640    0.23000000    2.57999992
   14.02194405  129.62899780    0.25000000    2.57999992
   14.02499962  130.99000549    0.23000000    2.57999992
   14.02833271  144.17599487    0.23000000    2.57999992
   14.02916622  132.50199890    0.23000000    2.57999992
   14.03194427  135.02200317    0.23000000    2.57999992
   14.03527832  143.82299805    0.23000000    2.57999992
   14.03861141  139.96200562    0.23000000    2.57999992
   14.04444504  139.96200562    0.23000000    2.59999990
   14.04861164  133.72200012    0.23000000    2.57999992
   14.05166721  143.66200256    0.23000000    2.57999992
   14.05500031  134.96000671    0.23000000    2.55999994
   14.05805588  120.77799988    0.23000000    2.57999992
   14.06138897  133.72900391    0.23000000    2.57999992
   14.06250000  143.28199768    0.23000000    2.57999992
   14.06500053  139.73500061    0.23000000    2.57999992
   14.06833363  132.44400024    0.23000000    2.57999992
   14.07166672  125.16000366    0.25000000    2.57999992
   14.07472229  129.34700012    0.23000000    2.59999990
   14.07805538  107.23100281    0.23000000    2.59999990
   14.08138847  118.25499725    0.23000000    2.57999992
   14.08722210  118.25499725    0.23000000    2.57999992
   14.09138870  112.66400146    0.23000000    2.57999992
   14.09444427  109.69599915    0.23000000    2.57999992
   14.09583282  108.46600342    0.23000000    2.57999992
   14.09833336   99.41719818    0.23000000    2.57999992
   14.10138893  110.52300262    0.25000000    2.57999992
   14.10472298  113.12799835    0.23000000    2.59999990
   14.10805607  119.86799622    0.25000000    2.57999992
   14.11111164  112.64700317    0.23000000    2.57999992
   14.11444473  121.81199646    0.25000000    2.57999992
   14.11750031  104.44699860    0.25000000    2.57999992
   14.12083340  118.85299683    0.25000000    2.59999990
   14.12416649  109.67400360    0.23000000    2.59999990
   14.13000011  109.67400360    0.23000000    2.57999992
   14.13416672  107.48300171    0.25000000    2.59999990
   14.13749981  113.76200104    0.25000000    2.59999990
   14.14055538  115.02100372    0.25000000    2.59999990
   14.14388847  112.65299988    0.25000000    2.59999990
   14.14722252  119.88400269    0.25000000    2.59999990
   14.15027714  133.78900146    0.25000000    2.59999990
   14.15361118  116.99199677    0.25000000    2.59999990
   14.15666676  123.70600128    0.25000000    2.59999990
   14.15999985  120.21299744    0.25000000    2.59999990
   14.16249943  111.72299957    0.25000000    2.59999990
   14.16388893  122.76399994    0.25000000    2.59999990
   14.16694450  123.06900024    0.25000000    2.59999990
   14.17277813  123.06900024    0.25000000    2.59999990
   14.17694473  141.13000488    0.25000000    2.59999990
   14.18027782  133.66799927    0.25000000    2.59999990
   14.18361092  124.31500244    0.25000000    2.59999990
   14.18666649  143.24299622    0.25000000    2.59999990
   14.19000053  150.91999817    0.25000000    2.59999990
   14.19305515  128.16200256    0.25000000    2.59999990
   14.19583321  127.25599670    0.25000000    2.59999990
   14.19666672  127.69899750    0.25000000    2.59999990
   14.19999981  133.71000671    0.25000000    2.59999990
   14.20333290  129.52499390    0.25000000    2.59999990
   14.20638847  128.31500244    0.25000000    2.59999990
   14.20972157  132.53300476    0.25000000    2.59999990
   14.21583271  132.53300476    0.25000000    2.61999989
   14.21999931  123.43699646    0.25000000    2.59999990
   14.22305489  139.29499817    0.25000000    2.59999990
   14.22638798  140.75700378    0.25000000    2.59999990
   14.22916603  128.85299683    0.25000000    2.59999990
   14.22999954  124.90599823    0.25000000    2.59999990
   14.23305511  126.56800079    0.25000000    2.59999990
   14.23638916  127.71099854    0.25000000    2.59999990
   14.23944473  127.98400116    0.25000000    2.59999990
   14.24277782  111.49600220    0.25000000    2.59999990
   14.24611092  136.25799561    0.25000000    2.61999989
   14.24916649  126.35700226    0.25000000    2.59999990
   14.25249958  134.25700378    0.25000000    2.59999990
   14.25861073  134.25700378    0.25000000    2.61999989
   14.26277733  136.02900696    0.23000000    2.59999990
   14.26611137  126.65799713    0.23000000    2.59999990
   14.26916599  137.07400513    0.23000000    2.59999990
   14.27250004  131.53700256    0.23000000    2.59999990
   14.27555561  111.25499725    0.23000000    2.61999989
   14.27888870  126.95099640    0.25000000    2.61999989
   14.28222179  126.94200134    0.23000000    2.59999990
   14.28527832  120.12799835    0.25000000    2.59999990
   14.28861141  131.75799561    0.23000000    2.59999990
   14.29194450  123.20999908    0.23000000    2.61999989
   14.29500008  122.83999634    0.23000000    2.59999990
   14.29583359  123.69599915    0.23000000    2.61999989
   14.30138874  123.69599915    0.23000000    2.61999989
   14.30555534  126.83599854    0.25000000    2.61999989
   14.30888939  123.67199707    0.23000000    2.61999989
   14.31194496  122.33000183    0.23000000    2.61999989
   14.31527805  122.95999908    0.25000000    2.61999989
   14.31861115  112.84300232    0.23000000    2.61999989
   14.32166672  111.56600189    0.25000000    2.61999989
   14.32499981  122.02999878    0.23000000    2.61999989
   14.32833290  116.19999695    0.23000000    2.61999989
   14.32916641  129.72300720    0.23000000    2.61999989
   14.33194447  115.03399658    0.23000000    2.61999989
   14.33500004  116.46499634    0.23000000    2.64000010
   14.33833313  123.63400269    0.23000000    2.61999989
   14.34444427  123.63400269    0.23000000    2.61999989
   14.34861088  122.10600281    0.23000000    2.61999989
   14.35166740  122.35199738    0.23000000    2.61999989
   14.35500050  112.89600372    0.23000000    2.64000010
   14.35805607  114.42700195    0.23000000    2.61999989
   14.36138916  109.81199646    0.23000000    2.61999989
   14.36250019  121.20600128    0.23000000    2.61999989
   14.36500072  116.42299652    0.23000000    2.61999989
   14.36805534  119.16200256    0.23000000    2.61999989
   14.37138939  125.44499969    0.23000000    2.61999989
   14.37472248  113.65499878    0.25000000    2.61999989
   14.37777805  110.64199829    0.23000000    2.64000010
   14.38111115  111.97899628    0.23000000    2.64000010
   14.38722229  111.97899628    0.23000000    2.61999989
   14.39138889  122.54399872    0.23000000    2.61999989
   14.39444447  131.88800049    0.23000000    2.61999989
   14.39583302  121.14399719    0.23000000    2.61999989
   14.39833355  119.05200195    0.23000000    2.61999989
   14.40138817  127.93399811    0.23000000    2.61999989
   14.40472221  129.31500244    0.23000000    2.61999989
   14.40777779  129.86199951    0.23000000    2.61999989
   14.41111088  134.35099792    0.23000000    2.61999989
   14.41444397  135.25900269    0.23000000    2.61999989
   14.41750050  131.85299683    0.23000000    2.64000010
   14.42083359  151.21899414    0.23000000    2.61999989
   14.42416668  134.14799500    0.23000000    2.61999989
   14.43000031  134.14799500    0.23000000    2.61999989
   14.43416691  135.24499512    0.23000000    2.61999989
   14.43722248  129.23899841    0.23000000    2.61999989
   14.44055557  131.90299988    0.23000000    2.61999989
   14.44388866  132.09899902    0.23000000    2.64000010
   14.44694424  119.52700043    0.23000000    2.64000010
   14.45027733  122.48699951    0.23000000    2.64000010
   14.45361137  137.21699524    0.23000000    2.64000010
   14.45666695  113.07900238    0.23000000    2.64000010
   14.46000004  130.62899780    0.23000000    2.64000010
   14.46249962  148.41700745    0.25000000    2.64000010
   14.46361065  125.61399841    0.23000000    2.61999989
   14.46666622  123.47499847    0.25000000    2.61999989
   14.47277737  123.47499847    0.25000000    2.61999989
   14.47694397  127.39600372    0.25000000    2.64000010
   14.48027706  123.15200043    0.23000000    2.61999989
   14.48333359  114.64299774    0.23000000    2.64000010
   14.48666668  126.71199799    0.23000000    2.61999989
   14.48972225  119.65599823    0.23000000    2.64000010
   14.49305534  120.64800262    0.25000000    2.64000010
   14.49583340  126.51899719    0.23000000    2.64000010
   14.49694443  133.80599976    0.23000000    2.64000010
   14.50000000  124.51200104    0.23000000    2.61999989
   14.50333309  118.74099731    0.23000000    2.64000010
   14.50638866  138.49099731    0.23000000    2.64000010
   14.50972176  132.48500061    0.23000000    2.64000010
   14.51555538  132.48500061    0.23000000    2.64000010
   14.51972198  122.84400177    0.23000000    2.64000010
   14.52305508  126.92299652    0.25000000    2.64000010
   14.52611065  121.19499969    0.23000000    2.64000010
   14.52916622  126.26799774    0.23000000    2.64000010
   14.52999973  125.14299774    0.23000000    2.61999989
   14.53305531  117.28299713    0.23000000    2.61999989
   14.53638935  140.66700745    0.25000000    2.64000010
   14.53972244  122.86699677    0.25000000    2.64000010
   14.54277802  124.13099670    0.25000000    2.64000010
   14.54611111  131.32299805    0.25000000    2.64000010
   14.54916668  117.83399963    0.25000000    2.64000010
   14.55249977  123.08300018    0.25000000    2.64000010
   14.55861092  123.08300018    0.25000000    2.64000010
   14.56250000  121.81300354    0.25000000    2.64000010
   14.56583309  109.22399902    0.25999999    2.64000010
   14.56916618  119.75099945    0.25999999    2.64000010
   14.57222176  136.82400513    0.25999999    2.64000010
   14.57555580  121.97000122    0.25999999    2.64000010
   14.57888889  119.69000244    0.25999999    2.64000010
   14.58194447  124.90399933    0.25999999    2.64000010
   14.58527756  119.62999725    0.28000000    2.64000010
   14.58833313  127.91400146    0.28000000    2.64000010
   14.59166622  115.87200165    0.28000000    2.64000010
   14.59499931  120.26999664    0.28000000    2.64000010
   14.59583282  112.19000244    0.30000001    2.64000010
   14.60138893  112.19000244    0.30000001    2.64000010
   14.60555553  110.55100250    0.28000000    2.64000010
   14.60861111  110.93099976    0.30000001    2.64000010
   14.61194515  116.00099945    0.30000001    2.66000009
   14.62944412  114.51399994    0.30000001    2.64000010
   14.63194466  114.46199799    0.28000000    2.64000010
   14.63527775  113.00900269    0.28000000    2.64000010
   14.63833332  114.45899963    0.30000001    2.64000010
   14.64444447  114.45899963    0.28000000    2.64000010
   14.64861107  107.74800110    0.28000000    2.64000010
   14.65166664  113.82299805    0.28000000    2.64000010
   14.65499973  117.23100281    0.28000000    2.64000010
   14.65805531  106.46199799    0.25999999    2.64000010
   14.66138840  103.87100220    0.28000000    2.64000010
   14.66277695  106.30400085    0.25999999    2.64000010
   14.66499996  102.55699921    0.28000000    2.64000010
   14.66805553  101.64499664    0.28000000    2.64000010
   14.67138958  100.96900177    0.25999999    2.64000010
   14.67472267  109.56199646    0.28000000    2.64000010
   14.67777824  106.41999817    0.28000000    2.64000010
   14.68111134  119.37799835    0.28000000    2.64000010
   14.68722248  119.37799835    0.25999999    2.64000010
   14.69138908  113.01200104    0.25999999    2.66000009
   14.69472218   93.09040070    0.25999999    2.64000010
   14.69611073  101.30200195    0.25999999    2.64000010
   14.69833374   97.77819824    0.25999999    2.64000010
   14.70138836   98.67379761    0.25999999    2.64000010
   14.70472240  118.86699677    0.28000000    2.64000010
   14.70805550  104.80999756    0.28000000    2.66000009
   14.71111107  116.64900208    0.25999999    2.64000010
   14.71444416  103.88600159    0.25999999    2.66000009
   14.71777725  111.86699677    0.25999999    2.64000010
   14.72083282  111.66999817    0.25999999    2.64000010
   14.72416592   95.93830109    0.25999999    2.64000010
   14.72999954   95.93830109    0.25999999    2.66000009
   14.73416710  112.32900238    0.25999999    2.64000010
   14.73750019   98.74659729    0.25999999    2.64000010
   14.74055576  106.57399750    0.25999999    2.66000009
   14.74388885  102.34100342    0.25999999    2.64000010
   14.74722290  109.28800201    0.25999999    2.66000009
   14.75027752  118.55899811    0.25000000    2.64000010
   14.75361156  102.93099976    0.25000000    2.64000010
   14.75666714  107.51300049    0.25000000    2.67000008
   14.76000023  103.42600250    0.25000000    2.66000009
   14.76277733  111.38999939    0.25000000    2.64000010
   14.76361084  102.58300018    0.25000000    2.64000010
   14.76666641   99.75229645    0.25000000    2.66000009
   14.77277756   99.75229645    0.25000000    2.66000009
   14.77694416   96.07779694    0.25000000    2.66000009
   14.78027725   98.92919922    0.25000000    2.66000009
   14.78361130   92.33159637    0.25000000    2.66000009
   14.78666687  107.40000153    0.25000000    2.66000009
   14.79000092   97.57430267    0.25000000    2.64000010
   14.79305553   94.08660126    0.25000000    2.66000009
   14.79611111  101.94400024    0.25000000    2.66000009
   14.79694462   97.89489746    0.25000000    2.66000009
   14.80027771  101.13800049    0.25000000    2.66000009
   14.80333328   97.82810211    0.25000000    2.66000009
   14.80666733   93.49269867    0.25000000    2.64000010
   14.80972195  102.33200073    0.25000000    2.66000009
   14.81583309  102.33200073    0.25000000    2.66000009
   14.81999969  101.58599854    0.25000000    2.67000008
   14.82305527  101.12200165    0.25000000    2.66000009
   14.82638836  107.52999878    0.25000000    2.66000009
   14.82944393  105.50099945    0.25000000    2.66000009
   14.82999992  108.17500305    0.25000000    2.66000009
   14.83305550  109.99900055    0.25000000    2.66000009
   14.83638859  110.59200287    0.25000000    2.66000009
   14.83972168  110.39499664    0.25000000    2.67000008
   14.84277725   97.21209717    0.25000000    2.66000009
   14.84611034   97.67350006    0.25000000    2.66000009
   14.84916592  103.94499969    0.25000000    2.66000009
   14.85249996  115.53199768    0.25999999    2.66000009
   14.85861111  115.53199768    0.25999999    2.64000010
   14.86277771  106.33699799    0.25999999    2.66000009
   14.86333370  109.24700165    0.25999999    2.66000009
   14.86638927  103.49299622    0.28000000    2.66000009
   14.86972237  103.50700378    0.25999999    2.67000008
   14.87305546  103.94300079    0.28000000    2.67000008
   14.87611103  101.81800079    0.28000000    2.66000009
   14.87944412  100.85600281    0.25999999    2.66000009
   14.88277817   87.87539673    0.25999999    2.66000009
   14.88583279  105.80200195    0.28000000    2.66000009
   14.88916683   91.84210205    0.28000000    2.66000009
   14.89222240  111.04000092    0.28000000    2.66000009
   14.89555550  115.47399902    0.28000000    2.67000008
   14.89611053  107.15299988    0.28000000    2.67000008
   14.90138817  107.15299988    0.30000001    2.66000009
   14.90555477  104.65000153    0.30000001    2.66000009
   14.90888882  108.76799774    0.30000001    2.66000009
   14.91194439  100.51000214    0.30000001    2.66000009
   14.91527748  104.14600372    0.30000001    2.66000009
   14.91861153   94.32109833    0.30000001    2.67000008
   14.92166710   96.83930206    0.30000001    2.67000008
   14.92500019   97.29789734    0.30000001    2.66000009
   14.92805576  103.06300354    0.31999999    2.66000009
   14.92944431  104.12799835    0.30000001    2.66000009
   14.93194485  112.16200256    0.30000001    2.66000009
   14.93500042   98.62830353    0.30000001    2.67000008
   14.93833351   97.13289642    0.30000001    2.66000009
   14.94416714   97.13289642    0.30000001    2.66000009
   14.94833374  115.06099701    0.30000001    2.66000009
   14.95166683   97.31569672    0.28000000    2.66000009
   14.95499992   97.11309814    0.28000000    2.67000008
   14.95805550   93.70220184    0.30000001    2.66000009
   14.96138859   93.62149811    0.30000001    2.66000009
   14.96277714   97.68800354    0.30000001    2.67000008
   14.96500015  103.38899994    0.30000001    2.67000008
   14.96805477   94.91369629    0.30000001    2.67000008
   14.97138882   92.51619720    0.28000000    2.66000009
   14.97472191   94.99189758    0.30000001    2.66000009
   14.97777748  105.20500183    0.30000001    2.66000009
   14.98111057  101.36199951    0.30000001    2.66000009
   14.98722267  101.36199951    0.30000001    2.67000008
   14.99138927  106.20099640    0.31999999    2.67000008
   14.99444485  112.80899811    0.31999999    2.66000009
   14.99611092  104.46199799    0.31999999    2.66000009
   14.99805546  107.42700195    0.31999999    2.67000008
   15.00111103   97.97850037    0.31999999    2.66000009
   15.00444412  109.18199921    0.31999999    2.67000008
   15.00777817  109.61299896    0.34000000    2.67000008
   15.01083374   99.65499878    0.34000000    2.67000008
   15.01416683  112.26599884    0.34000000    2.66000009
   15.11527824   -1.00000000   -1.00000000   -1.00000000
   15.33722210   -1.00000000   -1.00000000   -1.00000000
   15.56305599   -1.00000000   -1.00000000   -1.00000000
   15.81472206   69.54199982    0.25999999    2.69000006
   15.81805515  114.24800110    0.31999999    2.69000006
   15.82111073  109.89099884    0.30000001    2.69000006
   15.82444477   94.23709869    0.31999999    2.69000006
   15.82777786   88.21690369    0.31999999    2.69000006
   15.83083344   88.34850311    0.36000001    2.69000006
   15.83500004   88.34850311    0.34000000    2.69000006
   15.83916664   88.02660370    0.34000000    2.69000006
   15.84249973  102.47799683    0.34000000    2.69000006
   15.84583282  103.66600037    0.34000000    2.69000006
   15.84805489  108.39600372    0.36000001    2.69000006
   15.84944439   84.91549683    0.34000000    2.69000006
   15.85249996  100.76300049    0.31999999    2.69000006
   15.85583401   96.06390381    0.31999999    2.69000006
   15.85888958  100.73799896    0.28000000    2.69000006
   15.86222267  103.49400330    0.28000000    2.69000006
   15.86555576   87.80629730    0.25999999    2.71000004
   15.86861134   84.99490356    0.25999999    2.71000004
   15.87194443  113.95300293    0.25000000    2.69000006
   15.87777805  113.95300293    0.23000000    2.71000004
   15.88222218  101.17700195    0.23000000    2.71000004
   15.88555527  100.13700104    0.23000000    2.69000006
   15.88861084   86.94660187    0.23000000    2.69000006
   15.89194393   88.10209656    0.20999999    2.69000006
   15.89499950   97.71649933    0.20999999    2.69000006
   15.89833355  111.22599792    0.20999999    2.69000006
   15.90166664  110.81500244    0.23000000    2.71000004
   15.90472221  110.18499756    0.23000000    2.69000006
   15.90805531   99.80650330    0.23000000    2.69000006
   15.91138840  113.99299622    0.23000000    2.69000006
   15.91444397  101.48200226    0.23000000    2.69000006
   15.91499996  130.12899780    0.23000000    2.69000006
   15.92083359  130.12899780    0.23000000    2.69000006
   15.92500019  117.98300171    0.25000000    2.69000006
   15.92805576  106.78199768    0.25000000    2.69000006
   15.93138885  108.92900085    0.25999999    2.69000006
   15.93444443   98.02159882    0.25999999    2.71000004
   15.93777752   95.28669739    0.25999999    2.71000004
   15.94111156  103.12699890    0.28000000    2.69000006
   15.94416714   94.10870361    0.28000000    2.71000004
   15.94750023   93.77300262    0.28000000    2.69000006
   15.94833374  103.84999847    0.28000000    2.69000006
   15.95111084   93.46089935    0.28000000    2.69000006
   15.95416641   98.60559845    0.25999999    2.69000006
   15.95749950   91.59249878    0.25000000    2.69000006
   15.96361065   91.59249878    0.25000000    2.69000006
   15.96777725   93.08489990    0.25000000    2.69000006
   15.97083282   89.90499878    0.25000000    2.69000006
   15.97416592   99.49629974    0.25000000    2.71000004
   15.97749996   87.96060181    0.25999999    2.69000006
   15.98055553   88.96610260    0.25999999    2.69000006
   15.98166656   98.26270294    0.25999999    2.69000006
   15.98444462   92.46739960    0.25999999    2.69000006
   15.98777771   91.94699860    0.25999999    2.69000006
   15.99083328   82.95390320    0.25000000    2.71000004
   15.99416733   89.32640076    0.25000000    2.69000006
   15.99722290   83.32379913    0.25000000    2.69000006
   16.00055504   88.88240051    0.23000000    2.69000006
   16.00638962   88.88240051    0.20999999    2.71000004
   16.01055527   93.95269775    0.20999999    2.71000004
   16.01388931   82.45510101    0.20999999    2.69000006
   16.01499939   89.83779907    0.23000000    2.69000006
   16.01749992   88.45169830    0.20999999    2.69000006
   16.02055550   86.65740204    0.20999999    2.69000006
   16.02388954   95.32299805    0.20999999    2.69000006
   16.02722168   80.52410126    0.20999999    2.69000006
   16.03027725   81.21949768    0.20999999    2.69000006
   16.03361130   80.74500275    0.23000000    2.69000006
   16.03694344   87.36019897    0.20999999    2.69000006
   16.03999901   86.86730194    0.20999999    2.69000006
   16.04333305   86.55970001    0.20999999    2.71000004
   16.04916573   86.55970001    0.19000000    2.69000006
   16.05333328   92.87339783    0.19000000    2.69000006
   16.05666542   97.43869781    0.20999999    2.69000006
   16.05999947   90.18430328    0.20999999    2.69000006
   16.06305504   87.09960175    0.20999999    2.69000006
   16.06638718   86.61289978    0.20999999    2.71000004
   16.06944466   89.75879669    0.20999999    2.69000006
   16.07277870   94.18049622    0.25000000    2.71000004
   16.07611275   93.22409821    0.23000000    2.71000004
   16.07916832   96.77570343    0.25000000    2.71000004
   16.08166695   99.69709778    0.25000000    2.69000006
   16.08305550   91.47339630    0.25000000    2.69000006
   16.08611107   87.82189941    0.25999999    2.71000004
   16.09222221   87.82189941    0.28000000    2.69000006
   16.09638977   92.61530304    0.25999999    2.69000006
   16.09944534   96.72910309    0.25999999    2.69000006
   16.10277748   95.81749725    0.25999999    2.71000004
   16.10583305   94.07469940    0.28000000    2.71000004
   16.10916710   90.67310333    0.28000000    2.69000006
   16.11250114   92.60970306    0.25999999    2.69000006
   16.11499977  103.04900360    0.25000000    2.69000006
   16.11611176  104.62799835    0.25000000    2.69000006
   16.11916733   84.54119873    0.25000000    2.69000006
   16.12249947   92.75969696    0.25000000    2.69000006
   16.12583351   86.97200012    0.25999999    2.71000004
   16.12888908   88.16290283    0.28000000    2.71000004
   16.13500023   88.16290283    0.31999999    2.71000004
   16.13916588   90.86000061    0.30000001    2.71000004
   16.14222145   84.48549652    0.25999999    2.71000004
   16.14555550   85.82759857    0.25999999    2.71000004
   16.14833260   91.39099884    0.25999999    2.71000004
   16.14916611   84.50800323    0.25999999    2.69000006
   16.15222168   83.42009735    0.25999999    2.69000006
   16.15555573   94.60410309    0.25999999    2.71000004
   16.15888786   92.37779999    0.25999999    2.69000006
   16.16194344  102.49700165    0.25999999    2.69000006
   16.16527748   88.56359863    0.30000001    2.69000006
   16.16860962  101.11799622    0.34000000    2.71000004
   16.17166519   91.37169647    0.34000000    2.69000006
   16.17777634   91.37169647    0.34000000    2.71000004
   16.18194389   97.09159851    0.46000001    2.71000004
   16.18527603   89.03569794    0.46000001    2.69000006
   16.18833160  109.52400208    0.41999999    2.71000004
   16.19166565   83.14320374    0.41999999    2.69000006
   16.19499969   88.93869781    0.41999999    2.69000006
   16.19805527   88.56980133    0.40000001    2.71000004
   16.20138931   91.46690369    0.36000001    2.69000006
   16.20444489   83.96929932    0.31999999    2.69000006
   16.20777893   90.10700226    0.31999999    2.69000006
   16.21111107   87.85679626    0.28000000    2.71000004
   16.21416664   85.58869934    0.25999999    2.71000004
   16.21500015   87.56250000    0.25999999    2.71000004
   16.22055626   87.56250000    0.25999999    2.69000006
   16.22472191   88.14299774    0.25999999    2.71000004
   16.22805595   86.72989655    0.25000000    2.71000004
   16.23139000   94.65760040    0.25000000    2.71000004
   16.23444557   97.47440338    0.25000000    2.69000006
   16.23777771   89.07080078    0.25000000    2.69000006
   16.24083328   91.60379791    0.23000000    2.71000004
   16.24416733   89.13569641    0.20999999    2.69000006
   16.24749947   99.25430298    0.20999999    2.71000004
   16.24833298   91.18340302    0.20999999    2.71000004
   16.25111198   95.10160065    0.23000000    2.69000006
   16.25444412  104.71700287    0.23000000    2.71000004
   16.25749969   91.75779724    0.20999999    2.71000004
   16.26361084   91.75779724    0.23000000    2.71000004
   16.26749992   98.00540161    0.20999999    2.71000004
   16.27083397   81.51429749    0.25000000    2.69000006
   16.27416611   89.98829651    0.25999999    2.71000004
   16.27722168   91.69599915    0.25999999    2.71000004
   16.28055573   91.68090057    0.25999999    2.71000004
   16.28166580   80.84010315    0.25000000    2.71000004
   16.28416634  101.84799957    0.23000000    2.71000004
   16.28750038   95.15679932    0.23000000    2.71000004
   16.29055595   93.86380005    0.23000000    2.71000004
   16.29388809   96.35630035    0.20999999    2.71000004
   16.29694366  103.17600250    0.20999999    2.71000004
   16.30027771  103.77400208    0.20999999    2.71000004
   16.30638885  103.77400208    0.20999999    2.69000006
   16.31055450   92.77660370    0.23000000    2.71000004
   16.31361008   99.22180176    0.23000000    2.71000004
   16.31499863  106.73799896    0.23000000    2.69000006
   16.31750107  103.42600250    0.25000000    2.71000004
   16.32083511   96.08129883    0.25999999    2.69000006
   16.32389069   87.37909698    0.28000000    2.71000004
   16.32722282   92.87640381    0.28000000    2.71000004
   16.33027840   96.60620117    0.28000000    2.71000004
   16.33361244   86.04740143    0.28000000    2.71000004
   16.33694458   99.11660004    0.25999999    2.69000006
   16.34000015   89.27410126    0.25999999    2.71000004
   16.34333420   96.41339874    0.25999999    2.71000004
   16.34916687   96.41339874    0.25999999    2.71000004
   16.35333443   90.06580353    0.28000000    2.71000004
   16.35666656   86.73439789    0.30000001    2.69000006
   16.35972214   87.52700043    0.31999999    2.71000004
   16.36305618   84.21150208    0.31999999    2.69000006
   16.36638832   83.74960327    0.28000000    2.71000004
   16.36944389   91.37709808    0.28000000    2.69000006
   16.37277794   94.92669678    0.28000000    2.71000004
   16.37583351   90.01850128    0.28000000    2.69000006
   16.37916756   83.93389893    0.28000000    2.69000006
   16.38166618   87.77059937    0.28000000    2.71000004
   16.38277817   88.85240173    0.28000000    2.71000004
   16.38611031   98.95050049    0.30000001    2.71000004
   16.39194489   98.95050049    0.28000000    2.71000004
   16.39611053   94.18409729    0.25999999    2.71000004
   16.39944458   84.52130127    0.25999999    2.69000006
   16.40250015   90.22139740    0.25999999    2.69000006
   16.40583229   86.24810028    0.25000000    2.71000004
   16.40916634   87.16860199    0.23000000    2.69000006
   16.41250038   82.87719727    0.25000000    2.71000004
   16.41499901   87.84249878    0.25000000    2.71000004
   16.41611099   82.97840118    0.25000000    2.71000004
   16.41944313   87.46070099    0.25999999    2.71000004
   16.42249870   95.23650360    0.25999999    2.71000004
   16.42583275   88.25839996    0.25999999    2.71000004
   16.42888832   87.58100128    0.28000000    2.71000004
   16.43499947   87.58100128    0.30000001    2.71000004
   16.43888855   89.03739929    0.30000001    2.69000006
   16.44222069   85.87860107    0.31999999    2.69000006
   16.44555473   88.97280121    0.28000000    2.71000004
   16.44861031   96.27279663    0.30000001    2.71000004
   16.44944382   88.04489899    0.30000001    2.71000004
   16.45250130   91.92530060    0.28000000    2.71000004
   16.45583344   86.46209717    0.28000000    2.71000004
   16.45888901   86.46360016    0.25999999    2.71000004
   16.46222305   85.18470001    0.25000000    2.71000004
   16.46555710   92.11270142    0.25000000    2.71000004
   16.46861076   93.37989807    0.25000000    2.69000006
   16.47194481   89.57060242    0.25000000    2.71000004
   16.47777748   89.57060242    0.25000000    2.71000004
   16.48194504   89.46009827    0.25999999    2.71000004
   16.48500061   90.26860046    0.25000000    2.71000004
   16.48833275   86.97930145    0.25000000    2.71000004
   16.49166679   85.07289886    0.25999999    2.71000004
   16.49472237   89.06089783    0.25999999    2.71000004
   16.49805641   95.06860352    0.25999999    2.69000006
   16.50111198   93.96469879    0.25999999    2.71000004
   16.50444412   88.46199799    0.25999999    2.71000004
   16.50777817   81.32910156    0.25999999    2.71000004
   16.51083374   84.51370239    0.25999999    2.71000004
   16.51416588   86.12619781    0.25999999    2.69000006
   16.51499939   83.39489746    0.25999999    2.69000006
   16.52055550   83.39489746    0.25000000    2.71000004
   16.52472115   86.77970123    0.23000000    2.71000004
   16.52805519   83.13240051    0.23000000    2.71000004
   16.53111076   84.79859924    0.23000000    2.71000004
   16.53444481   84.36160278    0.25000000    2.69000006
   16.53750038   85.35919952    0.20999999    2.71000004
   16.54083252   85.88890076    0.20999999    2.71000004
   16.54416656   88.52330017    0.23000000    2.71000004
   16.54722214   85.97419739    0.25000000    2.71000004
   16.54833221   84.19390106    0.23000000    2.71000004
   16.55083275   81.73909760    0.23000000    2.71000004
   16.55416679   85.35130310    0.25000000    2.71000004
   16.55722237   82.52590179    0.25000000    2.71000004
   16.56333351   82.52590179    0.20999999    2.71000004
   16.56750107   80.88600159    0.23000000    2.71000004
   16.57083511   85.64270020    0.20999999    2.71000004
   16.57389069   84.85780334    0.20999999    2.71000004
   16.57722282   85.59200287    0.25000000    2.69000006
   16.58055687   88.12640381    0.25000000    2.71000004
   16.58166695   88.23979950    0.23000000    2.71000004
   16.58416748   99.92680359    0.25000000    2.71000004
   16.58750153   92.20290375    0.25000000    2.71000004
   16.59055710   86.27100372    0.25000000    2.71000004
   16.59388924   90.31870270    0.25000000    2.71000004
   16.59722328  101.56300354    0.25000000    2.71000004
   16.60027885   94.72519684    0.25000000    2.71000004
   16.60639000   94.72519684    0.25000000    2.71000004
   16.61027908   99.11650085    0.25000000    2.71000004
   16.61361122   96.74320221    0.25000000    2.71000004
   16.61527824   95.13099670    0.25000000    2.71000004
   16.61722183   96.16860199    0.25000000    2.71000004
   16.62055588   84.99440002    0.25000000    2.71000004
   16.62361145   97.98760223    0.25000000    2.71000004
   16.62694550   89.13559723    0.23000000    2.71000004
   16.63027763   91.07289886    0.23000000    2.71000004
   16.63333321   88.05310059    0.25000000    2.71000004
   16.63666725   86.36699677    0.25000000    2.71000004
   16.63999939   87.54250336    0.25000000    2.73000002
   16.64305496   92.29149628    0.25000000    2.71000004
   16.64916611   92.29149628    0.25000000    2.73000002
   16.65333366   88.53150177    0.25000000    2.71000004
   16.65638924   85.56860352    0.25000000    2.71000004
   16.65972137   94.65229797    0.25999999    2.71000004
   16.66305542   99.72460175    0.25999999    2.71000004
   16.66611099   87.43949890    0.25999999    2.71000004
   16.66944313   88.30039978    0.25999999    2.71000004
   16.67249870   87.60739899    0.25000000    2.71000004
   16.67583275   89.71459961    0.25999999    2.71000004
   16.67916679   91.50019836    0.25999999    2.71000004
   16.68194389   89.25180054    0.25999999    2.71000004
   16.68277740   92.87830353    0.25999999    2.71000004
   16.68610954   90.70559692    0.28000000    2.71000004
   16.69194412   90.70559692    0.28000000    2.71000004
   16.69610977   92.88649750    0.30000001    2.71000004
   16.69944382   89.86530304    0.30000001    2.71000004
   16.70250130   89.34089661    0.30000001    2.71000004
   16.70583344   91.06330109    0.28000000    2.71000004
   16.70888901   84.06909943    0.28000000    2.71000004
   16.71222305   87.97579956    0.25999999    2.71000004
   16.71527863   88.66369629    0.25999999    2.71000004
   16.71583366   95.33869934    0.25999999    2.71000004
   16.71916771   85.73999786    0.25999999    2.71000004
   16.72222328   84.53240204    0.25000000    2.71000004
   16.72555542   88.14199829    0.25000000    2.73000002
   16.72888947   90.20210266    0.25000000    2.71000004
   16.73472214   90.20210266    0.25000000    2.71000004
   16.73888969   93.84190369    0.25000000    2.71000004
   16.74222183   81.96019745    0.25000000    2.71000004
   16.74555588   86.27539825    0.25000000    2.71000004
   16.74861145   89.76509857    0.23000000    2.71000004
   16.74888992   87.80439758    0.23000000    2.71000004
   16.75222206   92.63050079    0.23000000    2.73000002
   16.75527763   88.21189880    0.23000000    2.71000004
   16.75861168   89.80030060    0.20999999    2.73000002
   16.76194382   90.56340027    0.20999999    2.71000004
   16.76499939   89.74359894    0.20999999    2.71000004
   16.76833344   91.47540283    0.23000000    2.71000004
   16.77166557   84.28900146    0.23000000    2.71000004
   16.77777672   84.28900146    0.23000000    2.71000004
   16.78194427   89.26180267    0.25000000    2.71000004
   16.78222275   94.61810303    0.25000000    2.71000004
   16.78555489   84.70279694    0.25999999    2.71000004
   16.78861046   90.61710358    0.28000000    2.71000004
   16.79194450   94.62539673    0.28000000    2.71000004
   16.79527664   87.61489868    0.25000000    2.71000004
   16.79833221   93.05290222    0.25000000    2.71000004
   16.80166626   99.62889862    0.25000000    2.71000004
   16.80499840   90.37590027    0.25000000    2.73000002
   16.80805397   87.24639893    0.25000000    2.71000004
   16.81138802   88.71130371    0.25000000    2.71000004
   16.81444359   84.57830048    0.25000000    2.69000006
   16.81527710   89.04100037    0.25000000    2.69000006
   16.83583450   89.04100037    0.25000000    2.73000002
   16.84000015   93.04450226    0.25999999    2.71000004
   16.84333420   95.87380219    0.25999999    2.71000004
   16.84638977   94.25080109    0.25999999    2.71000004
   16.84861183   89.35369873    0.28000000    2.71000004
   16.85000038  103.54499817    0.28000000    2.71000004
   16.85333443   87.88610077    0.28000000    2.71000004
   16.85639000   88.95069885    0.30000001    2.71000004
   16.85972214   90.50569916    0.28000000    2.71000004
   16.86305618   91.13980103    0.30000001    2.71000004
   16.86611176   98.55729675    0.30000001    2.71000004
   16.86944389   86.70580292    0.31999999    2.71000004
   16.87277794   84.40370178    0.34000000    2.71000004
   16.87861061   84.40370178    0.31999999    2.71000004
   16.88277817   85.78009796    0.31999999    2.71000004
   16.88583374   88.22219849    0.34000000    2.71000004
   16.88916588   83.92590332    0.36000001    2.71000004
   16.89249992   91.91780090    0.36000001    2.71000004
   16.89555550   89.65550232    0.36000001    2.71000004
   16.89888954   91.59400177    0.38000000    2.71000004
   16.90222168   84.97969818    0.44000000    2.71000004
   16.90527725   87.81320190    0.44000000    2.71000004
   16.90861130   93.80190277    0.46000001    2.71000004
   16.91166687   89.10569763    0.46000001    2.71000004
   16.91499901   93.06800079    0.47999999    2.71000004
   16.91555595   91.06330109    0.47999999    2.69000006
   16.92138863   91.06330109    0.50000000    2.71000004
   16.92555428   96.43540192    0.64999998    2.71000004
   16.92888832   91.26709747    0.69000000    2.71000004
   16.93194389   90.37699890    0.73000002    2.71000004
   16.93527603   99.68589783    0.73000002    2.71000004
   16.93861008   92.21389771    0.69000000    2.71000004
   16.94166565   89.30889893    0.69000000    2.71000004
   16.94499969  100.20500183    0.63000000    2.69000006
   16.94805527   84.89050293    0.61000001    2.71000004
   16.94888878   88.41339874    0.61000001    2.71000004
   16.95194435   96.90809631    0.61000001    2.71000004
   16.95499992   84.31790161    0.58999997    2.71000004
   16.95833397   91.58470154    0.51999998    2.71000004
   16.96444511   91.58470154    0.47999999    2.71000004
   16.96833420   93.20120239    0.46000001    2.71000004
   16.97166634   92.25689697    0.40000001    2.71000004
   16.97500038   96.65249634    0.38000000    2.71000004
   16.97805595   88.85279846    0.36000001    2.71000004
   16.98139000   92.38980103    0.34000000    2.71000004
   16.98222351   92.27480316    0.34000000    2.71000004
   16.98500061   93.12149811    0.34000000    2.71000004
   16.98805618   95.96389771    0.36000001    2.71000004
   16.99138832   98.18240356    0.36000001    2.71000004
   16.99444389   94.81950378    0.38000000    2.71000004
   16.99777794   95.22589874    0.38000000    2.71000004
   17.00111198  107.61599731    0.40000001    2.71000004
   17.00722313  107.61599731    0.36000001    2.71000004
   17.01138878   94.10620117    0.34000000    2.71000004
   17.01444435  103.80799866    0.30000001    2.69000006
   17.01555634   99.32399750    0.30000001    2.71000004
   17.01833344   99.95649719    0.30000001    2.71000004
   17.02138901   97.54149628    0.30000001    2.71000004
   17.02472115   98.19229889    0.30000001    2.71000004
   17.02805519   92.96109772    0.28000000    2.69000006
   17.03111076   87.29519653    0.30000001    2.71000004
   17.03444481   91.18090057    0.25999999    2.71000004
   17.03750038   96.65390015    0.25000000    2.71000004
   17.04083252   95.64820099    0.25000000    2.71000004
   17.04416656  103.39199829    0.25000000    2.71000004
   17.04999924  103.39199829    0.23000000    2.71000004
   17.05416679   92.25740051    0.20999999    2.71000004
   17.05722237   94.48809814    0.23000000    2.71000004
   17.06055450   92.54519653    0.30000001    2.71000004
   17.06388855   89.56369781    0.31999999    2.71000004
   17.06694603   95.12460327    0.41999999    2.71000004
   17.07027817   91.50360107    0.50000000    2.71000004
   17.07361221   92.83719635    0.50000000    2.71000004
   17.07666779   90.39409637    0.52999997    2.71000004
   17.08000183   99.38849640    0.50000000    2.71000004
   17.08222389   92.62969971    0.51999998    2.71000004
   17.08361244   88.16200256    0.46000001    2.69000006
   17.08666801   95.26920319    0.51999998    2.71000004
   17.09277916   95.26920319    0.34000000    2.71000004
   17.09694481  104.56300354    0.30000001    2.71000004
   17.10027885   97.62819672    0.25999999    2.73000002
   17.10333443  101.33899689    0.25999999    2.69000006
   17.10666656   97.43240356    0.25999999    2.71000004
   17.11000061   93.55789948    0.25999999    2.71000004
   17.11305618   93.59100342    0.25999999    2.69000006
   17.11555672   86.15579987    0.25999999    2.71000004
   17.11694527   95.46410370    0.25000000    2.71000004
   17.12000084   89.28659821    0.25000000    2.71000004
   17.12333298   86.02880096    0.25000000    2.69000006
   17.12666702   95.70619965    0.25000000    2.71000004
   17.12972260   89.66079712    0.25000000    2.71000004
   17.13555527   89.66079712    0.23000000    2.71000004
   17.13972282   92.76820374    0.25000000    2.71000004
   17.14305496   87.07949829    0.25999999    2.71000004
   17.14638901   91.02449799    0.28000000    2.71000004
   17.14888954   88.82270050    0.30000001    2.71000004
   17.14999962   87.09169769    0.30000001    2.71000004
   17.15305519   91.76959991    0.30000001    2.71000004
   17.15638924   87.27690125    0.31999999    2.71000004
   17.15972137   93.71710205    0.41999999    2.71000004
   17.16277695   94.68620300    0.41999999    2.69000006
   17.16611099  100.45500183    0.51999998    2.69000006
   17.16944313   93.20870209    0.51999998    2.69000006
   17.17249870   88.97499847    0.51999998    2.71000004
   17.17860985   88.97499847    0.47999999    2.69000006
   17.18277740  101.04100037    0.40000001    2.71000004
   17.18583298   93.97010040    0.40000001    2.71000004
   17.18916512   93.54779816    0.40000001    2.71000004
   17.19222069   88.66580200    0.40000001    2.71000004
   17.19555473   91.31390381    0.34000000    2.69000006
   17.19888878   88.57530212    0.31999999    2.71000004
   17.20194435   86.63379669    0.31999999    2.71000004
   17.20527840  100.46499634    0.30000001    2.71000004
   17.20861244   92.38009644    0.30000001    2.71000004
   17.21166801  104.53900146    0.28000000    2.71000004
   17.21500015  102.02100372    0.30000001    2.71000004
   17.21555710   99.17250061    0.30000001    2.71000004
   17.22138977   99.17250061    0.30000001    2.71000004
   17.22555542  106.05500031    0.34000000    2.71000004
   17.22861099  104.30200195    0.36000001    2.69000006
   17.23194504  100.45899963    0.31999999    2.71000004
   17.23527718  112.22399902    0.31999999    2.71000004
   17.23833275  130.22799683    0.38000000    2.71000004
   17.24166679   93.87370300    0.40000001    2.69000006
   17.24500084  123.96399689    0.40000001    2.71000004
   17.24805641  104.95400238    0.41999999    2.69000006
   17.24888992  104.86699677    0.41999999    2.71000004
   17.25166702  112.06400299    0.41999999    2.71000004
   17.25472260   97.22969818    0.41999999    2.71000004
   17.25805473  113.47299957    0.47999999    2.71000004
   17.26416588  113.47299957    0.50000000    2.69000006
   17.26833344  125.66600037    0.50000000    2.71000004
   17.27166557  101.97599792    0.47999999    2.71000004
   17.27472115  112.77899933    0.47999999    2.71000004
   17.27805519  117.85800171    0.47999999    2.71000004
   17.28138924  106.15499878    0.47999999    2.71000004
   17.28222275   89.42659760    0.47999999    2.71000004
   17.28499985   96.70809937    0.44000000    2.71000004
   17.28805542  100.67900085    0.44000000    2.71000004
   17.29138756  103.32099915    0.44000000    2.71000004
   17.29472160  114.65699768    0.41999999    2.71000004
   17.29777718  100.80100250    0.41999999    2.71000004
   17.30111122  109.46499634    0.41999999    2.71000004
   17.30694389  109.46499634    0.38000000    2.71000004
   17.31110954  110.62599945    0.38000000    2.71000004
   17.31444359  106.24099731    0.38000000    2.71000004
   17.31555557  103.95700073    0.38000000    2.71000004
   17.31805611  105.23899841    0.38000000    2.71000004
   17.32111168  103.04799652    0.36000001    2.71000004
   17.32444572   90.20359802    0.31999999    2.69000006
   17.32777786   98.62770081    0.30000001    2.71000004
   17.33083344   99.76069641    0.28000000    2.71000004
   17.33416748  111.37400055    0.28000000    2.69000006
   17.33750153   96.20870209    0.23000000    2.71000004
   17.34055710  108.16600037    0.23000000    2.71000004
   17.34388924   90.06030273    0.23000000    2.71000004
   17.35000038   90.06030273    0.25999999    2.71000004
   17.35416794  100.48899841    0.30000001    2.71000004
   17.35722351   95.56500244    0.30000001    2.71000004
   17.36055565  110.29900360    0.25999999    2.69000006
   17.36388969  100.54699707    0.25999999    2.71000004
   17.36722183   90.18160248    0.25999999    2.71000004
   17.37027740  104.36399841    0.25999999    2.71000004
   17.37361145  108.86000061    0.25999999    2.71000004
   17.37666702   90.88230133    0.25999999    2.71000004
   17.38000107   95.08930206    0.25999999    2.71000004
   17.38222313   99.38729858    0.28000000    2.71000004
   17.38361168  110.27200317    0.25999999    2.71000004
   17.38666725   86.98110199    0.25999999    2.71000004
   17.39277840   86.98110199    0.25999999    2.71000004
   17.39694405  100.63200378    0.23000000    2.71000004
   17.39999962  117.79199982    0.23000000    2.71000004
   17.40333366  100.85500336    0.20999999    2.71000004
   17.40666580   95.55359650    0.20999999    2.71000004
   17.40972137   92.82270050    0.23000000    2.71000004
   17.41305542   98.88950348    0.23000000    2.71000004
   17.41555595  100.71600342    0.20999999    2.71000004
   17.41666603   96.28620148    0.23000000    2.71000004
   17.41972160  121.65100098    0.23000000    2.71000004
   17.42305565  105.91500092    0.20999999    2.71000004
   17.42638779  101.74400330    0.20999999    2.69000006
   17.42944336  107.23699951    0.20999999    2.69000006
   17.43555450  107.23699951    0.23000000    2.71000004
   17.43972206  107.96700287    0.25000000    2.71000004
   17.44305420  100.07499695    0.25000000    2.71000004
   17.44610977  103.99400330    0.25999999    2.71000004
   17.44888878  102.34300232    0.25000000    2.71000004
   17.45000076  104.87000275    0.25000000    2.71000004
   17.45305634  102.13200378    0.23000000    2.71000004
   17.45639038   92.51039886    0.25000000    2.71000004
   17.45972252  106.03199768    0.25000000    2.71000004
   17.46277809  106.60500336    0.30000001    2.69000006
   17.46611214  102.76100159    0.30000001    2.71000004
   17.46944427  105.22699738    0.30000001    2.71000004
   17.47249985   99.21479797    0.31999999    2.71000004
   17.47833443   99.21479797    0.34000000    2.69000006
   17.48250008   97.82340240    0.31999999    2.71000004
   17.48583412  104.80999756    0.31999999    2.71000004
   17.48916626  105.07800293    0.31999999    2.69000006
   17.49222183  101.69799805    0.31999999    2.69000006
   17.49555588  106.25299835    0.31999999    2.71000004
   17.49861145   97.30220032    0.31999999    2.71000004
   17.50194359  106.63600159    0.30000001    2.71000004
   17.50527763   97.35240173    0.30000001    2.71000004
   17.50833321   97.57469940    0.28000000    2.71000004
   17.51166725   91.90299988    0.25999999    2.71000004
   17.51499939   96.40249634    0.25999999    2.71000004
   17.51555634  108.69200134    0.25999999    2.71000004
   17.52138901  108.69200134    0.25000000    2.71000004
   17.52555466  103.78199768    0.25000000    2.71000004
   17.52861023  105.45099640    0.25000000    2.71000004
   17.53194427  103.65200043    0.25000000    2.69000006
   17.53499985  107.08100128    0.25000000    2.71000004
   17.53833199   97.77729797    0.28000000    2.71000004
   17.54166603  104.53900146    0.30000001    2.71000004
   17.54472160   98.04180145    0.31999999    2.71000004
   17.54805565  106.75599670    0.36000001    2.71000004
   17.54888916   94.32189941    0.36000001    2.71000004
   17.55166626  105.72499847    0.36000001    2.71000004
   17.55499840   91.83290100    0.40000001    2.69000006
   17.55805397  102.40699768    0.40000001    2.71000004
   17.56416512  102.40699768    0.31999999    2.71000004
   17.56833458   98.28170013    0.34000000    2.69000006
   17.57166672   95.55860138    0.28000000    2.69000006
   17.57472229   89.03220367    0.25999999    2.69000006
   17.57805634  102.10500336    0.25999999    2.71000004
   17.58111191  108.36100006    0.25999999    2.69000006
   17.58222389  109.39800262    0.25999999    2.69000006
   17.58500099  110.38500214    0.25999999    2.71000004
   17.58833313  113.15100098    0.28000000    2.71000004
   17.59138870  115.62899780    0.30000001    2.69000006
   17.59472275  114.75800323    0.28000000    2.69000006
   17.59777832  103.37899780    0.25999999    2.69000006
   17.60111237  103.95600128    0.25999999    2.71000004
   17.60694504  103.95600128    0.25999999    2.69000006
   17.61111069  104.95500183    0.25000000    2.69000006
   17.61444473  113.59899902    0.25000000    2.71000004
   17.61555672  102.21199799    0.25000000    2.71000004
   17.61805534  118.59700012    0.23000000    2.69000006
   17.62138939  110.34100342    0.23000000    2.71000004
   17.62444496   97.12409973    0.23000000    2.71000004
   17.62777710  102.39900208    0.23000000    2.71000004
   17.63083267  107.23100281    0.23000000    2.71000004
   17.63416672  117.19100189    0.23000000    2.71000004
   17.63750076  120.16699982    0.20999999    2.69000006
   17.64055634  133.20399475    0.20999999    2.69000006
   17.64388847  136.33599854    0.23000000    2.71000004
   17.64972115  136.33599854    0.23000000    2.71000004
   17.65416718  144.15199280    0.23000000    2.71000004
   17.65749931  131.86300659    0.25000000    2.71000004
   17.66055489  125.31099701    0.23000000    2.69000006
   17.66388893  140.00599670    0.25000000    2.69000006
   17.66694450  137.21699524    0.25000000    2.69000006
   17.67027664  137.41200256    0.25000000    2.71000004
   17.67361069  151.01699829    0.25999999    2.71000004
   17.67694473  146.81300354    0.25000000    2.71000004
   17.68027687  156.68099976    0.25000000    2.69000006
   17.68222237  142.64199829    0.25000000    2.71000004
   17.68388748  121.49299622    0.25000000    2.71000004
   17.68722153  140.07800293    0.23000000    2.71000004
   17.69277763  140.07800293    0.23000000    2.71000004
   17.69694328  111.84999847    0.23000000    2.71000004
   17.70000076  137.05700684    0.20999999    2.71000004
   17.70333481  133.97599792    0.20999999    2.71000004
   17.70666695  145.73500061    0.20999999    2.71000004
   17.70972252  129.42199707    0.20999999    2.71000004
   17.71305656  130.37199402    0.20999999    2.71000004
   17.71555710  141.06199646    0.23000000    2.69000006
   17.71666718  121.23100281    0.23000000    2.69000006
   17.72000122  122.66799927    0.20999999    2.71000004
   17.72305679  142.77099609    0.20999999    2.71000004
   17.72638893  139.11300659    0.20999999    2.69000006
   17.72944450  127.95400238    0.20999999    2.71000004
   17.73555565  127.95400238    0.20999999    2.71000004
   17.73972321  128.55099487    0.20999999    2.69000006
   17.74277878  130.86199951    0.20999999    2.71000004
   17.74611092  141.95100403    0.23000000    2.71000004
   17.74888992  123.92400360    0.23000000    2.71000004
   17.74972153  105.64399719    0.23000000    2.71000004
   17.75305557  115.48000336    0.25000000    2.69000006
   17.75611115  113.62500000    0.23000000    2.71000004
   17.75944519  116.49099731    0.23000000    2.71000004
   17.76250076  130.48599243    0.23000000    2.69000006
   17.76583290  134.74699402    0.20999999    2.69000006
   17.76916695  112.46600342    0.20999999    2.69000006
   17.77222252  140.46800232    0.23000000    2.69000006
   17.77833366  140.46800232    0.23000000    2.71000004
   17.78249931  112.33300018    0.23000000    2.69000006
   17.78583336  103.90699768    0.23000000    2.71000004
   17.78888893  104.10600281    0.23000000    2.71000004
   17.79222107  105.14399719    0.25000000    2.71000004
   17.79555511  106.81300354    0.25000000    2.69000006
   17.79861069  116.70099640    0.23000000    2.69000006
   17.80194283  107.66999817    0.25000000    2.69000006
   17.80527687  113.90000153    0.25000000    2.69000006
   17.80833244  127.51399994    0.25000000    2.71000004
   17.81166649  124.69899750    0.25000000    2.71000004
   17.81472206  124.33899689    0.25000000    2.69000006
   17.81555557  116.06600189    0.25000000    2.69000006
   17.82111168  116.06600189    0.25000000    2.71000004
   17.82527924  104.57199860    0.25000000    2.69000006
   17.82861137  120.80000305    0.25000000    2.71000004
   17.83194542  107.78800201    0.25000000    2.71000004
   17.84944534  120.17500305    0.25999999    2.69000006
   17.85194397  124.99600220    0.28000000    2.69000006
   17.85499954  107.76000214    0.25999999    2.69000006
   17.85833359  114.92500305    0.25999999    2.69000006
   17.86416626  114.92500305    0.28000000    2.71000004
   17.86833382  132.68499756    0.25999999    2.71000004
   17.87166595  154.79299927    0.25999999    2.69000006
   17.87500000  134.03500366    0.28000000    2.69000006
   17.87805557  135.76199341    0.30000001    2.69000006
   17.88138962  130.75300598    0.30000001    2.69000006
   17.88277817  143.60800171    0.31999999    2.69000006
   17.88500023  131.02299500    0.31999999    2.69000006
   17.88833237  129.46899414    0.46000001    2.69000006
   17.89138794  127.04499817    0.44000000    2.71000004
   17.89472198  128.80000305    0.41999999    2.69000006
   17.89805603  129.48899841    0.40000001    2.69000006
   17.90111160  136.78199768    0.34000000    2.71000004
   17.90722275  136.78199768    0.31999999    2.69000006
   17.91110992  123.02100372    0.30000001    2.71000004
   17.91444397  121.94200134    0.30000001    2.69000006
   17.91611099  129.94299316    0.31999999    2.71000004
   17.91805458  117.94000244    0.28000000    2.71000004
   17.92138863  122.55400085    0.25999999    2.71000004
   17.92444420  116.07800293    0.25999999    2.69000006
   17.92777634  126.38500214    0.25999999    2.71000004
   17.93111038  106.87300110    0.25999999    2.69000006
   17.93416595  107.13999939    0.25999999    2.69000006
   17.93750000  109.87500000    0.25999999    2.69000006
   17.94083214  102.40799713    0.25999999    2.69000006
   17.94388771  122.33200073    0.25999999    2.69000006
   17.95000076  122.33200073    0.25000000    2.69000006
   17.95416832  123.54599762    0.23000000    2.69000006
   17.95722389  118.58499908    0.23000000    2.71000004
   17.96055603  120.10600281    0.25000000    2.71000004
   17.96389008  133.12100220    0.25000000    2.69000006
   17.96694565  130.03399658    0.25000000    2.69000006
   17.97027779  126.22799683    0.25000000    2.69000006
   17.97333336  121.41300201    0.23000000    2.71000004
   17.97666740  119.92500305    0.25000000    2.69000006
   17.98000145  136.85899353    0.25999999    2.69000006
   17.98277855  136.20500183    0.25000000    2.69000006
   17.98361206  133.59199524    0.25000000    2.69000006
   17.98694420  129.03399658    0.25000000    2.69000006
   17.99277878  129.03399658    0.25000000    2.69000006
   17.99694443  121.30799866    0.25999999    2.69000006
   18.00000000  123.68399811    0.23000000    2.71000004
   18.00333405  122.02700043    0.23000000    2.71000004
   18.00666618  119.28600311    0.20999999    2.69000006
   18.00972176  120.17199707    0.20999999    2.69000006
   18.01305580  115.82499695    0.20999999    2.69000006
   18.01611137  100.09400177    0.20999999    2.69000006
   18.01666641  118.56400299    0.20999999    2.69000006
   18.02000046  124.06099701    0.20999999    2.71000004
   18.02333260  107.59899902    0.23000000    2.71000004
   18.02638817  110.27500153    0.23000000    2.71000004
   18.02972221  124.79000092    0.20999999    2.71000004
   18.03555489  124.79000092    0.23000000    2.69000006
   18.03972244  115.81800079    0.23000000    2.69000006
   18.04305458  108.67400360    0.23000000    2.69000006
   18.04611015  117.60199738    0.23000000    2.69000006
   18.04944420  127.44300079    0.20999999    2.69000006
   18.04972076  112.07800293    0.20999999    2.69000006
   18.05305481  120.06900024    0.23000000    2.69000006
   18.05611038  108.94899750    0.25000000    2.69000006
   18.05944443  115.78800201    0.23000000    2.69000006
   18.06277657  113.19499969    0.25000000    2.69000006
   18.06583214  110.67500305    0.23000000    2.69000006
   18.06916809  132.49699402    0.23000000    2.69000006
   18.07250023   98.30229950    0.25000000    2.69000006
   18.07833481   98.30229950    0.25000000    2.69000006
   18.08250046  102.53099823    0.25999999    2.69000006
   18.08305550  101.85099792    0.25999999    2.69000006
   18.08638954  103.25499725    0.25000000    2.69000006
   18.08972359  109.72599792    0.25000000    2.69000006
   18.09277916  105.37599945    0.25000000    2.69000006
   18.09611130  105.03900146    0.25999999    2.69000006
   18.09916687  125.68900299    0.28000000    2.71000004
   18.10250092  100.88500214    0.25000000    2.69000006
   18.10583305  107.76300049    0.25000000    2.69000006
   18.10888863  110.88500214    0.25000000    2.69000006
   18.11222267  107.61100006    0.25999999    2.67000008
   18.11555672  104.86900330    0.25999999    2.69000006
   18.11638832  108.98899841    0.25999999    2.69000006
   18.12138939  108.98899841    0.25999999    2.69000006
   18.12555504  115.26000214    0.25999999    2.69000006
   18.12861061  115.03900146    0.25999999    2.69000006
   18.13194466  125.68299866    0.25999999    2.69000006
   18.13500023  120.00000000    0.25999999    2.69000006
   18.13833237  113.28500366    0.28000000    2.69000006
   18.14166641  121.14600372    0.28000000    2.69000006
   18.14472198  108.35900116    0.28000000    2.69000006
   18.14805603  125.69599915    0.25000000    2.69000006
   18.14972115  111.94799805    0.25000000    2.69000006
   18.15166664  107.56700134    0.25000000    2.69000006
   18.15499878  122.87500000    0.23000000    2.69000006
   18.15805435  130.46400452    0.23000000    2.69000006
   18.16416550  130.46400452    0.23000000    2.71000004
   18.16833305  152.24000549    0.25000000    2.69000006
   18.17138863  131.28900146    0.25000000    2.67000008
   18.17472076  157.48699951    0.23000000    2.69000006
   18.17805481  145.37300110    0.25000000    2.69000006
   18.18111038  153.50399780    0.23000000    2.69000006
   18.18305397  160.49099731    0.25000000    2.69000006
   18.18499947  153.43499756    0.23000000    2.69000006
   18.18833160  147.00900269    0.23000000    2.69000006
   18.19138718  143.48800659    0.25000000    2.69000006
   18.19472122  153.04299927    0.25000000    2.69000006
   18.19777679  135.78799438    0.23000000    2.69000006
   18.20111275  135.76499939    0.23000000    2.69000006
   18.20694542  135.76499939    0.23000000    2.69000006
   18.21111107  141.71000671    0.23000000    2.67000008
   18.21444511  136.46600342    0.23000000    2.69000006
   18.21638870  143.61500549    0.20999999    2.69000006
   18.21805573  155.93099976    0.20999999    2.69000006
   18.22138977  148.50300598    0.20999999    2.69000006
   18.22444534  153.26600647    0.23000000    2.69000006
   18.22777748  142.76899719    0.23000000    2.69000006
   18.23083305  145.39300537    0.25000000    2.69000006
   18.23416710  147.61500549    0.25000000    2.69000006
   18.23750114  154.90400696    0.25000000    2.69000006
   18.24055672  148.00900269    0.25000000    2.69000006
   18.24388885  152.33799744    0.25000000    2.69000006
   18.24972153  152.33799744    0.25000000    2.69000006
   18.25388908  138.69000244    0.25000000    2.69000006
   18.25722313  146.23100281    0.25000000    2.67000008
   18.26055527  167.87800598    0.25000000    2.69000006
   18.26361084  156.00599670    0.25000000    2.69000006
   18.26694489  165.86799622    0.25000000    2.69000006
   18.27027702  144.38499451    0.25000000    2.69000006
   18.27333260  130.41000366    0.25000000    2.67000008
   18.27666664  129.60800171    0.25000000    2.69000006
   18.27972221  138.59599304    0.25000000    2.67000008
   18.28305435  133.61399841    0.25000000    2.69000006
   18.28361130  152.95899963    0.25000000    2.69000006
   18.28694344  143.53199768    0.25000000    2.69000006
   18.29277802  143.53199768    0.25000000    2.67000008
   18.29694366  151.49600220    0.25000000    2.69000006
   18.29999924  147.74899292    0.25000000    2.67000008
   18.30333328  150.21299744    0.25999999    2.67000008
   18.30638885  138.57299805    0.25999999    2.69000006
   18.30972099  131.38800049    0.28000000    2.67000008
   18.31305504  151.15199280    0.44000000    2.67000008
   18.31611061  142.75300598    0.46000001    2.69000006
   18.31722260  148.01699829    0.46000001    2.69000006
   18.32000160  138.22200012    0.51999998    2.67000008
   18.32333374  147.13900757    0.41999999    2.67000008
   18.32638931  145.28199768    0.40000001    2.67000008
   18.32972336  134.96600342    0.36000001    2.67000008
   18.33555603  134.96600342    0.28000000    2.67000008
   18.33972359  130.52400208    0.28000000    2.67000008
   18.34277916  132.05200195    0.28000000    2.69000006
   18.34611130  138.51699829    0.28000000    2.67000008
   18.34944534  126.54499817    0.28000000    2.67000008
   18.35027885  124.89299774    0.28000000    2.67000008
   18.35305595  147.10099792    0.30000001    2.67000008
   18.35611153  148.94900513    0.28000000    2.67000008
   18.35944557  134.24699402    0.25000000    2.67000008
   18.36277771  129.99699402    0.28000000    2.67000008
   18.36583328  133.68899536    0.25999999    2.69000006
   18.36916733  141.72700500    0.25999999    2.67000008
   18.37249947  141.08000183    0.28000000    2.67000008
   18.37833405  141.08000183    0.30000001    2.69000006
   18.38249969  144.11300659    0.31999999    2.67000008
   18.38361168  131.30000305    0.31999999    2.67000008
   18.38611031  153.49600220    0.31999999    2.67000008
   18.38916588  146.84800720    0.31999999    2.67000008
   18.39249992  144.27400208    0.31999999    2.67000008
   18.39583397  137.12899780    0.30000001    2.67000008
   18.39888954  142.71600342    0.30000001    2.67000008
   18.40222168  130.23699951    0.30000001    2.67000008
   18.40527725  158.21699524    0.30000001    2.67000008
   18.40861130  121.46700287    0.30000001    2.67000008
   18.41194344  144.80900574    0.31999999    2.67000008
   18.41499901  129.17799377    0.34000000    2.67000008
   18.41694450  153.22999573    0.34000000    2.67000008
   18.42111015  153.22999573    0.30000001    2.67000008
   18.42527771  125.03800201    0.38000000    2.67000008
   18.42860985  140.01300049    0.46000001    2.67000008
   18.43194389  136.71400452    0.46000001    2.67000008
   18.43499947  136.12899780    0.40000001    2.67000008
   18.43833160  130.57099915    0.36000001    2.67000008
   18.44166565  126.37799835    0.36000001    2.69000006
   18.44472122  134.71000671    0.34000000    2.67000008
   18.44805527  134.76699829    0.34000000    2.67000008
   18.45027924  124.46499634    0.34000000    2.67000008
   18.45166779  116.06900024    0.34000000    2.67000008
   18.45499992  115.76799774    0.34000000    2.67000008
   18.45833397  130.72999573    0.30000001    2.67000008
   18.46416664  130.72999573    0.30000001    2.67000008
   18.46833420  121.98799896    0.30000001    2.67000008
   18.47138977  122.56500244    0.30000001    2.67000008
   18.47472191  121.78399658    0.28000000    2.67000008
   18.47777748  117.09400177    0.28000000    2.69000006
   18.48111153  130.78999329    0.25000000    2.69000006
   18.48361206  129.50999451    0.25000000    2.67000008
   18.48472214  113.27999878    0.25000000    2.67000008
   18.48777771  118.76200104    0.25000000    2.67000008
   18.49111176  114.98500061    0.23000000    2.67000008
   18.49444389  129.83700562    0.23000000    2.67000008
   18.49749947  131.75900269    0.23000000    2.67000008
   18.50083351  130.84500122    0.23000000    2.67000008
   18.50694466  130.84500122    0.23000000    2.67000008
   18.51111031  119.24299622    0.20999999    2.67000008
   18.51416588  109.24199677    0.25000000    2.67000008
   18.51694489  121.46900177    0.28000000    2.66000009
   18.51805496  109.60500336    0.28000000    2.67000008
   18.52111053  129.36300659    0.30000001    2.69000006
   18.52444458  127.16600037    0.30000001    2.67000008
   18.52777672  111.87200165    0.36000001    2.67000008
   18.53083229  109.34600067    0.30000001    2.67000008
   18.53416634  128.98199463    0.30000001    2.67000008
   18.53722191  115.37200165    0.30000001    2.67000008
   18.54055595  108.74199677    0.25000000    2.67000008
   18.54388809  125.80300140    0.25000000    2.67000008
   18.54972076  125.80300140    0.25000000    2.67000008
   18.55388832  127.13500214    0.25000000    2.67000008
   18.55722237  113.89900208    0.25000000    2.67000008
   18.56027794  107.37899780    0.25000000    2.66000009
   18.56361008  120.00199890    0.25000000    2.67000008
   18.56694603  113.99299622    0.25000000    2.66000009
   18.57000160  114.01100159    0.25000000    2.66000009
   18.57333374  109.86900330    0.25000000    2.67000008
   18.57638931  100.63099670    0.25000000    2.67000008
   18.57972336  116.07099915    0.25000000    2.67000008
   18.58305550  107.81900024    0.31999999    2.67000008
   18.58472252  114.73200226    0.25999999    2.67000008
   18.58666801  128.60400391    0.25000000    2.67000008
   18.59250069  128.60400391    0.25999999    2.67000008
   18.59666824  109.15699768    0.25999999    2.67000008
   18.60000038  107.61599731    0.25000000    2.66000009
   18.60333443  119.95300293    0.25000000    2.66000009
   18.60639000  106.79699707    0.25999999    2.67000008
   18.60972214  110.07700348    0.25999999    2.66000009
   18.61277771  108.87999725    0.25999999    2.67000008
   18.61611176  111.67400360    0.28000000    2.67000008
   18.61805534  114.42900085    0.28000000    2.67000008
   18.61972237  109.07599640    0.28000000    2.66000009
   18.62305641  113.48200226    0.28000000    2.66000009
   18.62611198  117.35700226    0.28000000    2.66000009
   18.62944412  114.83599854    0.28000000    2.66000009
   18.63555527  114.83599854    0.25999999    2.67000008
   18.63972282  117.13400269    0.25999999    2.66000009
   18.64277840  114.21299744    0.25999999    2.67000008
   18.64611053  111.81500244    0.25999999    2.66000009
   18.64916611  121.58899689    0.25999999    2.66000009
   18.65166664  124.04900360    0.25999999    2.67000008
   18.65305519  118.01499939    0.25999999    2.67000008
   18.65611076  118.43699646    0.28000000    2.66000009
   18.65944481  113.68199921    0.28000000    2.67000008
   18.66277695  108.80699921    0.28000000    2.66000009
   18.66583252  102.15299988    0.28000000    2.66000009
   18.66916656  118.07599640    0.25000000    2.66000009
   18.67249870  112.57900238    0.25000000    2.66000009
   18.67833328  112.57900238    0.25000000    2.66000009
   18.68249893  117.65200043    0.25000000    2.66000009
   18.68499947  120.53500366    0.28000000    2.66000009
   18.68610954  111.02600098    0.28000000    2.67000008
   18.68916512  105.74099731    0.28000000    2.67000008
   18.69249916  121.72100067    0.25999999    2.67000008
   18.69583321  107.41899872    0.25000000    2.67000008
   18.69888878  119.02600098    0.25000000    2.66000009
   18.70222282  105.70800018    0.25000000    2.66000009
   18.70555687  114.05000305    0.23000000    2.66000009
   18.70861244  108.89700317    0.25000000    2.66000009
   18.71194458  112.71499634    0.25999999    2.66000009
   18.71500015  105.51599884    0.25999999    2.67000008
   18.72111130  105.51599884    0.28000000    2.66000009
   18.72527885  116.16699982    0.28000000    2.66000009
   18.72861099  118.37500000    0.28000000    2.67000008
   18.73166656  109.77999878    0.30000001    2.66000009
   18.73500061  109.77600098    0.31999999    2.66000009
   18.73833275  124.12400055    0.30000001    2.66000009
   18.74138832  114.33399963    0.30000001    2.66000009
   18.74472237  121.72599792    0.30000001    2.66000009
   18.74777794  109.59300232    0.31999999    2.66000009
   18.75111198  104.09899902    0.30000001    2.66000009
   18.75194359  105.04299927    0.30000001    2.66000009
   18.75472260  107.15399933    0.36000001    2.64000010
   18.75805473   99.94439697    0.36000001    2.66000009
   18.76388931   99.94439697    0.40000001    2.66000009
   18.76805496  109.37699890    0.41999999    2.66000009
   18.77138901   91.57019806    0.41999999    2.66000009
   18.77472115  117.41000366    0.41999999    2.64000010
   18.77777672   93.62719727    0.40000001    2.66000009
   18.78111076  114.37100220    0.40000001    2.66000009
   18.78444481  107.16600037    0.38000000    2.66000009
   18.78527641  116.21499634    0.40000001    2.66000009
   18.78805542  111.86699677    0.40000001    2.66000009
   18.79138756  103.55100250    0.41999999    2.66000009
   18.79444313  106.77700043    0.40000001    2.66000009
   18.79777718  120.44000244    0.46000001    2.66000009
   18.80111122  104.55899811    0.40000001    2.66000009
   18.80694389  104.55899811    0.28000000    2.64000010
   18.81110954  108.44200134    0.25000000    2.66000009
   18.81416512  114.87400055    0.25000000    2.66000009
   18.81750107  111.25800323    0.25000000    2.66000009
   18.81888962  105.04100037    0.25000000    2.66000009
   18.82111168   98.20120239    0.25000000    2.66000009
   18.82416725  110.55000305    0.25000000    2.66000009
   18.82750130  101.67600250    0.25999999    2.66000009
   18.83083344   98.82530212    0.25000000    2.66000009
   18.83388901   98.37049866    0.25000000    2.67000008
   18.83722305  116.09100342    0.25000000    2.66000009
   18.84055710  108.47699738    0.25999999    2.66000009
   18.84361267  103.23999786    0.25999999    2.66000009
   18.84972191  103.23999786    0.28000000    2.64000010
   18.86805534  106.68699646    0.25999999    2.66000009
   18.87138939   93.65160370    0.25000000    2.66000009
   18.87444496  102.05799866    0.25999999    2.66000009
   18.87777710   95.17910004    0.25000000    2.66000009
   18.88083267  104.54199982    0.25999999    2.66000009
   18.88416672   94.29290009    0.25999999    2.66000009
   18.88750076   99.60240173    0.25999999    2.66000009
   18.89277840   99.60240173    0.25999999    2.66000009
   18.89694405  106.50000000    0.25999999    2.64000010
   18.89999962  109.78800201    0.25999999    2.64000010
   18.90111160  110.71199799    0.25999999    2.66000009
   18.90388870  115.19999695    0.28000000    2.66000009
   18.90694427  110.92199707    0.25999999    2.66000009
   18.91027832  105.83300018    0.28000000    2.64000010
   18.91361046  101.86399841    0.28000000    2.64000010
   18.91666603   94.86589813    0.28000000    2.64000010
   18.92000008  117.61499786    0.28000000    2.64000010
   18.92333221  113.51599884    0.30000001    2.64000010
   18.92638779  109.32700348    0.30000001    2.64000010
   18.92972183  102.61799622    0.30000001    2.64000010
   18.93555450  102.61799622    0.30000001    2.64000010
   18.93972206   93.17120361    0.28000000    2.64000010
   18.94305420   96.38549805    0.28000000    2.64000010
   18.94610977  105.35700226    0.25999999    2.66000009
   18.94944382  116.87699890    0.25000000    2.66000009
   18.95277786  117.37799835    0.25000000    2.66000009
   18.95583344  123.03099823    0.23000000    2.66000009
   18.95916748  105.57800293    0.23000000    2.66000009
   18.96222305  124.40299988    0.23000000    2.64000010
   18.96555710  111.96199799    0.23000000    2.64000010
   18.96777916   99.57730103    0.23000000    2.64000010
   18.96944427  102.24700165    0.23000000    2.64000010
   18.97249985  108.35700226    0.25000000    2.64000010
   18.97833443  108.35700226    0.30000001    2.64000010
   18.98250008  104.54599762    0.25999999    2.64000010
   18.98583412  103.65299988    0.25999999    2.64000010
   18.98916626  102.54699707    0.25999999    2.66000009
   18.99222183  100.71399689    0.31999999    2.64000010
   18.99555588  109.52300262    0.30000001    2.64000010
   18.99861145  119.85700226    0.30000001    2.64000010
   19.00111198  101.60600281    0.30000001    2.64000010
   19.00250053  112.73200226    0.30000001    2.64000010
   19.00555611  101.44000244    0.30000001    2.64000010
   19.00888824   99.77960205    0.28000000    2.64000010
   19.01194382  110.87599945    0.28000000    2.64000010
   19.01527786  110.65699768    0.30000001    2.64000010
   19.02138901  110.65699768    0.30000001    2.64000010
   19.02555466  105.73899841    0.25999999    2.64000010
   19.02861023  113.42900085    0.25999999    2.64000010
   19.03194427  106.28199768    0.25999999    2.64000010
   19.03444481  104.75299835    0.28000000    2.64000010
   19.03555489  102.69599915    0.28000000    2.64000010
   19.03861046  103.33399963    0.34000000    2.64000010
   19.04194450  121.22699738    0.31999999    2.64000010
   19.04527664  117.44799805    0.28000000    2.64000010
   19.04833221  114.27400208    0.28000000    2.64000010
   19.05166626  109.16400146    0.28000000    2.64000010
   19.05499840  103.43299866    0.28000000    2.64000010
   19.05805397   92.01260376    0.28000000    2.64000010
   19.06416512   92.01260376    0.25999999    2.64000010
   19.06833458  102.51699829    0.28000000    2.64000010
   19.07139015  112.74099731    0.28000000    2.64000010
   19.07472229   94.52790070    0.30000001    2.64000010
   19.07805634  103.05300140    0.28000000    2.64000010
   19.08111191  110.90100098    0.28000000    2.64000010
   19.08444595  106.55899811    0.28000000    2.64000010
   19.08777809  117.74099731    0.28000000    2.64000010
   19.09083366  116.91100311    0.28000000    2.64000010
   19.09416771  107.37400055    0.28000000    2.64000010
   19.09722328  106.05300140    0.30000001    2.64000010
   19.10055542  104.13999939    0.28000000    2.61999989
   19.10111237  115.49299622    0.30000001    2.61999989
   19.10694504  115.49299622    0.36000001    2.64000010
   19.11111069  109.70200348    0.41999999    2.64000010
   19.11444473  100.91799927    0.46000001    2.61999989
   19.11750031  109.78399658    0.46000001    2.64000010
   19.12083435  113.81400299    0.36000001    2.61999989
   19.12388992  110.80899811    0.38000000    2.61999989
   19.12722206   93.94539642    0.34000000    2.61999989
   19.13055611   98.36810303    0.34000000    2.61999989
   19.13361168  108.49299622    0.36000001    2.61999989
   19.13444519  108.57399750    0.36000001    2.61999989
   19.13750076   99.75000000    0.36000001    2.61999989
   19.14055634  113.09799957    0.36000001    2.61999989
   19.14388847  105.07099915    0.36000001    2.61999989
   19.14972115  105.07099915    0.34000000    2.61999989
   19.15388870  104.09300232    0.34000000    2.61999989
   19.15722275  107.83999634    0.34000000    2.61999989
   19.16055489  108.31700134    0.36000001    2.61999989
   19.16361046  104.86100006    0.34000000    2.61999989
   19.16694450  101.61000061    0.34000000    2.61999989
   19.16777802  115.82499695    0.34000000    2.61999989
   19.17055511  108.94499969    0.34000000    2.61999989
   19.17361069  115.11199951    0.40000001    2.61999989
   19.17694473  114.21499634    0.40000001    2.61999989
   19.18027687  115.73799896    0.38000000    2.61999989
   19.18333244  112.62699890    0.41999999    2.61999989
   19.18666649  105.08799744    0.41999999    2.61999989
   19.19277763  105.08799744    0.41999999    2.61999989
   19.19694328  113.30000305    0.36000001    2.61999989
   19.20000076  110.59700012    0.38000000    2.61999989
   19.20111275   95.19409943    0.38000000    2.61999989
   19.20361137  111.61699677    0.40000001    2.61999989
   19.20666695   98.58740234    0.38000000    2.61999989
   19.21000099   89.28350067    0.38000000    2.61999989
   19.21333504   94.99569702    0.38000000    2.61999989
   19.21638870  104.90100098    0.47999999    2.61999989
   19.21972275  103.80899811    0.50000000    2.61999989
   19.22305679  102.51399994    0.47999999    2.61999989
   19.22611237  102.20600128    0.46000001    2.61999989
   19.22944450   97.33350372    0.47999999    2.61999989
   19.23555565   97.33350372    0.40000001    2.64000010
   19.23972321  104.79799652    0.38000000    2.61999989
   19.24277878  101.30799866    0.36000001    2.61999989
   19.24611092   96.80789948    0.34000000    2.61999989
   19.24944496  101.89299774    0.30000001    2.61999989
   19.25250053  105.39399719    0.30000001    2.61999989
   19.25583267  100.96299744    0.30000001    2.61999989
   19.25888824  104.17500305    0.30000001    2.61999989
   19.26222229   95.13800049    0.30000001    2.64000010
   19.26555634  103.93099976    0.31999999    2.61999989
   19.26777840   97.07270050    0.30000001    2.61999989
   19.26916695   91.47429657    0.30000001    2.61999989
   19.27222252  106.78099823    0.31999999    2.61999989
   19.27833366  106.78099823    0.34000000    2.59999990
   19.28249931  109.31800079    0.31999999    2.61999989
   19.28583336  112.90699768    0.31999999    2.59999990
   19.28888893  109.71700287    0.30000001    2.61999989
   19.29222107  102.48200226    0.30000001    2.61999989
   19.29527664  112.36399841    0.30000001    2.61999989
   19.29861069  110.05300140    0.30000001    2.61999989
   19.30111122   99.75789642    0.30000001    2.61999989
   19.30222130  105.69599915    0.30000001    2.61999989
   19.30527687  104.27400208    0.30000001    2.59999990
   19.30861092  102.48200226    0.28000000    2.61999989
   19.31194305  101.01200104    0.31999999    2.59999990
   19.31499863  101.82700348    0.28000000    2.59999990
   19.32111168  101.82700348    0.34000000    2.61999989
   19.32527924   94.04820251    0.36000001    2.59999990
   19.32861137   97.94689941    0.31999999    2.61999989
   19.33194542  101.96600342    0.34000000    2.61999989
   19.33444595   92.22560120    0.31999999    2.59999990
   19.33555603  106.74199677    0.31999999    2.61999989
   19.33861160  103.69699860    0.30000001    2.61999989
   19.34194565  105.84500122    0.30000001    2.59999990
   19.34527779  101.69300079    0.31999999    2.61999989
   19.34833336  104.64299774    0.31999999    2.59999990
   19.35166740   96.45020294    0.31999999    2.61999989
   19.35499954  104.31500244    0.31999999    2.61999989
   19.35805511  107.54100037    0.30000001    2.59999990
   19.36416626  107.54100037    0.30000001    2.59999990
   19.36805534  103.65200043    0.31999999    2.59999990
   19.37138939  102.32299805    0.31999999    2.59999990
   19.37472153   95.06739807    0.30000001    2.59999990
   19.37777710  103.03199768    0.31999999    2.59999990
   19.38111115  101.11900330    0.31999999    2.59999990
   19.38444519   96.81860352    0.30000001    2.59999990
   19.38750076  102.10500336    0.30000001    2.59999990
   19.39083290  110.93699646    0.30000001    2.59999990
   19.39416695  102.30599976    0.30000001    2.59999990
   19.39722252   98.42819977    0.31999999    2.59999990
   19.40055466  109.33100128    0.31999999    2.59999990
   19.40111160  106.16300201    0.31999999    2.59999990
   19.40694427  106.16300201    0.34000000    2.59999990
   19.41110992  107.27300262    0.34000000    2.59999990
   19.41416550  105.10500336    0.34000000    2.59999990
   19.41749954   94.30100250    0.34000000    2.59999990
   19.42083359  101.33899689    0.31999999    2.59999990
   19.42388916  101.80500031    0.31999999    2.59999990
   19.42722130  100.77500153    0.30000001    2.59999990
   19.43027687   99.77380371    0.30000001    2.59999990
   19.43361092   99.62899780    0.31999999    2.59999990
   19.43444443   92.62889862    0.31999999    2.59999990
   19.43722153   93.69370270    0.31999999    2.59999990
   19.44055557   95.66439819    0.40000001    2.59999990
   19.44361115   90.04350281    0.41999999    2.59999990
   19.44972038   90.04350281    0.31999999    2.57999992
   19.45388985   83.85500336    0.30000001    2.59999990
   19.45722389   96.59799957    0.30000001    2.57999992
   19.46027946   93.69660187    0.30000001    2.59999990
   19.46361160   89.82119751    0.30000001    2.59999990
   19.46694565   88.67469788    0.30000001    2.59999990
   19.46777916   92.03060150    0.30000001    2.59999990
   19.47055626   91.05770111    0.30000001    2.59999990
   19.47389030   93.96209717    0.30000001    2.57999992
   19.47694588   93.32369995    0.30000001    2.59999990
   19.48027802   98.61660004    0.28000000    2.59999990
   19.48361206  108.33300018    0.28000000    2.59999990
   19.48666763   94.70700073    0.30000001    2.57999992
   19.49250031   94.70700073    0.30000001    2.59999990
   19.49666786   84.76499939    0.28000000    2.59999990
   19.50000000   94.97969818    0.28000000    2.57999992
   19.50111198   93.43939972    0.28000000    2.57999992
   19.50361061  104.07900238    0.28000000    2.59999990
   19.50666618   99.36270142    0.28000000    2.59999990
   19.51000023   93.24739838    0.30000001    2.59999990
   19.51333427   98.97149658    0.30000001    2.57999992
   19.51638794   88.61959839    0.30000001    2.57999992
   19.51972198  104.13899994    0.30000001    2.57999992
   19.52305603   98.94940186    0.30000001    2.57999992
   19.52611160  104.69100189    0.30000001    2.57999992
   19.52944374   98.12539673    0.30000001    2.57999992
   19.53555489   98.12539673    0.31999999    2.57999992
   19.53944397   94.20719910    0.30000001    2.59999990
   19.54277802  101.82099915    0.31999999    2.57999992
   19.54611015  100.42900085    0.31999999    2.57999992
   19.54916573  103.62999725    0.30000001    2.57999992
   19.55249977  102.97499847    0.30000001    2.57999992
   19.55583191  101.21900177    0.30000001    2.57999992
   19.55888748  105.26699829    0.30000001    2.57999992
   19.56222153  101.35500336    0.30000001    2.57999992
   19.56527710  106.47599792    0.30000001    2.57999992
   19.56777954  111.70200348    0.31999999    2.57999992
   19.56916809  107.00599670    0.31999999    2.57999992
   19.57250023  103.93299866    0.31999999    2.57999992
   19.57833481  103.93299866    0.31999999    2.57999992
   19.58250046  117.37799835    0.30000001    2.57999992
   19.58555603  107.52999878    0.30000001    2.59999990
   19.58889008  113.80000305    0.30000001    2.57999992
   19.59222221  107.60800171    0.30000001    2.57999992
   19.59527779  113.76899719    0.30000001    2.57999992
   19.59861183  106.36199951    0.30000001    2.57999992
   19.60111237  107.68800354    0.30000001    2.57999992
   19.60222244   99.62239838    0.30000001    2.57999992
   19.60555649  115.91200256    0.30000001    2.57999992
   19.60861206  114.62899780    0.30000001    2.57999992
   19.61194420  108.92299652    0.30000001    2.57999992
   19.61499977   99.31819916    0.30000001    2.57999992
   19.62111092   99.31819916    0.30000001    2.55999994
   19.62527847  109.93299866    0.30000001    2.55999994
   19.62861061  110.17500305    0.30000001    2.57999992
   19.63166618   99.89409637    0.30000001    2.57999992
   19.63444519   88.73459625    0.30000001    2.55999994
   19.63527679  111.84500122    0.30000001    2.57999992
   19.63861084  104.05899811    0.31999999    2.55999994
   19.64166641  111.85700226    0.31999999    2.55999994
   19.64500046  116.04299927    0.31999999    2.55999994
   19.64805603   98.84580231    0.31999999    2.55999994
   19.65138817  114.33100128    0.31999999    2.55999994
   19.65472221   97.87969971    0.31999999    2.55999994
   19.65777779  108.89099884    0.31999999    2.55999994
   19.66388893  108.89099884    0.34000000    2.55999994
   19.66805458   99.12670135    0.38000000    2.55999994
   19.67138863  102.99600220    0.36000001    2.55999994
   19.67444420  106.43900299    0.34000000    2.55999994
   19.67777634  103.80200195    0.36000001    2.55999994
   19.68111038  107.77200317    0.38000000    2.55999994
   19.68416595   96.18129730    0.38000000    2.55999994
   19.68750000  109.20700073    0.38000000    2.55999994
   19.69083214  106.48400116    0.36000001    2.55999994
   19.69388771   91.48280334    0.38000000    2.55999994
   19.69722176  107.49700165    0.36000001    2.55999994
   19.70027924  102.19499969    0.36000001    2.55999994
   19.70111275   96.00589752    0.36000001    2.55999994
   19.70694542   96.00589752    0.34000000    2.55999994
   19.71083450  105.99199677    0.34000000    2.55999994
   19.71416664  109.47799683    0.34000000    2.55999994
   19.71750069  105.21800232    0.34000000    2.55999994
   19.72055626  109.13999939    0.34000000    2.55999994
   19.72389030  104.56199646    0.34000000    2.55999994
   19.72722244  103.51300049    0.34000000    2.55999994
   19.73027802  101.26899719    0.34000000    2.55999994
   19.73361206  115.39299774    0.34000000    2.55999994
   19.73444557   90.56230164    0.34000000    2.55999994
   19.73722267   85.23069763    0.34000000    2.55999994
   19.74055672   91.44149780    0.34000000    2.55999994
   19.74361229  104.55100250    0.34000000    2.55999994
   19.74972153  104.55100250    0.34000000    2.55999994
   19.75388908   96.97370148    0.34000000    2.55999994
   19.75694466   89.96820068    0.34000000    2.55999994
   19.76027870   94.62049866    0.34000000    2.55999994
   19.76361084   95.03410339    0.34000000    2.55999994
   19.76666641   87.32460022    0.34000000    2.55999994
   19.76777840   98.99780273    0.34000000    2.55999994
   19.77027702   98.50289917    0.34000000    2.55999994
   19.77361107   93.48880005    0.34000000    2.55999994
   19.77666664   99.29209900    0.34000000    2.55999994
   19.78000069   99.78769684    0.36000001    2.55999994
   19.78333282  101.19200134    0.36000001    2.55999994
   19.78638840  108.34300232    0.36000001    2.55999994
   19.79249954  108.34300232    0.36000001    2.55999994
   19.79666710  210.98199463    0.36000001    2.55999994
   19.79999924   92.30539703    0.36000001    2.53999996
   19.80111122  102.96600342    0.34000000    2.53999996
   19.80360985   96.44550323    0.34000000    2.53999996
   19.80694389   95.23439789    0.36000001    2.51999998
   19.80999947   87.65260315    0.36000001    2.53999996
   19.81333351   85.52960205    0.36000001    2.53999996
   19.81666756   93.52020264    0.36000001    2.53999996
   19.81972313  124.68399811    0.36000001    2.53999996
   19.82305717  149.44299316    0.34000000    2.53999996
   19.82611275  204.73100281    0.34000000    2.53999996
   19.82944489  206.81900024    0.34000000    2.53999996
   19.83527756  206.81900024    0.38000000    2.53999996
   19.83944511   59.63280106    0.38000000    2.53999996
   19.84277916   -1.00000000    0.36000001    2.51999998
   19.84583473   -1.00000000    0.36000001    2.51999998
   19.84916687   -1.00000000    0.38000000    2.51999998
   19.85250092   -1.00000000    0.36000001    2.53999996
   19.85555649   -1.00000000    0.36000001    2.53999996
   19.85888863   -1.00000000    0.36000001    2.53999996
   19.86194420   -1.00000000    0.36000001    2.53999996
   19.86527824   -1.00000000    0.36000001    2.53999996
   19.89249992   -1.00000000    0.41999999    2.51999998
   19.89583397   -1.00000000    0.40000001    2.51999998
   19.89916611   -1.00000000    0.38000000    2.51999998
   19.90277672   -1.00000000    0.36000001    2.51999998
   19.90583229   -1.00000000    0.36000001    2.51999998
   19.90916634   -1.00000000    0.38000000    2.51999998
   19.91250038   -1.00000000    0.38000000    2.51999998
   19.91555595   -1.00000000    0.36000001    2.51999998
   19.91888809   -1.00000000    0.40000001    2.51999998
   19.92194366   -1.00000000    0.38000000    2.51999998
   19.92527771   -1.00000000    0.38000000    2.51999998
   19.93527603   -1.00000000    0.38000000    2.51999998
   19.93861008   -1.00000000    0.38000000    2.51999998
   19.94166565   -1.00000000    0.38000000    2.51999998
   19.94499969   -1.00000000    0.38000000    2.51999998
   19.94805527   -1.00000000    0.36000001    2.50000000
   19.95138931   -1.00000000    0.38000000    2.51999998
   19.95472336   -1.00000000    0.38000000    2.50000000
   19.95777893   -1.00000000    0.38000000    2.51999998
   19.96111107   -1.00000000    0.38000000    2.51999998
   19.96444511   -1.00000000    0.38000000    2.51999998
   19.96750069   -1.00000000    0.38000000    2.51999998
   19.97805595   -1.00000000    0.38000000    2.50000000
   19.98139000   -1.00000000    0.38000000    2.50000000
   19.98444557   -1.00000000    0.38000000    2.50000000
   19.98777771   -1.00000000    0.38000000    2.50000000
   19.99111176   -1.00000000    0.38000000    2.50000000
   19.99416733   -1.00000000    0.38000000    2.50000000
   19.99749947   -1.00000000    0.38000000    2.50000000
   20.00083351   -1.00000000    0.38000000    2.50000000
   20.00416756   -1.00000000    0.38000000    2.50000000
   20.00749969   -1.00000000    0.38000000    2.50000000
   20.01083374   -1.00000000    0.40000001    2.50000000
   20.02083397   -1.00000000    0.46000001    2.50000000
   20.02416611   -1.00000000    0.46000001    2.50000000
   20.02750015   -1.00000000    0.47999999    2.50000000
   20.03055573   -1.00000000    0.50000000    2.50000000
   20.03388786   -1.00000000    0.58999997    2.48000002
   20.03722191   -1.00000000    0.64999998    2.50000000
   20.04055595   -1.00000000    0.58999997    2.48000002
   20.04388809   -1.00000000    0.55000001    2.48000002
   20.04694366   -1.00000000    0.55000001    2.48000002
   20.05027771   -1.00000000    0.79000002    2.48000002
   20.05360985   -1.00000000    0.81999999    2.48000002
   20.06388855   -1.00000000    0.56999999    2.48000002
   20.06694603   -1.00000000    0.56999999    2.48000002
   20.07055664   -1.00000000    0.50000000    2.48000002
   20.07389069   -1.00000000    0.50000000    2.48000002
   20.07722282   -1.00000000    0.50000000    2.48000002
   20.08027840   -1.00000000    0.50000000    2.48000002
   20.08361244   -1.00000000    0.50000000    2.48000002
   20.08694458   -1.00000000    0.50000000    2.48000002
   20.09000015   -1.00000000    0.50000000    2.48000002
   20.09333420   -1.00000000    0.61000001    2.48000002
   20.09638977   -1.00000000    0.56999999    2.48000002
   20.10666656   -1.00000000    0.58999997    2.48000002
   20.11000061   -1.00000000    0.58999997    2.48000002
   20.11305618   -1.00000000    0.58999997    2.48000002
   20.11638832   -1.00000000    0.56999999    2.46000004
   20.11944389   -1.00000000    0.56999999    2.46000004
   20.12277794   -1.00000000    0.56999999    2.46000004
   20.12611198   -1.00000000    0.56999999    2.46000004
   20.12916756   -1.00000000    0.56999999    2.46000004
   20.13249969   -1.00000000    0.56999999    2.46000004
   20.13583374   -1.00000000    0.56999999    2.46000004
   20.13916588   -1.00000000    0.56999999    2.48000002
   20.14944458   -1.00000000    0.56999999    2.46000004
   20.15277672   -1.00000000    0.56999999    2.46000004
   20.15583229   -1.00000000    0.56999999    2.46000004
   20.15916634   -1.00000000    0.55000001    2.46000004
   20.16250038   -1.00000000    0.55000001    2.46000004
   20.16583252   -1.00000000    0.55000001    2.46000004
   20.16916656   -1.00000000    0.51999998    2.46000004
   20.17249870   -1.00000000    0.51999998    2.46000004
   20.17583275   -1.00000000    0.56999999    2.46000004
   20.17888832   -1.00000000    0.55000001    2.46000004
   20.18222237   -1.00000000    0.55000001    2.46000004
   20.19249916   -1.00000000    0.52999997    2.46000004
   20.19555473   -1.00000000    0.52999997    2.46000004
   20.19888878   -1.00000000    0.50000000    2.46000004
   20.20222282   -1.00000000    0.50000000    2.46000004
   20.20555687   -1.00000000    0.50000000    2.46000004
   20.20888901   -1.00000000    0.50000000    2.46000004
   20.21194458   -1.00000000    0.50000000    2.46000004
   20.21527863   -1.00000000    0.47999999    2.46000004
   20.21861076   -1.00000000    0.47999999    2.46000004
   20.22166634   -1.00000000    0.47999999    2.46000004
   20.22500038   -1.00000000    0.47999999    2.46000004
   20.23527718   -1.00000000    0.51999998    2.44000006
   20.23833275   -1.00000000    0.51999998    2.44000006
   20.24166679   -1.00000000    0.52999997    2.46000004
   20.24500084   -1.00000000    0.55000001    2.44000006
   20.24805641   -1.00000000    0.55000001    2.44000006
   20.25138855   -1.00000000    0.55000001    2.44000006
   20.25444412   -1.00000000    0.55000001    2.44000006
   20.25777817   -1.00000000    0.52999997    2.44000006
   20.26111031   -1.00000000    0.52999997    2.44000006
   20.26416588   -1.00000000    0.55000001    2.44000006
   20.26749992   -1.00000000    0.55000001    2.44000006
   20.27805519   -1.00000000    0.52999997    2.44000006
   20.28138924   -1.00000000    0.52999997    2.42000008
   20.28444481   -1.00000000    0.52999997    2.42000008
   20.28777695   -1.00000000    0.52999997    2.42000008
   20.29083252   -1.00000000    0.52999997    2.42000008
   20.29416656   -1.00000000    0.52999997    2.42000008
   20.29749870   -1.00000000    0.52999997    2.42000008
   20.30055428   -1.00000000    0.52999997    2.42000008
   20.30416679   -1.00000000    0.52999997    2.42000008
   20.30722237   -1.00000000    0.52999997    2.42000008
   20.31055450   -1.00000000    0.52999997    2.44000006
   20.32083511   -1.00000000    0.52999997    2.44000006
   20.32416725   -1.00000000    0.52999997    2.44000006
   20.32722282   -1.00000000    0.52999997    2.44000006
   20.33055687   -1.00000000    0.52999997    2.44000006
   20.33388901   -1.00000000    0.52999997    2.44000006
   20.33750153   -1.00000000    0.52999997    2.44000006
   20.34055710   -1.00000000    0.52999997    2.42000008
   20.34388924   -1.00000000    0.51999998    2.42000008
   20.34694481   -1.00000000    0.50000000    2.42000008
   20.35027885   -1.00000000    0.50000000    2.42000008
   20.35361099   -1.00000000    0.51999998    2.42000008
   20.36361122   -1.00000000    0.52999997    2.40000010
   20.36694527   -1.00000000    0.55000001    2.40000010
   20.37055588   -1.00000000    0.56999999    2.40000010
   20.37361145   -1.00000000    0.56999999    2.40000010
   20.37694550   -1.00000000    0.56999999    2.40000010
   20.38000107   -1.00000000    0.58999997    2.40000010
   20.38333321   -1.00000000    0.58999997    2.40000010
   20.38666725   -1.00000000    0.58999997    2.40000010
   20.38972282   -1.00000000    0.61000001    2.40000010
   20.39305496   -1.00000000    0.61000001    2.39000010
   20.39638901   -1.00000000    0.64999998    2.39000010
   20.40666580   -1.00000000    0.67000002    2.40000010
   20.40972137   -1.00000000    0.67000002    2.39000010
   20.41305542   -1.00000000    0.67000002    2.39000010
   20.41638756   -1.00000000    0.67000002    2.39000010
   20.41944313   -1.00000000    0.67000002    2.39000010
   20.42277718   -1.00000000    0.67000002    2.39000010
   20.42583275   -1.00000000    0.67000002    2.39000010
   20.42916679   -1.00000000    0.67000002    2.39000010
   20.43249893   -1.00000000    0.67000002    2.39000010
   20.43610954   -1.00000000    0.67000002    2.39000010
   20.43916512   -1.00000000    0.67000002    2.39000010
   20.44944382   -1.00000000    0.64999998    2.39000010
   20.45277786   -1.00000000    0.64999998    2.39000010
   20.45583344   -1.00000000    0.64999998    2.39000010
   20.45916748   -1.00000000    0.64999998    2.39000010
   20.46222305   -1.00000000    0.63000000    2.39000010
   20.46555710   -1.00000000    0.61000001    2.39000010
   20.46916771   -1.00000000    0.61000001    2.39000010
   20.47222328   -1.00000000    0.61000001    2.39000010
   20.47555542   -1.00000000    0.61000001    2.39000010
   20.47861099   -1.00000000    0.61000001    2.36999989
   20.48194504   -1.00000000    0.63000000    2.39000010
   20.49222183   -1.00000000    0.70999998    2.36999989
