    HOUR (UT)   FLARE FACTOR    SKY TESTER    SUN TESTER
   11.19222260   -1.00000000   -1.00000000   -1.00000000
   11.21305561  152.96899414    4.90999985    2.50000000
   11.21805477  148.14900208    4.90999985    2.50000000
   11.22138882  140.30499268    4.90999985    2.50000000
   11.22444439  141.25199890    4.90999985    2.50000000
   11.22777748  118.48000336    4.90999985    2.50000000
   11.23083305  147.23899841    4.90999985    2.50000000
   11.23416710  129.99099731    4.90999985    2.50000000
   11.23750019  140.96400452    4.90999985    2.50000000
   11.24055576  140.16200256    4.90999985    2.50000000
   11.24388885  150.93600464    4.90999985    2.51999998
   11.24638939  142.88400269    4.90999985    2.50000000
   11.24750042  142.73100281    4.90999985    2.51999998
   11.25083351  146.63999939    4.90999985    2.51999998
   11.25388908  132.25500488    4.90999985    2.50000000
   11.25722218  138.33200073    4.90999985    2.50000000
   11.26055527  137.32400513    4.90999985    2.50000000
   11.26361084  132.91999817    4.90999985    2.50000000
   11.26694393  145.97700500    4.90999985    2.50000000
   11.27027798  142.15699768    4.90999985    2.50000000
   11.27333355  135.48699951    4.90999985    2.51999998
   11.27666664  146.26199341    4.90999985    2.51999998
   11.27972221  148.49299622    4.90999985    2.51999998
   11.28027725  135.88699341    4.90999985    2.50000000
   11.28361130  138.44400024    4.90999985    2.51999998
   11.28666687  148.86000061    4.90999985    2.51999998
   11.29000092  133.11700439    4.90999985    2.51999998
   11.29333401  140.36500549    4.90999985    2.51999998
   11.29638958  143.62300110    4.90999985    2.51999998
   11.29972267  157.97700500    4.90999985    2.51999998
   11.30305576  147.10499573    4.90999985    2.51999998
   11.30611134  149.65299988    4.90999985    2.51999998
   11.30944443  156.22999573    4.90999985    2.51999998
   11.31250000  144.60699463    4.90999985    2.51999998
   11.31305599  142.08299255    4.90999985    2.51999998
   11.31638908  144.45599365    4.90999985    2.51999998
   11.31972218  140.53500366    4.90999985    2.53999996
   11.32277775  141.38400269    4.90999985    2.53999996
   11.32611084  153.77699280    4.90999985    2.51999998
   11.32944393  147.56500244    4.90999985    2.51999998
   11.33249950  144.54600525    4.90999985    2.51999998
   11.33583260  138.57899475    4.90999985    2.53999996
   11.33888817  145.12300110    4.90999985    2.53999996
   11.34222221  135.66000366    4.90999985    2.53999996
   11.34555531  149.50399780    4.90999985    2.53999996
   11.34638882  136.90400696    4.90999985    2.53999996
   11.34916592  148.03500366    4.90999985    2.53999996
   11.35249996  149.99600220    4.90999985    2.53999996
   11.35555553  146.68600464    4.90999985    2.55999994
   11.35888958  138.65499878    4.90999985    2.53999996
   11.36222267  144.19400024    4.90999985    2.53999996
   11.36527824  147.55499268    4.90999985    2.53999996
   11.36861134  145.44299316    4.90999985    2.53999996
   11.37166691  145.16299438    4.90999985    2.55999994
   11.37500000  139.03399658    4.90999985    2.53999996
   11.37833309  146.72799683    4.90999985    2.53999996
   11.37972260  148.15400696    4.90999985    2.53999996
   11.38194466  142.98599243    4.90999985    2.53999996
   11.38527775  136.54800415    4.90999985    2.53999996
   11.38833332  135.82200623    4.90999985    2.53999996
   11.39166641  132.09300232    4.90999985    2.55999994
   11.39499950  142.53599548    4.90999985    2.55999994
   11.39805508  142.58599854    4.90999985    2.55999994
   11.40138817  148.39199829    4.90999985    2.53999996
   11.40444374  139.49400330    4.90999985    2.53999996
   11.40777779  152.15299988    4.90999985    2.53999996
   11.41111088  149.88699341    4.90999985    2.55999994
   11.41305542  145.65299988    4.90999985    2.55999994
   11.41472149  135.21499634    4.90999985    2.55999994
   11.41805553  146.79800415    4.90999985    2.53999996
   11.42111111  153.54299927    4.90999985    2.55999994
   11.42444515  145.91600037    4.90999985    2.55999994
   11.42777824  148.77499390    4.90999985    2.55999994
   11.43083382  152.19900513    4.90999985    2.55999994
   11.43416691  139.29200745    4.90999985    2.55999994
   11.43722248  148.18600464    4.90999985    2.55999994
   11.44055557  148.70199585    4.90999985    2.55999994
   11.44388866  145.18800354    4.90999985    2.55999994
   11.44666672  146.63800049    4.90999985    2.55999994
   11.44750023  143.97599792    4.90999985    2.55999994
   11.45083332  137.12500000    4.90999985    2.55999994
   11.45388889  143.16000366    4.90999985    2.55999994
   11.45722198  141.00700378    4.90999985    2.55999994
   11.46055508  141.22300720    4.90999985    2.57999992
   11.46361065  149.15299988    4.90999985    2.55999994
   11.46694374  147.18099976    4.90999985    2.55999994
   11.47027779  136.79100037    4.90999985    2.55999994
   11.47333336  144.53199768    4.90999985    2.55999994
   11.47666645  150.03100586    4.90999985    2.55999994
   11.47999954  144.54899597    4.90999985    2.55999994
   11.48027706  132.51199341    4.90999985    2.55999994
   11.48361111  142.48199463    4.90999985    2.55999994
   11.48666668  144.24899292    4.90999985    2.57999992
   11.49000072  132.69999695    4.90999985    2.55999994
   11.49333382  138.22599792    4.90999985    2.55999994
   11.49638939  148.77600098    4.90999985    2.55999994
   11.49972248  140.60099792    4.90999985    2.57999992
   11.50305557  130.21899414    4.90999985    2.57999992
   11.50611115  133.53300476    4.90999985    2.57999992
   11.50944424  135.54800415    4.90999985    2.57999992
   11.51249981  140.56300354    4.90999985    2.57999992
   11.51333332  137.18800354    4.90999985    2.57999992
   11.51611137  141.67799377    4.90999985    2.57999992
   11.51944447  137.92199707    4.90999985    2.57999992
   11.52250004  135.40299988    4.90999985    2.57999992
   11.52583313  136.60699463    4.90999985    2.57999992
   11.52916622  128.73100281    4.90999985    2.59999990
   11.53222179  125.30400085    4.90999985    2.59999990
   11.53555584  144.13699341    4.90999985    2.59999990
   11.53888893  144.64900208    4.90999985    2.57999992
   11.54194450  134.75000000    4.90999985    2.57999992
   11.54527855  148.57000732    4.90999985    2.57999992
   11.54666710  141.20500183    4.90999985    2.57999992
   11.54888916  145.82600403    4.90999985    2.57999992
   11.55222225  138.12300110    4.90999985    2.57999992
   11.55555534  132.17900085    4.90999985    2.57999992
   11.55861092  145.12100220    4.90999985    2.57999992
   11.56194496  137.63600159    4.90999985    2.57999992
   11.56500053  145.31399536    4.90999985    2.59999990
   11.56833363  136.47099304    4.90999985    2.59999990
   11.57166672  137.80299377    4.90999985    2.59999990
   11.57472229  136.54499817    4.90999985    2.59999990
   11.57805538  142.35499573    4.90999985    2.59999990
   11.57999992  136.80499268    4.90999985    2.59999990
   11.58166695  133.51100159    4.90999985    2.59999990
   11.58500004  133.05499268    4.90999985    2.59999990
   11.58833313  135.04299927    4.90999985    2.57999992
   11.59138870  141.18600464    4.90999985    2.57999992
   11.59472179  141.34500122    4.90999985    2.57999992
   11.59777737  131.29100037    4.90999985    2.59999990
   11.60111141  137.01800537    4.90999985    2.59999990
   11.60444450  127.65799713    4.90999985    2.59999990
   11.60750008  138.19599915    4.90999985    2.59999990
   11.61083412  128.92900085    4.90999985    2.59999990
   11.61333370  128.32400513    4.90999985    2.59999990
   11.61444473  134.57600403    4.90999985    2.59999990
   11.61777782  132.23199463    4.90999985    2.59999990
   11.62111092  135.71299744    4.90999985    2.59999990
   11.62416649  129.42999268    4.90999985    2.59999990
   11.62750053  137.47500610    4.90999985    2.59999990
   11.63083363  132.22799683    4.90999985    2.59999990
   11.63388920  133.49200439    4.90999985    2.59999990
   11.63722229  160.78199768    4.90999985    2.59999990
   11.64027786  155.47700500    4.90999985    2.59999990
   11.64361095  189.88699341    4.90999985    2.59999990
   11.64666653  226.08700562    4.90999985    2.59999990
   11.64722252  228.91700745    4.90999985    2.59999990
   11.65055561  232.52600098    4.90999985    2.59999990
   11.65388870  258.42001343    4.90999985    2.59999990
   11.65694427  226.78700256    4.90999985    2.59999990
   11.66027737  255.80200195    4.90999985    2.59999990
   11.66333294  259.73498535    4.90999985    2.59999990
   11.66666698  256.94900513    4.90999985    2.59999990
   11.67000008  282.06600952    4.90999985    2.61999989
   11.67305565  276.58401489    4.90999985    2.59999990
   11.67638874  280.43301392    4.90999985    2.61999989
   11.67972279  269.80398560    4.90999985    2.61999989
   11.68027782  267.96600342    4.90999985    2.61999989
   11.68333340  250.69099426    4.90999985    2.61999989
   11.68666649  227.90499878    4.90999985    2.61999989
   11.68972206  203.44400024    4.90999985    2.61999989
   11.69305515  174.62500000    4.90999985    2.61999989
   11.69638920  158.54600525    4.90999985    2.61999989
   11.69944477  146.02900696    4.90999985    2.61999989
   11.70277786  140.48300171    4.90999985    2.61999989
   11.70611095  139.33799744    4.90999985    2.61999989
   11.70916653  141.28399658    4.90999985    2.61999989
   11.71249962  136.09800720    4.90999985    2.61999989
   11.71361065  147.56599426    4.90999985    2.61999989
   11.71611118  139.70599365    4.90999985    2.61999989
   11.71944427  131.29699707    4.90999985    2.61999989
   11.72249985  135.77099609    4.90999985    2.61999989
   11.72583294  124.80699921    4.90999985    2.61999989
   11.72916603  123.49199677    4.90999985    2.61999989
   11.73222160  133.88099670    4.90999985    2.61999989
   11.73555565  139.76300049    4.90999985    2.61999989
   11.73888874  126.56199646    4.90999985    2.61999989
   11.74194431  132.93200684    4.90999985    2.61999989
   11.74527836  129.35200500    4.90999985    2.64000010
   11.74694443  135.29299927    4.90999985    2.61999989
   11.74888897  125.36299896    4.90999985    2.64000010
   11.75222206  126.54199982    4.90999985    2.61999989
   11.75527763  123.38700104    4.90999985    2.61999989
   11.75861073  131.04400635    4.90999985    2.61999989
   11.76194477  130.18400574    4.90999985    2.61999989
   11.76500034  134.10299683    4.90999985    2.61999989
   11.76833344  125.89499664    4.90999985    2.61999989
   11.77166653  131.35200500    4.90999985    2.61999989
   11.77472210  128.23399353    4.90999985    2.64000010
   11.77805519  129.46000671    4.90999985    2.61999989
   11.78027725  132.04100037    4.90999985    2.64000010
   11.78166676  122.53500366    4.90999985    2.64000010
   11.78500080  126.72000122    4.90999985    2.64000010
   11.78805637  128.88900757    4.90999985    2.64000010
   11.79138947  148.28700256    4.90999985    2.64000010
   11.79472256  138.38099670    4.90999985    2.64000010
   11.79777813  133.05999756    4.90999985    2.64000010
   11.80111122  142.27600098    4.90999985    2.64000010
   11.80444431  142.52000427    4.90999985    2.64000010
   11.80749989  162.49499512    4.90999985    2.64000010
   11.81083393  151.12100220    4.90999985    2.66000009
   11.81361103  159.30900574    4.90999985    2.66000009
   11.81444454  154.26499939    4.90999985    2.66000009
   11.81777763  139.47700500    4.90999985    2.66000009
   11.82111073  134.96000671    4.90999985    2.66000009
   11.82416630  146.79299927    4.90999985    2.66000009
   11.82750034  136.45700073    4.90999985    2.66000009
   11.83055592  126.30000305    4.90999985    2.66000009
   11.83388901  130.36199951    4.90999985    2.66000009
   11.83722210  150.21699524    4.90999985    2.66000009
   11.84027767  158.80900574    4.90999985    2.66000009
   11.84361076  153.16000366    4.90999985    2.66000009
   11.84694386  184.42500305    4.90999985    2.66000009
   11.84722233  173.92900085    4.90999985    2.66000009
   11.85055637  190.35200500    4.90999985    2.66000009
   11.85388947  148.50900269    4.90999985    2.66000009
   11.85694504  173.40800476    4.90999985    2.66000009
   11.86027813  182.19099426    4.90999985    2.66000009
   11.86333370  204.17500305    4.90999985    2.66000009
   11.86666679  141.70399475    4.90999985    2.66000009
   11.86999989  150.63900757    4.90999985    2.66000009
   11.87305546  147.36999512    4.90999985    2.66000009
   11.87638855  173.96899414    4.90999985    2.66000009
   11.87972260  179.44200134    4.90999985    2.66000009
   11.88027763  171.19799805    4.90999985    2.66000009
   11.88305569  159.88400269    4.90999985    2.66000009
   11.88638878  188.27000427    4.90999985    2.66000009
   11.88972187  207.23100281    4.90999985    2.66000009
   11.89277744  150.28300476    4.90999985    2.66000009
   11.89611053  197.61799622    4.90999985    2.66000009
   11.89916611  180.69000244    4.90999985    2.67000008
   11.90249920  138.38400269    4.90999985    2.66000009
   11.90583324  145.02499390    4.90999985    2.66000009
   11.90888882  135.35099792    4.90999985    2.66000009
   11.91222191  170.24099731    4.90999985    2.66000009
   11.91361046  150.80700684    4.90999985    2.66000009
   11.91583252  137.49000549    4.90999985    2.66000009
   11.91916656  131.56300354    4.90999985    2.66000009
   11.92250061  130.74000549    4.90999985    2.67000008
   11.92555618  162.51600647    4.90999985    2.66000009
   11.92888927  140.31700134    4.90999985    2.67000008
   11.93222237  141.92700195    4.90999985    2.67000008
   11.93527794  133.41099548    4.90999985    2.66000009
   11.93861103  141.69700623    4.90999985    2.66000009
   11.94166660  132.92700195    4.90999985    2.66000009
   11.94499969  138.48599243    4.90999985    2.66000009
   11.94694424  123.81700134    4.90999985    2.67000008
   11.94861126  132.58999634    4.90999985    2.67000008
   11.95194435  120.86599731    4.90999985    2.66000009
   11.95527744  127.36699677    4.90999985    2.64000010
   11.95833302  126.68599701    4.90999985    2.66000009
   11.96166611  119.96700287    4.90999985    2.67000008
   11.96500015  126.00900269    4.90999985    2.67000008
   11.96805477  119.58799744    4.90999985    2.67000008
   11.97138882  124.95700073    4.90999985    2.66000009
   11.97444439  125.78700256    4.90999985    2.66000009
   11.97777748  117.31999969    4.90999985    2.66000009
   11.98027706  118.26899719    4.90999985    2.67000008
   11.98138809  120.87899780    4.90999985    2.67000008
   11.98472214  116.41300201    4.90999985    2.67000008
   11.98805618  121.17400360    4.90999985    2.67000008
   11.99111176  124.11799622    4.90999985    2.67000008
   11.99444485  119.97100067    4.90999985    2.67000008
   11.99777794  128.08999634    4.90999985    2.67000008
   12.00083351  122.35299683    4.90999985    2.67000008
   12.00416660  122.57199860    4.90999985    2.67000008
   12.00722218  120.42600250    4.90999985    2.67000008
   12.01055527  135.13999939    4.90999985    2.67000008
   12.01361084  116.33200073    4.90999985    2.67000008
   12.01416683  128.66400146    4.90999985    2.67000008
   12.01749992  119.23899841    4.90999985    2.71000004
   12.02083302  119.62799835    4.90999985    2.66000009
   12.02388859  118.67199707    4.90999985    2.67000008
   12.02722168  119.28600311    4.90999985    2.67000008
   12.03055573  123.44300079    4.90999985    2.67000008
   12.03361130  125.53600311    4.90999985    2.67000008
   12.03694534  125.87000275    4.90999985    2.67000008
   12.04000092  124.14800262    4.90999985    2.67000008
   12.04333401  118.33000183    4.90999985    2.67000008
   12.04666710  121.40799713    4.90999985    2.67000008
   12.04722309  121.50499725    4.90999985    2.67000008
   12.05055618  117.76100159    4.90999985    2.67000008
   12.05361176  126.40599823    4.90999985    2.67000008
   12.05694485  112.98300171    4.90999985    2.67000008
   12.06000042  118.52500153    4.90999985    2.69000006
   12.06333351  121.42900085    4.90999985    2.69000006
   12.06666660  118.88200378    4.90999985    2.69000006
   12.06972218  123.25700378    4.90999985    2.67000008
   12.07305527  117.83000183    4.90999985    2.67000008
   12.07638836  118.38200378    4.90999985    2.69000006
   12.07944393  127.25700378    4.90999985    2.69000006
   12.08055592  126.08100128    4.90999985    2.67000008
   12.08333302  126.60500336    4.90999985    2.69000006
   12.08638859  126.22000122    4.90999985    2.69000006
   12.08972168  126.69899750    4.90999985    2.69000006
   12.09277725  129.51899719    4.90999985    2.69000006
   12.09611034  127.47799683    4.90999985    2.69000006
   12.09944439  122.98699951    4.90999985    2.69000006
   12.10249996  128.94500732    4.90999985    2.69000006
   12.10583401  109.04199982    4.90999985    2.69000006
   12.10916710  119.52999878    4.90999985    2.67000008
   12.11222267  118.42900085    4.90999985    2.69000006
   12.11388969  123.50700378    4.90999985    2.69000006
   12.11611176  126.68800354    4.90999985    2.69000006
   12.11916637  122.91600037    4.90999985    2.69000006
   12.12250042  125.87799835    4.90999985    2.69000006
   12.12555599  121.91400146    4.90999985    2.69000006
   12.12888908  118.25700378    4.90999985    2.69000006
   12.13222218  122.98000336    4.90999985    2.69000006
   12.13527775  123.60800171    4.90999985    2.71000004
   12.13861084  116.49299622    4.90999985    2.69000006
   12.14194393  118.98200226    4.90999985    2.71000004
   12.14499950  121.54000092    4.90999985    2.69000006
   12.14722252  127.62699890    4.90999985    2.69000006
   12.14888859  138.01100159    4.90999985    2.71000004
   12.15194416  120.85800171    4.90999985    2.69000006
   12.15527725  124.50700378    4.90999985    2.69000006
   12.15833282  121.67800140    4.90999985    2.69000006
   12.16166592  126.12100220    4.90999985    2.69000006
   12.16499996  133.93600464    4.90999985    2.69000006
   12.16805553  120.42600250    4.90999985    2.69000006
   12.17138958  120.49900055    4.90999985    2.71000004
   12.17472267  123.58799744    4.90999985    2.71000004
   12.17777824  120.49299622    4.90999985    2.69000006
   12.18055630  121.86499786    4.90999985    2.71000004
   12.18166733  120.26399994    4.90999985    2.69000006
   12.18472195  113.29499817    4.90999985    2.71000004
   12.18805599  119.49800110    4.90999985    2.69000006
   12.19138908  120.49700165    4.90999985    2.69000006
   12.19444466  116.82399750    4.90999985    2.69000006
   12.19777775  119.50599670    4.90999985    2.69000006
   12.20083332  122.08200073    4.90999985    2.71000004
   12.20416641  121.36499786    4.90999985    2.71000004
   12.20749950  126.81099701    4.90999985    2.71000004
   12.21055508  121.31700134    4.90999985    2.71000004
   12.22972202  124.51499939    4.90999985    2.71000004
   12.23027706  131.86099243    4.90999985    2.71000004
   12.23361111  126.17199707    4.90999985    2.71000004
   12.23694515  130.66900635    4.90999985    2.73000002
   12.24000072  136.07899475    4.90999985    2.71000004
   12.24333382  123.46700287    4.90999985    2.71000004
   12.24638939  124.68099976    4.90999985    2.73000002
   12.24972248  121.96499634    4.90999985    2.73000002
   12.25305557  117.80799866    4.90999985    2.71000004
   12.25611115  129.83000183    4.90999985    2.71000004
   12.25944424  126.68599701    4.90999985    2.71000004
   12.26277733  128.73699951    4.90999985    2.73000002
   12.26333332  127.78700256    4.90999985    2.73000002
   12.26638889  122.59200287    4.90999985    2.71000004
   12.26972198  129.06900024    4.90999985    2.73000002
   12.27277756  121.58499908    4.90999985    2.71000004
   12.27611065  123.85099792    4.90999985    2.71000004
   12.27944374  127.69200134    4.90999985    2.71000004
   12.28249931  123.38800049    4.90999985    2.71000004
   12.28583336  123.97699738    4.90999985    2.73000002
   12.28916740  115.18599701    4.90999985    2.73000002
   12.29222298  125.91100311    4.90999985    2.73000002
   12.29555607  120.87200165    4.90999985    2.71000004
   12.29666710  121.73000336    4.90999985    2.73000002
   12.29916668  131.99499512    4.90999985    2.71000004
   12.30249977  126.75000000    4.90999985    2.71000004
   12.30583382  124.67400360    4.90999985    2.71000004
   12.30888939  125.49400330    4.90999985    2.73000002
   12.31222248  126.80699921    4.90999985    2.73000002
   12.31555557  131.10800171    4.90999985    2.73000002
   12.31861115  122.77100372    4.90999985    2.73000002
   12.32194424  127.12500000    4.90999985    2.71000004
   12.32499981  122.15899658    4.90999985    2.73000002
   12.32833290  125.92900085    4.90999985    2.71000004
   12.32999992  123.87100220    4.90999985    2.71000004
   12.33194447  124.11599731    4.90999985    2.73000002
   12.33527756  129.17700195    4.90999985    2.73000002
   12.33833313  121.37799835    4.90999985    2.73000002
   12.34166622  130.63200378    4.90999985    2.73000002
   12.34499931  125.78299713    4.90999985    2.75000000
   12.34805489  131.24600220    4.90999985    2.71000004
   12.35138893  117.19999695    4.90999985    2.75000000
   12.35472298  121.83599854    4.90999985    2.75000000
   12.35777855  127.70800018    4.90999985    2.73000002
   12.36111164  127.41500092    4.90999985    2.73000002
   12.36333370  119.61499786    4.90999985    2.73000002
   12.36472225  131.30599976    4.90999985    2.73000002
   12.36805534  123.84799957    4.90999985    2.73000002
   12.37111092  129.51400757    4.90999985    2.73000002
   12.37444496  124.17500305    4.90999985    2.73000002
   12.37777805  121.46700287    4.90999985    2.73000002
   12.38083363  117.64299774    4.90999985    2.73000002
   12.38416672  121.26799774    4.90999985    2.75000000
   12.38749981  117.27300262    4.90999985    2.73000002
   12.39055538  123.22200012    4.90999985    2.75000000
   12.39388847  118.64600372    4.90999985    2.73000002
   12.39666653  124.04399872    4.90999985    2.75000000
   12.39750004  119.14700317    4.90999985    2.73000002
   12.40083313  120.82599640    4.90999985    2.73000002
   12.40416622  126.32900238    4.90999985    2.73000002
   12.40722179  116.32199860    4.90999985    2.73000002
   12.41055489  121.16200256    4.90999985    2.75000000
   12.41361046  115.43499756    4.90999985    2.75000000
   12.41694450  126.12300110    4.90999985    2.73000002
   12.42027855  130.39700317    4.90999985    2.75000000
   12.42333412  120.61699677    4.90999985    2.73000002
   12.42666721  120.54399872    4.90999985    2.73000002
   12.43000031  119.04199982    4.90999985    2.75000000
   12.43027782  117.70400238    4.90999985    2.75000000
   12.43361092  123.41799927    4.90999985    2.73000002
   12.43694496  124.23600006    4.90999985    2.73000002
   12.44000053  127.65399933    4.90999985    2.73000002
   12.44333363  128.00100708    4.90999985    2.73000002
   12.44638920  113.91699982    4.90999985    2.75000000
   12.44972229  133.44799805    4.90999985    2.73000002
   12.45305538  132.63099670    4.90999985    2.75000000
   12.45611095  129.84500122    4.90999985    2.73000002
   12.45944405  130.10200500    4.90999985    2.75000000
   12.46277714  123.52300262    4.90999985    2.75000000
   12.46333313  130.71200562    4.90999985    2.75000000
   12.46611118  126.08100128    4.90999985    2.75000000
   12.46944427  125.23300171    4.90999985    2.75000000
   12.47277737  122.85399628    4.90999985    2.75000000
   12.47583294  119.54900360    4.90999985    2.73000002
   12.47916603  127.46399689    4.90999985    2.75000000
   12.48222160  126.24600220    4.90999985    2.73000002
   12.48555565  134.84899902    4.90999985    2.73000002
   12.48888874  131.32000732    4.90999985    2.75000000
   12.49194431  129.16499329    4.90999985    2.75000000
   12.49527836  135.37899780    4.90999985    2.75000000
   12.49666691  133.69000244    4.90999985    2.73000002
   12.49888897  120.81300354    4.90999985    2.75000000
   12.50222206  131.30000305    4.90999985    2.73000002
   12.50555515  123.59300232    4.90999985    2.75000000
   12.50861073  125.47799683    4.90999985    2.73000002
   12.51194477  123.58100128    4.90999985    2.73000002
   12.51527786  125.56300354    4.90999985    2.75000000
   12.51833344  123.10500336    4.90999985    2.75000000
   12.52166653  121.53099823    4.90999985    2.75000000
   12.52472210  124.34300232    4.90999985    2.75000000
   12.52805519  123.71199799    4.90999985    2.75000000
   12.52999973  118.58699799    4.90999985    2.75000000
   12.53166676  116.33100128    4.90999985    2.75000000
   12.53500080  122.24600220    4.90999985    2.75000000
   12.53833389  119.45999908    4.90999985    2.75000000
   12.54138947  119.83499908    4.90999985    2.75000000
   12.54472256  132.14999390    4.90999985    2.75000000
   12.54805565  127.46600342    4.90999985    2.76999998
   12.55111122  144.78700256    4.90999985    2.75000000
   12.55444431  128.51699829    4.90999985    2.75000000
   12.55749989  129.12800598    4.90999985    2.76999998
   12.56083393  128.25500488    4.90999985    2.75000000
   12.56333351  122.44200134    4.90999985    2.76999998
   12.56444454  129.86199951    4.90999985    2.75000000
   12.56777763  135.02999878    4.90999985    2.75000000
   12.57111073  122.81099701    4.90999985    2.75000000
   12.57416630  126.30100250    4.90999985    2.75000000
   12.57750034  133.50199890    4.90999985    2.76999998
   12.58083344  127.84700012    4.90999985    2.75000000
   12.58388901  126.86399841    4.90999985    2.75000000
   12.58722210  124.15499878    4.90999985    2.75000000
   12.59027767  128.82299805    4.90999985    2.75000000
   12.59361076  118.75700378    4.90999985    2.75000000
   12.59666634  129.71000671    4.90999985    2.76999998
   12.59722233  118.08000183    4.90999985    2.73000002
   12.60055637  129.30200195    4.90999985    2.76999998
   12.60388947  137.28500366    4.90999985    2.76999998
   12.60694504  119.49099731    4.90999985    2.73000002
   12.61027813  126.85099792    4.90999985    2.75000000
   12.61361122  132.40299988    4.90999985    2.75000000
   12.61666679  121.48799896    4.90999985    2.75000000
   12.61999989  126.42299652    4.90999985    2.76999998
   12.62305546  124.13899994    4.90999985    2.75000000
   12.62638855  126.57299805    4.90999985    2.75000000
   12.62972260  132.79600525    4.90999985    2.76999998
   12.63027763  129.85299683    4.90999985    2.75000000
   12.63333321  121.87999725    4.90999985    2.75000000
   12.63666630  124.48000336    4.90999985    2.76999998
   12.64000034  120.18699646    4.90999985    2.76999998
   12.64305496  136.87300110    4.90999985    2.75000000
   12.64638901  135.25100708    4.90999985    2.73000002
   12.64972210  128.97000122    4.90999985    2.76999998
   12.65277767  128.68299866    4.90999985    2.76999998
   12.65611076  136.91999817    4.90999985    2.76999998
   12.65916634  127.53800201    4.90999985    2.78999996
   12.66249943  123.55599976    4.90999985    2.76999998
   12.66361046  126.51000214    4.90999985    2.75000000
   12.66611099  122.07800293    4.90999985    2.78999996
   12.66944504  128.74899292    4.90999985    2.76999998
   12.67277813  126.53700256    4.90999985    2.76999998
   12.67583370  137.97000122    4.90999985    2.76999998
   12.67916679  127.36399841    4.90999985    2.76999998
   12.68222237  121.28800201    4.90999985    2.75000000
   12.68555546  127.37899780    4.90999985    2.76999998
   12.68888855  127.00800323    4.90999985    2.76999998
   12.69194412  126.47100067    4.90999985    2.76999998
   12.69527817  123.09999847    4.90999985    2.76999998
   12.69694424  126.77600098    4.90999985    2.76999998
   12.69888878  129.51800537    4.90999985    2.76999998
   12.70222187  127.36000061    4.90999985    2.78999996
   12.70555496  127.07499695    4.90999985    2.76999998
   12.70861053  130.56199646    4.90999985    2.76999998
   12.71194458  120.97200012    4.90999985    2.78999996
   12.71527767  125.35500336    4.90999985    2.75000000
   12.71833324  123.32700348    4.90999985    2.76999998
   12.72166634  130.69599915    4.90999985    2.76999998
   12.72499943  128.42900085    4.90999985    2.76999998
   12.72805500  124.13600159    4.90999985    2.76999998
   12.73027706  125.75900269    4.90999985    2.76999998
   12.73166656  132.44599915    4.90999985    2.76999998
   12.73500061  126.57900238    4.90999985    2.78999996
   12.73833370  132.00300598    4.90999985    2.78999996
   12.74138927  122.71399689    4.90999985    2.78999996
   12.74472237  129.84100342    4.90999985    2.78999996
   12.74777794  127.88899994    4.90999985    2.78999996
   12.75111103  120.76699829    4.90999985    2.78999996
   12.75444412  126.72399902    4.90999985    2.76999998
   12.75749969  124.10199738    4.90999985    2.76999998
   12.76083374  121.25199890    4.90999985    2.76999998
   12.76361084  117.78099823    4.90999985    2.78999996
   12.76444435  126.00099945    4.90999985    2.76999998
   12.76777744  126.94400024    4.90999985    2.76999998
   12.77111053  124.13400269    4.90999985    2.76999998
   12.77416611  121.66699982    4.90999985    2.78999996
   12.77750015  130.12399292    4.90999985    2.76999998
   12.78055573  121.38099670    4.90999985    2.76999998
   12.78388977  118.73100281    4.90999985    2.78999996
   12.78722286  113.83599854    4.90999985    2.76999998
   12.79027843  126.73600006    4.90999985    2.76999998
   12.79361153  122.21499634    4.90999985    2.78999996
   12.79694462  125.90200043    4.90999985    2.76999998
   12.79722309  114.51000214    4.90999985    2.76999998
   12.80055618  121.92199707    4.90999985    2.76999998
   12.80388927  122.58799744    4.90999985    2.76999998
   12.80694485  121.33699799    4.90999985    2.76999998
   12.81027794  126.51200104    4.90999985    2.76999998
   12.81333351  123.48699951    4.90999985    2.78999996
   12.81666660  129.19000244    4.90999985    2.78999996
   12.81999969  127.51599884    4.90999985    2.78999996
   12.82305527  128.44500732    4.90999985    2.78999996
   12.82638836  124.74900055    4.90999985    2.76999998
   12.82972240  124.73400116    4.90999985    2.78999996
   12.83027744  127.09799957    4.90999985    2.76999998
   12.83305550  125.48899841    4.90999985    2.76999998
   12.83638859  127.74500275    4.90999985    2.76999998
   12.83972168  122.51000214    4.90999985    2.76999998
   12.84277725  127.39099884    4.90999985    2.76999998
   12.84611034  130.36799622    4.90999985    2.78999996
   12.84944439  134.99600220    4.90999985    2.78999996
   12.85249996  128.19799805    4.90999985    2.76999998
   12.85583401  131.07800293    4.90999985    2.76999998
   12.85888958  130.97599792    4.90999985    2.78999996
   12.86222267  123.97299957    4.90999985    2.76999998
   12.86361122  130.65299988    4.90999985    2.76999998
   12.86583328  124.67600250    4.90999985    2.76999998
   12.86916637  124.01399994    4.90999985    2.76999998
   12.87250042  129.15299988    4.90999985    2.78999996
   12.87555599  131.22300720    4.90999985    2.76999998
   12.87888908  117.01399994    4.90999985    2.78999996
   12.88222218  129.39100647    4.90999985    2.76999998
   12.88527775  120.86100006    4.90999985    2.78999996
   12.88861084  133.48899841    4.90999985    2.76999998
   12.89166641  141.89900208    4.90999985    2.76999998
   12.89499950  140.08900452    4.90999985    2.76999998
   12.89694405  128.42500305    4.90999985    2.76999998
   12.89861107  130.07000732    4.90999985    2.76999998
   12.90194416  129.50700378    4.90999985    2.78999996
   12.90527725  133.47900391    4.90999985    2.76999998
   12.90833282  135.68400574    4.90999985    2.76999998
   12.91166592  132.72799683    4.90999985    2.76999998
   12.91499996  135.06700134    4.90999985    2.76999998
   12.91805553  137.52200317    4.90999985    2.76999998
   12.92138958  140.41200256    4.90999985    2.76999998
   12.92444515  148.36099243    4.90999985    2.78999996
   12.92777824  136.16099548    4.90999985    2.78999996
   12.93027782  147.87600708    4.90999985    2.78999996
   12.93138885  150.39300537    4.90999985    2.76999998
   12.93472195  150.36099243    4.90999985    2.76999998
   12.93805599  151.05900574    4.90999985    2.78999996
   12.94111156  156.88999939    4.90999985    2.78999996
   12.94444466  170.56799316    4.90999985    2.78999996
   12.94777775  147.17300415    4.90999985    2.78999996
   12.95083332  161.52400208    4.90999985    2.78999996
   12.95416641  158.48899841    4.90999985    2.78999996
   12.95722198  158.04400635    4.90999985    2.78999996
   12.96055508  158.93699646    4.90999985    2.78999996
   12.96361065  151.54899597    4.90999985    2.78999996
   12.96416664  143.49899292    4.90999985    2.78999996
   12.96749973  149.10200500    4.90999985    2.78999996
   12.97083282  156.02299500    4.90999985    2.78999996
   12.97388840  152.30700684    4.90999985    2.78999996
   12.97722149  166.81900024    4.90999985    2.78999996
   12.98055553  152.47999573    4.90999985    2.78999996
   12.98361111  170.39199829    4.90999985    2.78999996
   12.98694515  157.43600464    4.90999985    2.78999996
   12.99000072  160.87600708    4.90999985    2.78999996
   12.99333382  152.44099426    4.90999985    2.78999996
   12.99666691  158.21699524    4.90999985    2.78999996
   12.99722290  157.59300232    4.90999985    2.78999996
   13.00027752  163.91099548    4.90999985    2.78999996
   13.00361156  155.81700134    4.90999985    2.78999996
   13.00694466  155.66999817    4.90999985    2.78999996
   13.01000023  158.26800537    4.90999985    2.76999998
   13.01333332  160.14399719    4.90999985    2.78999996
   13.01638889  149.53399658    4.90999985    2.78999996
   13.01972198  157.93099976    4.90999985    2.78999996
   13.02305508  139.96099854    4.90999985    2.78999996
   13.02611065  136.54100037    4.90999985    2.80999994
   13.02944374  138.38099670    4.90999985    2.78999996
   13.03055573  132.99299622    4.90999985    2.78999996
   13.03305531  133.11300659    4.90999985    2.78999996
   13.03638935  130.11099243    4.90999985    2.78999996
   13.03972244  128.71000671    4.90999985    2.78999996
   13.04277802  130.61900330    4.90999985    2.78999996
   13.04611111  135.78999329    4.90999985    2.78999996
   13.04944515  134.70599365    4.90999985    2.78999996
   13.05249977  131.88400269    4.90999985    2.78999996
   13.05583382  140.22300720    4.90999985    2.78999996
   13.05916691  141.03599548    4.90999985    2.78999996
   13.06222248  133.53900146    4.90999985    2.80999994
   13.06388950  123.18299866    4.90999985    2.78999996
   13.06583309  123.87200165    4.90999985    2.78999996
   13.06916618  118.91300201    4.90999985    2.80999994
   13.07250023  131.81599426    4.90999985    2.78999996
   13.07555580  135.99800110    4.90999985    2.80999994
   13.07888889  133.37600708    4.90999985    2.80999994
   13.08194447  135.40299988    4.90999985    2.78999996
   13.08527756  149.05799866    4.90999985    2.80999994
   13.08861065  141.22099304    4.90999985    2.78999996
   13.09166622  138.00500488    4.90999985    2.78999996
   13.09499931  133.10899353    4.90999985    2.78999996
   13.09722233  132.20700073    4.90999985    2.78999996
   13.09861088  136.02499390    4.90999985    2.78999996
   13.10194492  121.52899933    4.90999985    2.84999990
   13.10527802  124.54599762    4.90999985    2.80999994
   13.10833359  129.33099365    4.90999985    2.78999996
   13.11166668  133.73399353    4.90999985    2.80999994
   13.11472225  123.75000000    4.90999985    2.78999996
   13.11805534  144.36799622    4.90999985    2.80999994
   13.12138939  135.16200256    4.90999985    2.80999994
   13.12444496  143.87399292    4.90999985    2.80999994
   13.12777805  131.39199829    4.90999985    2.78999996
   13.13055611  127.51100159    4.90999985    2.78999996
   13.13138866  131.36599731    4.90999985    2.80999994
   13.13472176  133.05400085    4.90999985    2.80999994
   13.13805580  126.99700165    4.90999985    2.82999992
   13.14138889  123.76899719    4.90999985    2.80999994
   13.14444447  122.13800049    4.90999985    2.80999994
   13.14777756  124.74299622    4.90999985    2.82999992
   13.15083313  126.10099792    4.90999985    2.80999994
   13.15416622  138.43499756    4.90999985    2.80999994
   13.15749931  132.65100098    4.90999985    2.80999994
   13.16055489  133.39700317    4.90999985    2.80999994
   13.16388893  128.27900696    4.90999985    2.80999994
   13.16416645  130.61300659    4.90999985    2.80999994
   13.16750050  132.69900513    4.90999985    2.80999994
   13.17083359  129.60499573    4.90999985    2.78999996
   13.17388916  148.10899353    4.90999985    2.80999994
   13.17722225  161.83799744    4.90999985    2.78999996
   13.18055630  172.21899414    4.90999985    2.78999996
   13.18361092  179.60299683    4.90999985    2.78999996
   13.18694496  163.83599854    4.90999985    2.80999994
   13.19000053  167.13200378    4.90999985    2.80999994
   13.19333363  167.65699768    4.90999985    2.80999994
   13.19666672  168.19400024    4.90999985    2.78999996
   13.19722271  168.37600708    4.90999985    2.78999996
   13.20027733  163.44099426    4.90999985    2.78999996
   13.20333290  158.91799927    4.90999985    2.78999996
   13.20666695  137.10099792    4.90999985    2.78999996
   13.20972157  140.72099304    4.90999985    2.80999994
   13.21305561  143.88800049    4.90999985    2.78999996
   13.21638870  140.46699524    4.90999985    2.80999994
   13.21944427  138.85200500    4.90999985    2.78999996
   13.22277737  136.21200562    4.90999985    2.78999996
   13.22611046  118.58999634    4.90999985    2.80999994
   13.22944355  141.74499512    4.90999985    2.80999994
   13.24638939  121.75800323    4.90999985    2.80999994
   13.24944496  134.12100220    4.90999985    2.80999994
   13.25277805  126.17700195    4.90999985    2.80999994
   13.25583363  134.19099426    4.90999985    2.80999994
   13.25916672  120.63999939    4.90999985    2.80999994
   13.26222229  123.88200378    4.90999985    2.80999994
   13.26555538  124.77799988    4.90999985    2.80999994
   13.26861095  124.93099976    4.90999985    2.80999994
   13.27194405  128.66000366    4.90999985    2.80999994
   13.27527714  137.03399658    4.90999985    2.80999994
   13.27833271  134.46499634    4.90999985    2.82999992
   13.27972221  143.78799438    4.90999985    2.80999994
   13.28222179  127.85099792    4.90999985    2.80999994
   13.28527832  129.64700317    4.90999985    2.80999994
   13.28861141  123.93199921    4.90999985    2.80999994
   13.29166698  136.82000732    4.90999985    2.80999994
   13.29500008  128.56799316    4.90999985    2.80999994
   13.29833412  129.77299500    4.90999985    2.80999994
   13.30138874  132.12199402    4.90999985    2.80999994
   13.30527782  125.65499878    4.90999985    2.80999994
   13.30861092  130.34700012    4.90999985    2.80999994
   13.31166649  133.64599609    4.90999985    2.80999994
   13.31305599  126.12799835    4.90999985    2.80999994
   13.31555557  121.33399963    4.90999985    2.80999994
   13.31861115  131.92599487    4.90999985    2.80999994
   13.42388916   -1.00000000   -1.00000000   -1.00000000
   13.51916599   -1.00000000   -1.00000000   -1.00000000
   13.63388920   -1.00000000   -1.00000000   -1.00000000
   13.66222191   69.87139893    4.90999985    2.82999992
   13.66555500  112.05799866    4.90999985    2.80999994
   13.66861153  121.00399780    4.90999985    2.82999992
   13.67194462  127.92099762    4.90999985    2.82999992
   13.67527771  119.72499847    4.90999985    2.82999992
   13.67861176  114.41899872    4.90999985    2.82999992
   13.68277836  114.41899872    4.90999985    2.80999994
   13.68666649  115.12599945    4.90999985    2.80999994
   13.69000053  105.74199677    4.90999985    2.82999992
   13.69333363  125.48200226    4.90999985    2.82999992
   13.69555569  114.52899933    4.90999985    2.82999992
   13.69694424  114.24900055    4.90999985    2.80999994
   13.69999981  110.94100189    4.90999985    2.82999992
   13.70333290  109.09999847    4.90999985    2.80999994
   13.70638847  111.04499817    4.90999985    2.80999994
   13.70972157  110.18000031    4.90999985    2.82999992
   13.71305561  110.04900360    4.90999985    2.82999992
   13.71611118  110.08000183    4.90999985    2.80999994
   13.71944427  114.05799866    4.90999985    2.80999994
   13.72555542  114.05799866    4.90999985    2.82999992
   13.72972202  118.89399719    4.90999985    2.80999994
   13.73277760  111.10399628    4.90999985    2.80999994
   13.73611164  106.57599640    4.90999985    2.82999992
   13.73916721  114.60099792    4.90999985    2.80999994
   13.74250031  115.05100250    4.90999985    2.82999992
   13.74583340  132.17700195    4.90999985    2.82999992
   13.74888897  117.72000122    4.90999985    2.80999994
   13.75222206  113.88099670    4.90999985    2.80999994
   13.75555515  109.97599792    4.90999985    2.82999992
   13.75861073  113.25499725    4.90999985    2.82999992
   13.76194477  130.06599426    4.90999985    2.80999994
   13.76249981  117.42500305    4.90999985    2.80999994
   13.76833344  117.42500305    4.90999985    2.80999994
   13.77250004  121.78600311    4.90999985    2.82999992
   13.77555561  112.57900238    4.90999985    2.82999992
   13.77888870  109.85299683    4.90999985    2.82999992
   13.78222179  106.66799927    4.90999985    2.82999992
   13.78527832  117.50599670    4.90999985    2.82999992
   13.78861141  119.38899994    4.90999985    2.82999992
   13.79194450  116.13899994    4.90999985    2.82999992
   13.79500008  113.27400208    4.90999985    2.82999992
   13.79583359  107.58799744    4.90999985    2.80999994
   13.79888916  116.33100128    4.90999985    2.82999992
   13.80194473  116.62100220    4.90999985    2.82999992
   13.80527782  113.92700195    4.90999985    2.82999992
   13.81111145  113.92700195    4.90999985    2.82999992
   13.81527805  117.84100342    4.90999985    2.82999992
   13.81861115  118.33399963    4.90999985    2.82999992
   13.82166672  116.25099945    4.90999985    2.82999992
   13.82499981  113.39299774    4.90999985    2.82999992
   13.82833290  110.51599884    4.90999985    2.82999992
   13.82916641  120.93599701    4.90999985    2.82999992
   13.83194447  112.99800110    4.90999985    2.82999992
   13.83500004  110.34300232    4.90999985    2.82999992
   13.83833313  107.82499695    4.90999985    2.82999992
   13.84166622  107.65000153    4.90999985    2.80999994
   13.84472179  114.18800354    4.90999985    2.82999992
   13.84805489  113.39399719    4.90999985    2.80999994
   13.85416698  113.39399719    4.90999985    2.82999992
   13.85805607  116.44000244    4.90999985    2.82999992
   13.86138916  110.29299927    4.90999985    2.82999992
   13.86250019  108.71299744    4.90999985    2.82999992
   13.86500072  107.41899872    4.90999985    2.82999992
   13.86805534  114.89800262    4.90999985    2.84999990
   13.87138939  113.16500092    4.90999985    2.82999992
   13.87444496  113.36799622    4.90999985    2.82999992
   13.87777805  114.77100372    4.90999985    2.84999990
   13.88111115  127.44799805    4.90999985    2.82999992
   13.88416672  114.70600128    4.90999985    2.84999990
   13.88749981  105.47599792    4.90999985    2.82999992
   13.89083290  117.33300018    4.90999985    2.82999992
   13.89694405  117.33300018    4.90999985    2.82999992
   13.90111065  114.99199677    4.90999985    2.82999992
   13.90416622  114.50199890    4.90999985    2.82999992
   13.90749931  105.86900330    4.90999985    2.82999992
   13.91083336  116.59999847    4.90999985    2.82999992
   13.91388893  117.76000214    4.90999985    2.82999992
   13.91722298  112.55400085    4.90999985    2.82999992
   13.92027855  110.98000336    4.90999985    2.82999992
   13.92361164  115.10099792    4.90999985    2.84999990
   13.92694473  112.96700287    4.90999985    2.82999992
   13.92916679  112.74500275    4.90999985    2.82999992
   13.93055630  113.49099731    4.90999985    2.84999990
   13.93361092  116.19300079    4.90999985    2.82999992
   13.93972206  116.19300079    4.90999985    2.82999992
   13.94388866  120.92500305    4.90999985    2.82999992
   13.94722271  123.38700104    4.90999985    2.82999992
   13.95027733  120.17800140    4.90999985    2.84999990
   13.95361137  123.98100281    4.90999985    2.82999992
   13.95666695  122.60099792    4.90999985    2.84999990
   13.96000004  123.37899780    4.90999985    2.86999989
   13.96249962  123.11100006    4.90999985    2.67000008
   13.96388912  133.94700623    4.90999985    2.40000010
   13.96694374   88.18350220    4.90999985    2.84999990
   13.97027779  108.30200195    4.90999985    2.05999994
   13.97361088  139.45599365    4.90999985    1.78999996
   13.97666645  268.95098877    4.90999985    2.61999989
   13.98249912  268.95098877    4.90999985    2.96000004
   13.98666668  289.74200439    4.90999985    2.84999990
   13.99000072   -1.00000000    4.90999985    0.56999999
   13.99305534   -1.00000000    4.90999985    0.17000000
   13.99583340  111.08999634    4.90999985    1.50000000
   13.99694443  129.71299744    4.90999985    2.28999996
   14.00000000  120.22899628    4.90999985    2.91000009
   14.00333309  121.65299988    4.90999985    2.93000007
   14.00666714  123.19899750    4.90999985    2.89000010
   14.00972176  118.91400146    4.90999985    2.86999989
   14.01305580  131.49099731    4.90999985    2.84999990
   14.01638889  116.89199829    4.90999985    2.84999990
   14.01944447  123.66000366    4.90999985    2.84999990
   14.02555561  123.66000366    4.90999985    2.84999990
   14.02944374  116.13999939    4.90999985    2.84999990
   14.03277779  116.85800171    4.90999985    2.84999990
   14.03611183  121.67900085    4.90999985    2.82999992
   14.03916740  114.89900208    4.90999985    2.82999992
   14.04250050  128.48800659    4.90999985    2.84999990
   14.04555607  124.04599762    4.90999985    2.84999990
   14.04888916  117.06300354    4.90999985    2.82999992
   14.05222225  123.48899841    4.90999985    2.84999990
   14.05527782  116.71099854    4.90999985    2.82999992
   14.05861092  130.54899597    4.90999985    2.82999992
   14.06194496  112.30100250    4.90999985    2.84999990
   14.06250000  121.20999908    4.90999985    2.82999992
   14.06833363  121.20999908    4.90999985    2.84999990
   14.07250023  121.86900330    4.90999985    2.82999992
   14.07555580  115.87200165    4.90999985    2.82999992
   14.07888889  108.30400085    0.30000001    0.58999997
   14.08194447  119.29599762    0.15000001    0.19000000
   14.08527756  116.11199951    0.15000001    0.19000000
   14.08861065  115.34100342    0.15000001    0.19000000
   14.09166622  110.28299713    0.15000001    0.19000000
   14.09499931  115.78800201    0.15000001    0.19000000
   14.09583282  125.58799744    0.15000001    0.19000000
   14.09861088  112.67500305    0.15000001    0.19000000
   14.10166740  112.65200043    0.15000001    0.19000000
   14.10500050  109.92700195    0.15000001    0.19000000
   14.11111164  109.92700195    0.15000001    0.19000000
   14.11527824  124.57900238    0.15000001    0.19000000
   14.11833382  110.98600006    0.15000001    0.19000000
   14.12166691  104.50099945    0.15000001    0.19000000
   14.12500000  113.65499878    0.15000001    0.19000000
   14.12833309  116.29799652    0.15000001    0.19000000
   14.12916660  109.20400238    0.15000001    0.19000000
   14.13194466  118.66100311    0.15000001    0.19000000
   14.13500023  112.63600159    0.15000001    0.19000000
   14.13833332  108.04699707    0.15000001    0.19000000
   14.14166641  118.60800171    0.15000001    0.19000000
   14.14472198  111.50399780    0.15000001    0.19000000
   14.14805508  112.12500000    0.15000001    0.19000000
   14.15388870  112.12500000    0.15000001    0.19000000
   14.15805531  110.14399719    0.15000001    0.19000000
   14.16138840  110.03800201    0.15000001    0.19000000
   14.16249943  111.11499786    0.15000001    0.19000000
   14.16499996  117.72899628    0.15000001    0.19000000
   14.16805553  115.09200287    0.15000001    0.19000000
   14.17138958  113.99700165    0.15000001    0.19000000
   14.17472267  132.50700378    0.15000001    0.19000000
   14.17777824   -1.00000000    0.15000001    0.19000000
   14.18111134   -1.00000000    0.15000001    0.19000000
   14.21500015  127.37599945    0.15000001    0.19000000
   14.21833324  115.24900055    0.15000001    0.19000000
   14.22249985  122.44799805    0.15000001    0.19000000
   14.22583294  124.56199646    0.15000001    0.19000000
   14.22916603  115.45999908    0.15000001    0.19000000
   14.23527813  115.45999908    0.15000001    0.19000000
   14.23944473  121.57599640    0.15000001    0.19000000
   14.24250031  124.13400269    0.15000001    0.19000000
   14.24583340  115.96700287    0.15000001    0.19000000
   14.24833393  112.22899628    0.15000001    0.19000000
   14.24972248  106.55400085    0.15000001    0.19000000
   14.25277805  104.89900208    0.15000001    0.19000000
   14.25611115  115.23400116    0.15000001    0.19000000
   14.25916672  118.20200348    0.15000001    0.19000000
   14.26249981  114.01799774    0.15000001    0.19000000
   14.26583290  121.43099976    0.15000001    0.19000000
   14.26888847  112.34799957    0.15000001    0.19000000
   14.27222157  112.27700043    0.15000001    0.19000000
   14.27805519  112.27700043    0.15000001    0.19000000
   14.28222179  114.85700226    0.15000001    0.19000000
   14.28555584  120.51200104    0.15000001    0.19000000
   14.28861141  119.88800049    0.15000001    0.19000000
   14.29194450  112.61399841    0.15000001    0.19000000
   14.29527855  111.14099884    0.15000001    0.19000000
   14.29833412  125.44899750    0.15000001    0.19000000
   14.30166721  126.95200348    0.15000001    0.19000000
   14.30500031  122.81199646    0.15000001    0.19000000
   14.30805588  113.61100006    0.15000001    0.19000000
   14.31138897  120.48999786    0.15000001    0.19000000
   14.31472206  128.58099365    0.15000001    0.19000000
   14.31527805  124.00499725    0.15000001    0.19000000
   14.32083321  124.00499725    0.15000001    0.19000000
   14.32499981  118.10900116    0.15000001    0.19000000
   14.32833290  112.47200012    0.15000001    0.19000000
   14.33166695  111.63200378    0.15000001    0.19000000
   14.33472157  119.91000366    0.15000001    0.19000000
   14.33805561  121.69699860    0.15000001    0.19000000
   14.34111118  126.35800171    0.15000001    0.19000000
   14.34444427  116.62400055    0.15000001    0.19000000
   14.34777737  127.44499969    0.15000001    0.19000000
   14.34861088  115.21800232    0.15000001    0.19000000
   14.35138893  128.38299561    0.15000001    0.19000000
   14.35472298  120.41000366    0.15000001    0.19000000
   14.35805607  119.60900116    0.15000001    0.19000000
   14.36388969  119.60900116    0.15000001    0.19000000
   14.36777782  120.66999817    0.15000001    0.19000000
   14.37111092  121.21199799    0.15000001    0.19000000
   14.37444496  115.55799866    0.15000001    0.19000000
   14.37750053  125.82900238    0.15000001    0.19000000
   14.38083363  277.69100952    0.15000001    0.19000000
   14.38194466  176.22999573    0.15000001    0.19000000
   14.38444424  121.94899750    0.15000001    0.19000000
   14.38777733  122.21600342    0.15000001    0.19000000
   14.39083290  188.24699402    0.15000001    0.19000000
   14.39416695  102.20500183    0.15000001    0.19000000
   14.39750004  137.15400696    0.15000001    0.19000000
   14.40055561  143.85699463    0.15000001    0.19000000
   14.40666676  143.85699463    0.15000001    0.19000000
   14.41083336  114.34700012    0.15000001    0.19000000
   14.41388893   -1.00000000    0.15000001    0.19000000
   14.41750050   -1.00000000    0.15000001    0.19000000
   14.42055607  156.72799683    0.15000001    0.19000000
   14.42388916  118.36499786    0.15000001    0.19000000
   14.42722225  236.84100342    0.15000001    0.19000000
   14.43027782  119.40599823    0.15000001    0.19000000
   14.43361092  101.83699799    0.15000001    0.19000000
   14.43694496   -1.00000000    0.15000001    0.19000000
   14.44000053   -1.00000000    0.15000001    0.19000000
   14.44333363  156.86999512    0.15000001    0.19000000
   14.45361137   -1.00000000    0.15000001    0.19000000
   14.45666695   -1.00000000    0.15000001    0.19000000
   14.46000004   -1.00000000    0.15000001    0.19000000
   14.46333313  119.47399902    0.15000001    0.19000000
   14.46638870  426.71200562    0.15000001    0.19000000
   14.46861076  339.34899902    0.15000001    0.19000000
   14.46972179  213.20700073    0.15000001    0.19000000
   14.46999931  426.71200562    0.15000001    0.19000000
   14.46999931  101.83699799    0.15000001    0.19000000
   14.46999931   -1.00000000    0.15000001    0.19000000
   14.47027779   -1.00000000    0.15000001    0.19000000
   14.47027779  156.86999512    0.15000001    0.19000000
   14.47027779   -1.00000000    0.15000001    0.19000000
   14.47055531   -1.00000000    0.15000001    0.19000000
   14.47055531   -1.00000000    0.15000001    0.19000000
   14.47055531  119.47399902    0.15000001    0.19000000
   14.47166634  171.07600403    0.15000001    0.19000000
   14.47472191   -1.00000000    0.15000001    0.19000000
   14.47805500   -1.00000000    0.15000001    0.19000000
   14.48111057   -1.00000000    0.15000001    0.19000000
   14.48444462   -1.00000000    0.15000001    0.19000000
   14.49472237   38.19879913    0.15000001    0.19000000
   14.49777794  179.71099854    0.15000001    0.19000000
   14.50111103  125.07599640    0.15000001    0.19000000
   14.50444412   -1.00000000    0.15000001    0.19000000
   14.50777817   -1.00000000    0.15000001    0.19000000
   14.51111126   -1.00000000    0.15000001    0.19000000
   14.51416683   61.41809845    0.15000001    0.19000000
   14.51749992   -1.00000000    0.15000001    0.19000000
   14.52083302  147.88400269    0.15000001    0.19000000
   14.52388859  144.41499329    0.15000001    0.19000000
   14.52722168  153.05599976    0.15000001    0.19000000
   14.53333378  153.05599976    0.15000001    0.19000000
   14.53750038  124.67299652    0.15000001    0.19000000
   14.54083347  122.42299652    0.15000001    0.19000000
   14.54388905  121.70099640    0.15000001    0.19000000
   14.54722309  113.72899628    0.15000001    0.19000000
   14.55055618  122.76100159    0.15000001    0.19000000
   14.55361176  119.26799774    0.15000001    0.19000000
   14.55694485  116.40899658    0.15000001    0.19000000
   14.56027794  112.10099792    0.15000001    0.19000000
   14.56333351  112.81099701    0.15000001    0.19000000
   14.56666660  116.23699951    0.15000001    0.19000000
   14.56972218  116.06800079    0.15000001    0.19000000
   14.57027817  115.59500122    0.15000001    0.19000000
   14.57638836  115.59500122    0.15000001    0.19000000
   14.58055592  114.47000122    0.15000001    0.19000000
   14.58361053  103.58000183    0.15000001    0.19000000
   14.58694458  141.07600403    0.15000001    0.19000000
   14.59000015  229.34700012    0.15000001    0.19000000
   14.59333324  309.98901367    0.15000001    0.19000000
   14.59555531  114.47000122    0.15000001    0.19000000
   14.59555531  103.58000183    0.15000001    0.19000000
   14.59555531  141.07600403    0.15000001    0.19000000
   14.59583282  229.34700012    0.15000001    0.19000000
   14.59583282  309.98901367    0.15000001    0.19000000
   14.59611034  112.10099792    0.15000001    0.19000000
   14.59611034  112.81099701    0.15000001    0.19000000
   14.59611034  116.23699951    0.15000001    0.19000000
   14.59638882  116.06800079    0.15000001    0.19000000
   14.59805489   96.83180237    0.15000001    0.19000000
   14.60111141  113.24199677    0.15000001    0.19000000
   14.60444450  105.80100250    0.15000001    0.19000000
   14.60750008  119.79100037    0.15000001    0.19000000
   14.61083412  122.91000366    0.15000001    0.19000000
   14.61611176  122.91000366    0.15000001    0.19000000
   14.62027836  108.76100159    0.15000001    0.19000000
   14.62361145  107.94699860    0.15000001    0.19000000
   14.62666702  111.77300262    0.15000001    0.19000000
   14.62916660  116.50599670    0.15000001    0.19000000
   14.63055611  120.35299683    0.15000001    0.19000000
   14.63388920  109.12899780    0.15000001    0.19000000
   14.63694477  110.68000031    0.15000001    0.19000000
   14.64027786  110.03099823    0.15000001    0.19000000
   14.64333344  110.40899658    0.15000001    0.19000000
   14.64666653  113.79900360    0.15000001    0.19000000
   14.64999962  113.72699738    0.15000001    0.19000000
   14.65305519  116.77999878    0.15000001    0.19000000
   14.65916634  116.77999878    0.15000001    0.19000000
   14.66305542  114.58999634    0.15000001    0.19000000
   14.66638851  116.95800018    0.15000001    0.19000000
   14.66972256  112.48899841    0.15000001    0.19000000
   14.67277813  119.88400269    0.15000001    0.19000000
   14.67611122  114.77700043    0.15000001    0.19000000
   14.67944431  107.79100037    0.15000001    0.19000000
   14.68249989  101.69300079    0.15000001    0.19000000
   14.68583298  103.37100220    0.15000001    0.19000000
   14.68916702  106.55400085    0.15000001    0.19000000
   14.69222260  113.26699829    0.15000001    0.19000000
   14.69555569  100.62899780    0.15000001    0.19000000
   14.69611073  110.31199646    0.15000001    0.19000000
   14.70194435  110.31199646    0.15000001    0.19000000
   14.70611095  110.55999756    0.15000001    0.19000000
   14.70916653  116.49500275    0.15000001    0.19000000
   14.71249962  105.08899689    0.15000001    0.19000000
   14.71583271   98.46209717    0.15000001    0.19000000
   14.71888828  111.49800110    0.15000001    0.19000000
   14.72222137  109.50399780    0.15000001    0.19000000
   14.72527695  100.55000305    0.15000001    0.19000000
   14.72861099  112.72799683    0.15000001    0.19000000
   14.72944355  113.28199768    0.15000001    0.19000000
   14.73222160  113.74600220    0.15000001    0.19000000
   14.73555565  106.08999634    0.15000001    0.19000000
   14.73888874  116.54299927    0.15000001    0.19000000
   14.74472237  116.54299927    0.15000001    0.19000000
   14.74888897  126.61100006    0.15000001    0.19000000
   14.75222206  131.85499573    0.15000001    0.19000000
   14.75527763  142.07200623    0.15000001    0.19000000
   14.75861073  217.73100281    0.15000001    0.19000000
   14.76166630   -1.00000000    0.15000001    0.19000000
   14.76527786   -1.00000000    0.15000001    0.19000000
   14.76861095   -1.00000000    0.15000001    0.19000000
   14.77166653  223.91299438    0.15000001    0.19000000
   14.77499962  155.63000488    0.15000001    0.19000000
   14.77833271  171.44400024    0.15000001    0.19000000
   14.78138828   -1.00000000    0.15000001    0.19000000
   14.79166698   -1.00000000    0.15000001    0.19000000
   14.79472256   -1.00000000    0.15000001    0.19000000
   14.79833412   -1.00000000    0.15000001    0.19000000
   14.80166721   -1.00000000    0.15000001    0.19000000
   14.80472279   -1.00000000    0.15000001    0.19000000
   14.80805588  273.63699341    0.15000001    0.19000000
   14.81138897  112.64099884    0.15000001    0.19000000
   14.81444454  112.25299835    0.15000001    0.19000000
   14.81777763  113.43800354    0.15000001    0.19000000
   14.82111073  115.18000031    0.15000001    0.19000000
   14.82416630  113.27400208    0.15000001    0.19000000
   14.83444405   -1.00000000    0.15000001    0.19000000
   14.83777714   -1.00000000    0.15000001    0.19000000
   14.84083271   -1.00000000    0.15000001    0.19000000
   14.84416676   -1.00000000    0.15000001    0.19000000
   14.84749985   -1.00000000    0.15000001    0.19000000
   14.85055637   -1.00000000    0.15000001    0.19000000
   14.85388947   -1.00000000    0.15000001    0.19000000
   14.85694504   -1.00000000    0.15000001    0.19000000
   14.86027813  230.09500122    0.15000001    0.19000000
   14.86277771  134.45399475    0.15000001    0.19000000
   14.86416721  103.09500122    0.15000001    0.19000000
   14.86722279  115.72499847    0.15000001    0.19000000
   14.87333393  115.72499847    0.15000001    0.19000000
   14.87750053  113.87799835    0.15000001    0.19000000
   14.88055611  115.42299652    0.15000001    0.19000000
   14.88388920  135.54600525    0.15000001    0.19000000
   14.88694477  121.76899719    0.15000001    0.19000000
   14.89027786  111.92700195    0.15000001    0.19000000
   14.89361095  120.27400208    0.15000001    0.19000000
   14.89611053  115.69000244    0.15000001    0.19000000
   14.89722252  118.76799774    0.15000001    0.19000000
   14.90027714  115.04299927    0.15000001    0.19000000
   14.90361118  109.23200226    0.15000001    0.19000000
   14.90666676  115.32199860    0.15000001    0.19000000
   14.90999985  115.76000214    0.15000001    0.19000000
   14.91611099  115.76000214    0.15000001    0.19000000
   14.92027855  112.61100006    0.15000001    0.19000000
   14.92333412  104.45099640    0.15000001    0.19000000
   14.92666721  111.04499817    0.15000001    0.19000000
   14.92944431  111.43900299    0.15000001    0.19000000
   14.93055630   97.71839905    0.15000001    0.19000000
   14.93361092  107.16799927    0.15000001    0.19000000
   14.93694496  106.79000092    0.15000001    0.19000000
   14.94000053  102.04699707    0.15000001    0.19000000
   14.94333363  116.27700043    0.15000001    0.19000000
   14.94666672  104.34700012    0.15000001    0.19000000
   14.94972229  118.23000336    0.15000001    0.19000000
   14.95305538  108.31199646    0.15000001    0.19000000
   14.95888901  108.31199646    0.15000001    0.19000000
   14.96305561  110.06199646    0.15000001    0.19000000
   14.96638870  108.95300293    0.15000001    0.19000000
   14.96944427  107.07399750    0.15000001    0.19000000
   14.97277737  115.27300262    0.15000001    0.19000000
   14.97611046  103.38400269    0.15000001    0.19000000
   14.97916603  114.23100281    0.15000001    0.19000000
   14.98249912  112.55999756    0.15000001    0.19000000
   14.98583317  109.24800110    0.15000001    0.19000000
   14.98888874  110.30000305    0.15000001    0.19000000
   14.99222279  111.30400085    0.15000001    0.19000000
   14.99527836  109.62400055    0.15000001    0.19000000
   14.99611092  112.88800049    0.15000001    0.19000000
   15.00194454  112.88800049    0.15000001    0.19000000
   15.00583363  109.05999756    0.15000001    0.19000000
   15.00916672  109.58899689    0.15000001    0.19000000
   15.01249981  114.82900238    0.15000001    0.19000000
   15.01555538  117.83399963    0.15000001    0.19000000
   15.01888847  116.76499939    0.15000001    0.19000000
   15.02194405  117.60299683    0.15000001    0.19000000
   15.02527714  107.07599640    0.15000001    0.19000000
   15.02861118  114.94100189    0.15000001    0.19000000
   15.02944374  104.14499664    0.15000001    0.19000000
   15.03222179  110.90100098    0.15000001    0.19000000
   15.03527832  107.83300018    0.15000001    0.19000000
   15.03861141  103.06700134    0.15000001    0.19000000
   15.04472256  103.06700134    0.15000001    0.19000000
   15.04888916  107.08300018    0.15000001    0.19000000
   15.05194473  102.05699921    0.15000001    0.19000000
   15.05527782  106.67800140    0.15000001    0.19000000
   15.05833340  100.74400330    0.15000001    0.19000000
   15.06166649  105.00499725    0.15000001    0.19000000
   15.06277752  101.08999634    0.15000001    0.19000000
   15.06555557  106.26999664    0.15000001    0.19000000
   15.06861115   98.05840302    0.15000001    0.19000000
   15.07194424  107.28399658    0.15000001    0.19000000
   15.07499981  110.60600281    0.15000001    0.19000000
   15.07833290  105.42500305    0.15000001    0.19000000
   15.08166695  100.49299622    0.15000001    0.19000000
   15.08749962  100.49299622    0.15000001    0.19000000
   15.09166622  106.83899689    0.15000001    0.19000000
   15.09472179  118.71299744    0.15000001    0.19000000
   15.09611034  109.65599823    0.15000001    0.19000000
   15.09861088  105.00900269    0.15000001    0.19000000
   15.10166740  126.23999786    0.15000001    0.19000000
   15.10500050  114.46299744    0.15000001    0.19000000
   15.10805607  117.94699860    0.15000001    0.19000000
   15.11138916  126.08999634    0.15000001    0.19000000
   15.11472225  124.25099945    0.15000001    0.19000000
   15.11777782  104.60700226    0.15000001    0.19000000
   15.12111092  117.89499664    0.15000001    0.19000000
   15.12444496  109.33999634    0.15000001    0.19000000
   15.13027763  109.33999634    0.15000001    0.19000000
   15.13444424  108.31800079    0.15000001    0.19000000
   15.13777733  114.84300232    0.15000001    0.19000000
   15.14083290  119.25700378    0.15000001    0.19000000
   15.14416695  103.60800171    0.15000001    0.19000000
   15.14750004  124.20899963    0.15000001    0.19000000
   15.15055561  115.65899658    0.15000001    0.19000000
   15.15388870  109.94999695    0.15000001    0.19000000
   15.15722179  112.50499725    0.15000001    0.19000000
   15.16027737  110.62500000    0.15000001    0.19000000
   15.16277695  106.24299622    0.15000001    0.19000000
   15.16416645  115.49099731    0.15000001    0.19000000
   15.16722298  113.81300354    0.15000001    0.19000000
   15.17305565  113.81300354    0.15000001    0.19000000
   15.17722225  117.02400208    0.15000001    0.19000000
   15.18055630  111.66300201    0.15000001    0.19000000
   15.18388939  110.78299713    0.15000001    0.19000000
   15.18694496  107.13800049    0.15000001    0.19000000
   15.19027805  108.88700104    0.15000001    0.19000000
   15.19333363  119.23300171    0.15000001    0.19000000
   15.19611073  109.52400208    0.15000001    0.19000000
   15.19722271  115.84999847    0.15000001    0.19000000
   15.20027733  106.88999939    0.15000001    0.19000000
   15.20361137  110.02799988    0.15000001    0.19000000
   15.20666695  111.76499939    0.15000001    0.19000000
   15.21000004  104.86199951    0.15000001    0.19000000
   15.23194408  110.75199890    0.15000001    0.19000000
   15.23249912  113.36499786    0.15000001    0.19000000
   15.23694515  112.57499695    0.15000001    0.19000000
   15.24027824  105.42099762    0.15000001    0.19000000
   15.24361134  117.45099640    0.15000001    0.19000000
   15.24666691  123.41000366    0.15000001    0.19000000
   15.25000000  118.18800354    0.15000001    0.19000000
   15.25305557  107.06400299    0.15000001    0.19000000
   15.25888920  107.06400299    0.15000001    0.19000000
   15.26305580  115.32599640    0.15000001    0.19000000
   15.26527786  106.93399811    0.15000001    0.19000000
   15.26666641  108.67199707    0.15000001    0.19000000
   15.26999950  114.02700043    0.15000001    0.19000000
   15.27333355  113.80599976    0.15000001    0.19000000
   15.27638817  104.84600067    0.15000001    0.19000000
   15.27972221  112.30799866    0.15000001    0.19000000
   15.28472233  104.94799805    0.15000001    0.19000000
   15.28805637  106.68599701    0.15000001    0.19000000
   15.29138947   99.35630035    0.15000001    0.19000000
   15.29444504  109.20300293    0.15000001    0.19000000
   15.29777813  103.01200104    0.15000001    0.19000000
   15.30194473  103.01200104    0.15000001    0.19000000
   15.30611134  100.69599915    0.15000001    0.19000000
   15.30916691  106.97299957    0.15000001    0.19000000
   15.31250000  104.31700134    0.15000001    0.19000000
   15.31583309  109.12999725    0.15000001    0.19000000
   15.31888866  103.98000336    0.15000001    0.19000000
   15.32222176   97.07520294    0.15000001    0.19000000
   15.32555580  104.61199951    0.15000001    0.19000000
   15.32861137  106.87699890    0.15000001    0.19000000
   15.33194447  101.82800293    0.15000001    0.19000000
   15.33277798  105.05200195    0.15000001    0.19000000
   15.33555508  107.65799713    0.15000001    0.19000000
   15.33861065  105.57299805    0.15000001    0.19000000
   15.34472179  105.57299805    0.15000001    0.19000000
   15.34888840  103.29100037    0.15000001    0.19000000
   15.35222244  100.91799927    0.15000001    0.19000000
   15.35527802  114.32299805    0.15000001    0.19000000
   15.35861111  102.41799927    0.15000001    0.19000000
   15.36166668  101.48899841    0.15000001    0.19000000
   15.36500072  109.27700043    0.15000001    0.19000000
   15.36611176  108.28600311    0.15000001    0.19000000
   15.36861134  111.18299866    0.15000001    0.19000000
   15.37166691  107.28500366    0.15000001    0.19000000
   15.37500000  111.23000336    0.15000001    0.19000000
   15.37833309  104.32800293    0.15000001    0.19000000
   15.38138866  115.54699707    0.15000001    0.19000000
   15.38749981  115.54699707    0.15000001    0.19000000
   15.39166641  101.09400177    0.15000001    0.19000000
   15.39499950   95.70659637    0.15000001    0.19000000
   15.39805508  102.36100006    0.15000001    0.19000000
   15.39972210  114.75800323    0.15000001    0.19000000
   15.40194416  114.42400360    0.15000001    0.19000000
   15.40499973   99.60669708    0.15000001    0.19000000
   15.40833282  101.84899902    0.15000001    0.19000000
   15.41166592   95.43609619    0.15000001    0.19000000
   15.41472149  111.84999847    0.15000001    0.19000000
   15.41805553  100.42400360    0.15000001    0.19000000
   15.42111111  104.16100311    0.15000001    0.19000000
   15.42444515  104.07900238    0.15000001    0.19000000
   15.43055630  104.07900238    0.15000001    0.19000000
   15.43444443   95.60790253    0.15000001    0.19000000
   15.43777752  124.67900085    0.15000001    0.19000000
   15.44111156  118.00099945    0.15000001    0.19000000
   15.44416714  119.55400085    0.15000001    0.19000000
   15.44750023  114.94400024    0.15000001    0.19000000
   15.45083332  131.03799438    0.15000001    0.19000000
   15.45388889  132.34800720    0.15000001    0.19000000
   15.45722198  121.75599670    0.15000001    0.19000000
   15.46027756  111.17500305    0.15000001    0.19000000
   15.46361065  127.35199738    0.15000001    0.19000000
   15.46638870  138.71299744    0.15000001    0.19000000
   15.46749973  128.50900269    0.15000001    0.19000000
   15.47333336  128.50900269    0.15000001    0.19000000
   15.47749996   97.43910217    0.15000001    0.19000000
   15.48055553   97.72630310    0.15000001    0.19000000
   15.48388958   97.17340088    0.15000001    0.19000000
   15.48722267  100.48899841    0.15000001    0.19000000
   15.49027824  114.78700256    0.15000001    0.19000000
   15.49361134  111.76999664    0.15000001    0.19000000
   15.49666691  101.61100006    0.15000001    0.19000000
   15.49972248  105.67700195    0.15000001    0.19000000
   15.50055599  103.37100220    0.15000001    0.19000000
   15.50361156  105.19200134    0.15000001    0.19000000
   15.50694466  109.00900269    0.15000001    0.19000000
   15.51000023  107.73999786    0.15000001    0.19000000
   15.51611137  107.73999786    0.15000001    0.19000000
   15.52027798   93.94850159    0.15000001    0.19000000
   15.52361107  112.59400177    0.15000001    0.19000000
   15.52666664  103.66100311    0.15000001    0.19000000
   15.52999973  104.52200317    0.15000001    0.19000000
   15.53305531  102.23600006    0.15000001    0.19000000
   15.53361130   94.33399963    0.15000001    0.19000000
   15.53666687  107.02500153    0.15000001    0.19000000
   15.54000092  107.47200012    0.15000001    0.19000000
   15.54305553  103.35600281    0.15000001    0.19000000
   15.54638958  110.88500214    0.15000001    0.19000000
   15.54972267   97.70639801    0.15000001    0.19000000
   15.55277824  104.47499847    0.15000001    0.19000000
   15.55888939  104.47499847    0.15000001    0.19000000
   15.56305599  102.20899963    0.15000001    0.19000000
   15.56638908  110.04499817    0.15000001    0.19000000
   15.56694412  104.49199677    0.15000001    0.19000000
   15.56999969  105.41999817    0.15000001    0.19000000
   15.57333374   96.92140198    0.15000001    0.19000000
   15.57638836   99.60530090    0.15000001    0.19000000
   15.57972240   98.79190063    0.15000001    0.19000000
   15.58305550  106.76599884    0.15000001    0.19000000
   15.58611107  106.54599762    0.15000001    0.19000000
   15.58944416  110.15899658    0.15000001    0.19000000
   15.59277725  104.69300079    0.15000001    0.19000000
   15.59583282  104.65499878    0.15000001    0.19000000
   15.60194492  104.65499878    0.15000001    0.19000000
   15.60583401  106.19899750    0.15000001    0.19000000
   15.60916710  110.96499634    0.15000001    0.19000000
   15.61250019  107.85700226    0.15000001    0.19000000
   15.61555576  113.83399963    0.15000001    0.19000000
   15.61888885  107.92800140    0.15000001    0.19000000
   15.62222195  113.66100311    0.15000001    0.19000000
   15.62527752  114.48400116    0.15000001    0.19000000
   15.62861156  115.75000000    0.15000001    0.19000000
   15.63166714  114.22599792    0.15000001    0.19000000
   15.63305569  111.57800293    0.15000001    0.19000000
   15.63555527  118.03199768    0.15000001    0.19000000
   15.63861084  113.38200378    0.15000001    0.19000000
   15.64472198  113.38200378    0.15000001    0.19000000
   15.64888859  114.63700104    0.15000001    0.19000000
   15.65194416  115.05899811    0.15000001    0.19000000
   15.65527725  108.13800049    0.15000001    0.19000000
   15.65861034  109.97699738    0.15000001    0.19000000
   15.66166592  121.04000092    0.15000001    0.19000000
   15.66499996  110.16600037    0.15000001    0.19000000
   15.66638851  110.73200226    0.15000001    0.19000000
   15.66861153  123.09600067    0.15000001    0.19000000
   15.67166710  106.03299713    0.15000001    0.19000000
   15.67500019  118.03199768    0.15000001    0.19000000
   15.67833328  122.41799927    0.15000001    0.19000000
   15.68138885  104.99800110    0.15000001    0.19000000
   15.68750000  104.99800110    0.15000001    0.19000000
   15.69166660  117.00199890    0.15000001    0.19000000
   15.69499969  101.03099823    0.15000001    0.19000000
   15.69805527  113.54900360    0.15000001    0.19000000
   15.69999981  113.27600098    0.15000001    0.19000000
   15.70166683  102.94799805    0.15000001    0.19000000
   15.70499992  111.70700073    0.15000001    0.19000000
   15.70833302   95.66339874    0.15000001    0.19000000
   15.71138859  109.45500183    0.15000001    0.19000000
   15.71472168  101.11100006    0.15000001    0.19000000
   15.71805477   98.63310242    0.15000001    0.19000000
   15.72111034  103.47399902    0.15000001    0.19000000
   15.72444439  104.81999969    0.15000001    0.19000000
   15.73027706  104.81999969    0.15000001    0.19000000
   15.73444462  101.74199677    0.15000001    0.19000000
   15.73777771   96.15879822    0.15000001    0.19000000
   15.74083328  104.25900269    0.15000001    0.19000000
   15.74416733  112.61299896    0.15000001    0.19000000
   15.74750042   99.49659729    0.15000001    0.19000000
   15.75055599  115.00700378    0.15000001    0.19000000
   15.75388908  105.35700226    0.15000001    0.19000000
   15.75722218  107.11499786    0.15000001    0.19000000
   15.76027775  102.89399719    0.15000001    0.19000000
   15.76361084  101.07399750    0.15000001    0.19000000
   15.76666641  109.69999695    0.15000001    0.19000000
   15.76722240  112.02100372    0.15000001    0.19000000
   15.77333355  112.02100372    0.15000001    0.19000000
   15.77722168  105.13600159    0.15000001    0.19000000
   15.78055573  104.13899994    0.15000001    0.19000000
   15.78388977  110.04299927    0.15000001    0.19000000
   15.78694534  110.65299988    0.15000001    0.19000000
   15.79027843  100.44499969    0.15000001    0.19000000
   15.79361153  117.62999725    0.15000001    0.19000000
   15.79666710  102.69400024    0.15000001    0.19000000
   15.80000019  108.68599701    0.15000001    0.19000000
   15.80027771   95.05960083    0.15000001    0.19000000
   15.80361176  111.93900299    0.15000001    0.19000000
   15.80694485  101.96800232    0.15000001    0.19000000
   15.81000042  100.39299774    0.15000001    0.19000000
   15.81611156  100.39299774    0.15000001    0.19000000
   15.82027817  106.36399841    0.15000001    0.19000000
   15.82333374   99.94319916    0.15000001    0.19000000
   15.82666683  108.99299622    0.15000001    0.19000000
   15.82999992  102.79100037    0.15000001    0.19000000
   15.83305550  108.44200134    0.15000001    0.19000000
   15.83361053  109.97899628    0.15000001    0.19000000
   15.83694458  110.52999878    0.15000001    0.19000000
   15.84000015  107.43000031    0.15000001    0.19000000
   15.84333324  108.64199829    0.15000001    0.19000000
   15.84666634  102.82599640    0.15000001    0.19000000
   15.84972191  125.24900055    0.15000001    0.19000000
   15.85305595  114.21800232    0.15000001    0.19000000
   15.85888958  114.21800232    0.15000001    0.19000000
   15.86305618  108.34600067    0.15000001    0.19000000
   15.86638927  113.15200043    0.15000001    0.19000000
   15.86694431  120.84600067    0.15000001    0.19000000
   15.86999989  115.63999939    0.15000001    0.19000000
   15.87305546  112.66799927    0.15000001    0.19000000
   15.87638855  107.44200134    0.15000001    0.19000000
   15.87972260  117.40699768    0.15000001    0.19000000
   15.88277817  111.82299805    0.15000001    0.19000000
   15.88611126  113.82900238    0.15000001    0.19000000
   15.88944435   99.77929688    0.15000001    0.19000000
   15.89249992   95.86389923    0.15000001    0.19000000
   15.89583302  106.22699738    0.15000001    0.19000000
   15.90166664  106.22699738    0.15000001    0.19000000
   15.90583324  110.35199738    0.15000001    0.19000000
   15.90916634  110.74600220    0.15000001    0.19000000
   15.91222191  117.04900360    0.15000001    0.19000000
   15.91555500  105.70099640    0.15000001    0.19000000
   15.91888905  106.87000275    0.15000001    0.19000000
   15.92194462  103.09300232    0.15000001    0.19000000
   15.92527771  109.91999817    0.15000001    0.19000000
   15.92833328  109.94899750    0.15000001    0.19000000
   15.93166733  103.63600159    0.15000001    0.19000000
   15.93361092  101.77700043    0.15000001    0.19000000
   15.93527794  105.73699951    0.15000001    0.19000000
   15.93833351  103.26399994    0.15000001    0.19000000
   15.94472218  103.26399994    0.15000001    0.19000000
   15.94861126  102.24800110    0.15000001    0.19000000
   15.95194435  104.63200378    0.15000001    0.19000000
   15.95527744  107.88999939    0.15000001    0.19000000
   15.95833302  101.45600128    0.15000001    0.19000000
   15.96166611  104.78399658    0.15000001    0.19000000
   15.96500015  107.72799683    0.15000001    0.19000000
   15.96694374   99.43299866    0.15000001    0.19000000
   15.96861076  105.45800018    0.15000001    0.19000000
   15.97166634  109.01000214    0.15000001    0.19000000
   15.97499943  104.52700043    0.15000001    0.19000000
   15.97833252  106.69499969    0.15000001    0.19000000
   15.98138809  104.49700165    0.15000001    0.19000000
   15.98750019  104.49700165    0.15000001    0.19000000
   15.99166679  105.42700195    0.15000001    0.19000000
   15.99472237  114.47499847    0.15000001    0.19000000
   15.99805546  109.43099976    0.15000001    0.19000000
   16.00027847  103.34500122    0.15000001    0.19000000
   16.00166702   99.86209869    0.15000001    0.19000000
   16.00499916  102.80599976    0.15000001    0.19000000
   16.00805473  116.84100342    0.15000001    0.19000000
   16.01138878  102.70800018    0.15000001    0.19000000
   16.01444435  108.45300293    0.15000001    0.19000000
   16.01777840  104.76599884    0.15000001    0.19000000
   16.02111053  103.43000031    0.15000001    0.19000000
   16.02416611   96.65190125    0.15000001    0.19000000
   16.03027725   96.65190125    0.15000001    0.19000000
   16.03444481  105.80699921    0.15000001    0.19000000
   16.03750038  108.65499878    0.15000001    0.19000000
   16.04083252  104.27300262    0.15000001    0.19000000
   16.04416656  107.69300079    0.15000001    0.19000000
   16.04722214  108.67800140    0.15000001    0.19000000
   16.05055428  113.06700134    0.15000001    0.19000000
   16.05388832  114.68399811    0.15000001    0.19000000
   16.05694389  113.22299957    0.15000001    0.19000000
   16.06027794  106.11399841    0.15000001    0.19000000
   16.06333351  100.21900177    0.15000001    0.19000000
   16.06666756  110.68900299    0.15000001    0.19000000
   16.06722260  113.13300323    0.15000001    0.19000000
   16.07305717  113.13300323    0.15000001    0.19000000
   16.07722282  115.35099792    0.15000001    0.19000000
   16.08055687  105.87500000    0.15000001    0.19000000
   16.08361244  111.09200287    0.15000001    0.19000000
   16.08694458  110.44699860    0.15000001    0.19000000
   16.09027863  100.75700378    0.15000001    0.19000000
   16.09333420  107.02700043    0.15000001    0.19000000
   16.09666824  108.47499847    0.15000001    0.19000000
   16.10000038  108.49800110    0.15000001    0.19000000
   16.10055542  100.68499756    0.15000001    0.19000000
   16.10361099   99.15260315    0.15000001    0.19000000
   16.10666656   97.77770233    0.15000001    0.19000000
   16.11000061   91.45320129    0.15000001    0.19000000
   16.11611176   91.45320129    0.15000001    0.19000000
   16.12000084  101.95099640    0.15000001    0.19000000
   16.12333298   97.89289856    0.15000001    0.19000000
   16.12666702   97.04650116    0.15000001    0.19000000
   16.12972260   98.03849792    0.15000001    0.19000000
   16.13305473  108.50099945    0.15000001    0.19000000
   16.13388824   98.15319824    0.15000001    0.19000000
   16.13666725  103.92600250    0.15000001    0.19000000
   16.13972282   97.02539825    0.15000001    0.19000000
   16.14305496  100.58300018    0.15000001    0.19000000
   16.14638901   90.58760071    0.15000001    0.19000000
   16.14944458  109.17600250    0.15000001    0.19000000
   16.15277672   98.08940125    0.15000001    0.19000000
   16.15888786   98.08940125    0.15000001    0.19000000
   16.16305542  101.98100281    0.15000001    0.19000000
   16.16611099  101.58300018    0.15000001    0.19000000
   16.16722107   91.00219727    0.15000001    0.19000000
   16.17000008  103.59899902    0.15000001    0.19000000
   16.17305565   95.31539917    0.15000001    0.19000000
   16.17638779   97.45410156    0.15000001    0.19000000
   16.17972183   96.77359772    0.15000001    0.19000000
   16.18277740  100.40499878    0.15000001    0.19000000
   16.18610954  103.62999725    0.15000001    0.19000000
   16.18916512   95.46330261    0.15000001    0.19000000
   16.19249916   93.81300354    0.15000001    0.19000000
   16.19583321   95.02950287    0.15000001    0.19000000
   16.20166779   95.02950287    0.15000001    0.19000000
   16.20583344  105.93800354    0.15000001    0.19000000
   16.20888901  104.56400299    0.15000001    0.19000000
   16.21222305  105.49400330    0.15000001    0.19000000
   16.21555710  102.19499969    0.15000001    0.19000000
   16.21861076  104.19100189    0.15000001    0.19000000
   16.22194481   92.30359650    0.15000001    0.19000000
   16.22527885  103.67700195    0.15000001    0.19000000
   16.22833443  105.44100189    0.15000001    0.19000000
   16.23166656  105.56600189    0.15000001    0.19000000
   16.24888992  100.87000275    0.15000001    0.19000000
   16.25305557  100.87000275    0.15000001    0.19000000
   16.25722313   96.31749725    0.15000001    0.19000000
   16.26055527  106.70899963    0.15000001    0.19000000
   16.26361084  106.53299713    0.15000001    0.19000000
   16.26694489  105.12799835    0.15000001    0.19000000
   16.27000046   99.32869720    0.15000001    0.19000000
   16.27333260   99.75939941    0.15000001    0.19000000
   16.27666664  104.39099884    0.15000001    0.19000000
   16.27972221  105.53600311    0.15000001    0.19000000
   16.28222275  113.41400146    0.15000001    0.19000000
   16.28333282   91.84539795    0.15000001    0.19000000
   16.28666687  110.35900116    0.15000001    0.19000000
   16.28999901   93.63670349    0.15000001    0.19000000
   16.29583359   93.63670349    0.15000001    0.19000000
   16.29999924  115.65899658    0.15000001    0.19000000
   16.30333328  107.97599792    0.15000001    0.19000000
   16.30638885  109.23899841    0.15000001    0.19000000
   16.30972099   94.87760162    0.15000001    0.19000000
   16.31305504  109.31099701    0.15000001    0.19000000
   16.31555557   87.29889679    0.15000001    0.19000000
   16.31638718  105.05000305    0.15000001    0.19000000
   16.31972313  101.72399902    0.15000001    0.19000000
   16.32305717  102.79000092    0.15000001    0.19000000
   16.32611275   92.92880249    0.15000001    0.19000000
   16.32944489   95.30850220    0.15000001    0.19000000
   16.33277893   96.23179626    0.15000001    0.19000000
   16.33889008   96.23179626    0.15000001    0.19000000
   16.34277916   97.23919678    0.15000001    0.19000000
   16.34611130   98.56710052    0.15000001    0.19000000
   16.34889030  106.01899719    0.15000001    0.19000000
   16.34972191   96.67759705    0.15000001    0.19000000
   16.35305595   98.46779633    0.15000001    0.19000000
   16.35639000  109.92700195    0.15000001    0.19000000
   16.35944557   98.03489685    0.15000001    0.19000000
   16.36277771  103.78299713    0.15000001    0.19000000
   16.36611176  103.25000000    0.15000001    0.19000000
   16.36916733  100.06199646    0.15000001    0.19000000
   16.37249947  104.91200256    0.15000001    0.19000000
   16.37555504  100.27999878    0.15000001    0.19000000
   16.38166618  100.27999878    0.15000001    0.19000000
   16.38583374   95.42510223    0.15000001    0.19000000
   16.38888931  100.73600006    0.15000001    0.19000000
   16.39222145  106.04100037    0.15000001    0.19000000
   16.39555550  103.61399841    0.15000001    0.19000000
   16.39861107  102.96299744    0.15000001    0.19000000
   16.40194321  104.37999725    0.15000001    0.19000000
   16.40499878  101.93499756    0.15000001    0.19000000
   16.40833282  109.25700378    0.15000001    0.19000000
   16.41166687  112.52300262    0.15000001    0.19000000
   16.41472244  123.45099640    0.15000001    0.19000000
   16.41666603  116.21900177    0.15000001    0.19000000
   16.41860962  105.77200317    0.15000001    0.19000000
   16.42444420  105.77200317    0.15000001    0.19000000
   16.42860985   -1.00000000    0.15000001    0.19000000
   16.43194389   -1.00000000    0.15000001    0.19000000
   16.43499947   -1.00000000    0.15000001    0.19000000
   16.43833160   -1.00000000    0.15000001    0.19000000
   16.44138718   -1.00000000    0.15000001    0.19000000
   16.44472122   -1.00000000    0.15000001    0.19000000
   16.44805527  149.70300293    0.15000001    0.19000000
   16.45000076  120.63700104    0.15000001    0.19000000
   16.45166779  170.63200378    0.15000001    0.19000000
   16.45472336  120.84200287    0.15000001    0.19000000
   16.45805550  115.49800110    0.15000001    0.19000000
   16.46138954  102.73600006    0.15000001    0.19000000
   16.46722221  102.73600006    0.15000001    0.19000000
   16.47138977  106.64700317    0.15000001    0.19000000
   16.47472191  102.76899719    0.15000001    0.19000000
   16.47777748   97.69650269    0.15000001    0.19000000
   16.48111153  107.00900269    0.15000001    0.19000000
   16.48361206   93.40950012    0.15000001    0.19000000
   16.48472214  107.06199646    0.15000001    0.19000000
   16.48805618  140.71699524    0.15000001    0.19000000
   16.49138832  108.34899902    0.15000001    0.19000000
   16.49444389  108.79299927    0.15000001    0.19000000
   16.49777794  111.26100159    0.15000001    0.19000000
   16.50111198  101.91100311    0.15000001    0.19000000
   16.50416756   -1.00000000    0.15000001    0.19000000
   16.51027870   -1.00000000    0.15000001    0.19000000
   16.51416588  107.63999939    0.15000001    0.19000000
   16.51694489   98.28150177    0.15000001    0.19000000
   16.51777840  108.45400238    0.15000001    0.19000000
   16.52111053  111.93000031    0.15000001    0.19000000
   16.52444458  107.54599762    0.15000001    0.19000000
   16.52750015  104.08100128    0.15000001    0.19000000
   16.53083229  112.83799744    0.15000001    0.19000000
   16.53416634  115.34500122    0.15000001    0.19000000
   16.53722191   96.51100159    0.15000001    0.19000000
   16.54055595  105.51899719    0.15000001    0.19000000
   16.54361153  107.74099731    0.15000001    0.19000000
   16.54694366  103.45200348    0.15000001    0.19000000
   16.55305481  103.45200348    0.15000001    0.19000000
   16.55722237  100.31700134    0.15000001    0.19000000
   16.56027794  106.00299835    0.15000001    0.19000000
   16.56361008  135.72599792    0.15000001    0.19000000
   16.56694603  203.08099365    0.15000001    0.19000000
   16.57000160   93.87550354    0.15000001    0.19000000
   16.57333374  208.38000488    0.15000001    0.19000000
   16.57638931  128.15299988    0.15000001    0.19000000
   16.57972336  112.46800232    0.15000001    0.19000000
   16.58305550  117.17700195    0.15000001    0.19000000
   16.58388901  109.36799622    0.15000001    0.19000000
   16.58666801  121.10800171    0.15000001    0.19000000
   16.58972359  121.03399658    0.15000001    0.19000000
   16.59583473  121.03399658    0.15000001    0.19000000
   16.60000038  221.43299866    0.15000001    0.19000000
   16.60333443  365.20901489    0.15000001    0.19000000
   16.60527802  114.30500031    0.15000001    0.19000000
   16.60527802  121.03399658    0.15000001    0.19000000
   16.60555649  221.43299866    0.15000001    0.19000000
   16.60555649  365.20901489    0.15000001    0.19000000
   16.60555649   93.87550354    0.15000001    0.19000000
   16.60583305  208.38000488    0.15000001    0.19000000
   16.60583305  128.15299988    0.15000001    0.19000000
   16.60583305  112.46800232    0.15000001    0.19000000
   16.60611153  117.17700195    0.15000001    0.19000000
   16.60611153  121.10800171    0.15000001    0.19000000
   16.60805511  117.90599823    0.15000001    0.19000000
   16.61138916  106.35299683    0.15000001    0.19000000
   16.61444473  112.78500366    0.15000001    0.19000000
   16.61777878   99.42479706    0.15000001    0.19000000
   16.62111092  102.28399658    0.15000001    0.19000000
   16.62611198  102.28399658    0.15000001    0.19000000
   16.63027763  103.85600281    0.15000001    0.19000000
   16.63333321   99.81960297    0.15000001    0.19000000
   16.63666725   99.51840210    0.15000001    0.19000000
   16.63916588  105.73999786    0.15000001    0.19000000
   16.64027786   93.10379791    0.15000001    0.19000000
   16.64361191  108.66500092    0.15000001    0.19000000
   16.64694405   96.82340240    0.15000001    0.19000000
   16.64999962  109.38300323    0.15000001    0.19000000
   16.65333366  102.22599792    0.15000001    0.19000000
   16.65666580  100.94999695    0.15000001    0.19000000
   16.65972137  106.45700073    0.15000001    0.19000000
   16.66305542  114.40200043    0.15000001    0.19000000
   16.66888809  114.40200043    0.15000001    0.19000000
   16.67305565  107.62200165    0.15000001    0.19000000
   16.67638779  104.02200317    0.15000001    0.19000000
   16.67944336  114.66799927    0.15000001    0.19000000
   16.68277740  108.77899933    0.15000001    0.19000000
   16.68583298  114.95800018    0.15000001    0.19000000
   16.68916512  178.26800537    0.15000001    0.19000000
   16.69249916  120.94499969    0.15000001    0.19000000
   16.69555473  119.86299896    0.15000001    0.19000000
   16.69888878  118.55599976    0.15000001    0.19000000
   16.70222282  113.13899994    0.15000001    0.19000000
   16.70527840  110.15100098    0.15000001    0.19000000
   16.70583344  116.84300232    0.15000001    0.19000000
   16.71166801  116.84300232    0.15000001    0.19000000
   16.71583366  162.24000549    0.15000001    0.19000000
   16.71916771  223.35899353    0.15000001    0.19000000
   16.72222328  178.72500610    0.15000001    0.19000000
   16.72555542  127.38899994    0.15000001    0.19000000
   16.72888947  155.52999878    0.15000001    0.19000000
   16.73194504  308.51000977    0.15000001    0.19000000
   16.73416710  297.85299683    0.15000001    0.19000000
   16.73527718   59.50889969    0.15000001    0.19000000
   16.73555565  162.24000549    0.15000001    0.19000000
   16.73555565  223.35899353    0.15000001    0.19000000
   16.73555565  178.72500610    0.15000001    0.19000000
   16.73583412  127.38899994    0.15000001    0.19000000
   16.73583412  155.52999878    0.15000001    0.19000000
   16.73583412  308.51000977    0.15000001    0.19000000
   16.73611069  118.55599976    0.15000001    0.19000000
   16.73611069  113.13899994    0.15000001    0.19000000
   16.73638916  110.15100098    0.15000001    0.19000000
   16.73750114  169.88400269    0.15000001    0.19000000
   16.74055672  156.36500549    0.15000001    0.19000000
   16.74388885  229.77200317    0.15000001    0.19000000
   16.74694443   -1.00000000    0.15000001    0.19000000
   16.75027847   -1.00000000    0.15000001    0.19000000
   16.75611115   -1.00000000    0.15000001    0.19000000
   16.76027870  138.06799316    0.15000001    0.19000000
   16.76361084  190.33999634    0.15000001    0.19000000
   16.76666641  180.95399475    0.15000001    0.19000000
   16.76916695  121.82399750    0.15000001    0.19000000
   16.77055550  119.06800079    0.15000001    0.19000000
   16.77388954  116.94300079    0.15000001    0.19000000
   16.77694511  128.79600525    0.15000001    0.19000000
   16.78027725  128.22300720    0.15000001    0.19000000
   16.78333282  110.48100281    0.15000001    0.19000000
   16.78666687  123.58300018    0.15000001    0.19000000
   16.78999901  109.98799896    0.15000001    0.19000000
   16.79305458  108.34600067    0.15000001    0.19000000
   16.79888916  108.34600067    0.15000001    0.19000000
   16.80305481  114.43900299    0.15000001    0.19000000
   16.80638885   98.11879730    0.15000001    0.19000000
   16.80972099  107.40100098    0.15000001    0.19000000
   16.81277657   95.10369873    0.15000001    0.19000000
   16.81611061   98.14649963    0.15000001    0.19000000
   16.81944466  106.20200348    0.15000001    0.19000000
   16.82250023   98.34559631    0.15000001    0.19000000
   16.82583427  106.01200104    0.15000001    0.19000000
   16.82888985  108.34600067    0.15000001    0.19000000
   16.83222389  104.58999634    0.15000001    0.19000000
   16.83555603  107.77999878    0.15000001    0.19000000
   16.83611107   99.44190216    0.15000001    0.19000000
   16.84194565   99.44190216    0.15000001    0.19000000
   16.84611130  104.85800171    0.15000001    0.19000000
   16.84916687  103.31099701    0.15000001    0.19000000
   16.85250092  106.78500366    0.15000001    0.19000000
   16.85555649  101.11299896    0.15000001    0.19000000
   16.85888863  107.55599976    0.15000001    0.19000000
   16.86222267  112.40299988    0.15000001    0.19000000
   16.86527824  100.11000061    0.15000001    0.19000000
   16.86861038   96.66059875    0.15000001    0.19000000
   16.86944389   95.85289764    0.15000001    0.19000000
   16.87222290   98.45320129    0.15000001    0.19000000
   16.87555504  105.53399658    0.15000001    0.19000000
   16.87888908  110.93199921    0.15000001    0.19000000
   16.88472176  110.93199921    0.15000001    0.19000000
   16.88888931   -1.00000000    0.15000001    0.19000000
   16.89194489   -1.00000000    0.15000001    0.19000000
   16.89527702   -1.00000000    0.15000001    0.19000000
   16.89861107   -1.00000000    0.15000001    0.19000000
   16.90166664   -1.00000000    0.15000001    0.19000000
