    HOUR (UT)   FLARE FACTOR    SKY TESTER    SUN TESTER
   12.31250000   -1.00000000   -1.00000000   -1.00000000
   12.33249950  107.35600281    2.25000000    1.88000000
   12.33722210   99.14140320    2.26999998    1.88000000
   12.34249973   99.99130249    2.28999996    1.88000000
   12.34555531  148.94400024    2.28999996    1.88000000
   12.34888840   96.65760040    2.30999994    1.89999998
   12.35222244   92.07620239    2.30999994    1.88000000
   12.35527802   98.17769623    2.30999994    1.89999998
   12.35861111   88.96080017    2.32999992    1.89999998
   12.36166668   89.80549622    2.32999992    1.89999998
   12.36500072   91.99349976    2.34999990    1.88000000
   12.36583328   96.49150085    2.34999990    1.89999998
   12.36861134  102.60700226    2.36999989    1.89999998
   12.37194443   92.86820221    2.36999989    1.89999998
   12.37527752   92.16339874    2.36999989    1.91999996
   12.37833309   92.63690186    2.36999989    1.91999996
   12.38166714  105.04299927    2.36999989    1.91999996
   12.38472176  105.19599915    2.36999989    1.91999996
   12.38805580   92.29900360    2.36999989    1.94000006
   12.39138889  100.11900330    2.36999989    1.94000006
   12.39444447   93.03029633    2.36999989    1.94000006
   12.39777756   98.19640350    2.36999989    1.94000006
   12.39916611   94.07649994    2.36999989    1.94000006
   12.40138817   93.54119873    2.34999990    1.96000004
   12.40472221   96.31510162    2.34999990    1.96000004
   12.40805531   93.25399780    2.34999990    1.96000004
   12.41111088   93.63490295    2.32999992    1.96000004
   12.41444397   88.59559631    2.32999992    1.96000004
   12.41777802   96.92810059    2.30999994    1.98000002
   12.42083359   99.05359650    2.30999994    1.98000002
   12.42416668   98.11699677    2.28999996    1.98000002
   12.42750072  102.69599915    2.28999996    1.96000004
   12.43055630   97.43240356    2.26999998    1.98000002
   12.43249989   99.84349823    2.26999998    1.98000002
   12.43416691   96.10040283    2.26999998    1.98000002
   12.43750000   92.00199890    2.26999998    1.98000002
   12.44083309   95.63549805    2.26999998    1.98000002
   12.44388866   94.66130066    2.26999998    1.98000002
   12.44722271   88.81590271    2.25000000    1.98000002
   12.45027733   95.59259796    2.25000000    2.00000000
   12.45361137   85.67169952    2.25000000    2.00000000
   12.45694447   86.19059753    2.25000000    2.00000000
   12.46000004  103.73200226    2.23000002    2.00000000
   12.46333313   89.38890076    2.23000002    2.00000000
   12.46583271   88.94039917    2.21000004    2.00000000
   12.46694374   91.98159790    2.21000004    2.00000000
   12.47027779   96.37190247    2.21000004    2.00000000
   12.47361088   97.62100220    2.19000006    2.01999998
   12.47666645   93.60679626    2.17000008    2.01999998
   12.47999954   91.17680359    2.17000008    2.01999998
   12.48305511   95.27490234    2.15000010    2.01999998
   12.48638916   93.86679840    2.15000010    2.01999998
   12.48972225   95.13939667    2.11999989    2.03999996
   12.49277782   89.37339783    2.07999992    2.03999996
   12.49611092   97.90599823    2.05999994    2.03999996
   12.49916649  101.09300232    2.03999996    2.03999996
   12.49972248   96.47329712    2.03999996    2.03999996
   12.50305557   85.48600006    2.01999998    2.03999996
   12.50638866   96.08020020    1.98000002    2.03999996
   12.50944424  115.06099701    1.96000004    2.03999996
   12.51277733  102.96099854    2.00000000    2.03999996
   12.51583290   93.10220337    1.94000006    2.05999994
   12.51916599   89.56559753    2.00000000    2.03999996
   12.52250004   93.37460327    1.96000004    2.05999994
   12.52555561   96.14969635    1.96000004    2.03999996
   12.52888870  110.74500275    1.98000002    2.05999994
   12.53222179   99.61900330    1.98000002    2.05999994
   12.53249931  104.42600250    1.98000002    2.05999994
   12.53583336  115.53099823    1.98000002    2.05999994
   12.53916740  108.21399689    2.00000000    2.05999994
   12.54222298   98.70230103    2.01999998    2.05999994
   12.54555607  112.90299988    2.01999998    2.07999992
   12.54888916  107.09200287    2.01999998    2.07999992
   12.55194473  103.40899658    2.03999996    2.07999992
   12.55527782  120.13500214    2.03999996    2.07999992
   12.55861092  104.60199738    2.03999996    2.07999992
   12.56166649  103.17400360    2.03999996    2.09999990
   12.56500053  107.50000000    2.05999994    2.07999992
   12.56583309   98.83719635    2.03999996    2.07999992
   12.56861115  109.28500366    2.05999994    2.07999992
   12.57194424  103.12300110    2.03999996    2.09999990
   12.57499981  115.41200256    2.03999996    2.07999992
   12.57833290  103.59799957    2.03999996    2.09999990
   12.58166695  108.33899689    2.01999998    2.09999990
   12.58472157   99.81690216    2.00000000    2.09999990
   12.58805561  109.43000031    2.00000000    2.09999990
   12.59138870  114.42600250    1.98000002    2.09999990
   12.59444427  107.55899811    1.98000002    2.11999989
   12.59777737  104.34100342    1.98000002    2.11999989
   12.59916592  107.38800049    1.98000002    2.11999989
   12.60138893  124.97799683    1.96000004    2.11999989
   12.60472298  110.67299652    1.96000004    2.09999990
   12.60777855  112.61799622    1.96000004    2.11999989
   12.61111164  103.89399719    1.96000004    2.11999989
   12.61444473  104.93800354    1.96000004    2.11999989
   12.61750031  110.91799927    1.98000002    2.11999989
   12.62083340   91.88289642    1.98000002    2.11999989
   12.62416649   93.28869629    1.98000002    2.11999989
   12.62722206   98.23760223    1.98000002    2.11999989
   12.63055611  115.75099945    1.94000006    2.13000011
   12.63277817  101.59500122    1.91999996    2.13000011
   12.63416672  102.45300293    1.91999996    2.13000011
   12.63749981  115.84999847    1.91999996    2.13000011
   12.64055538   97.09310150    1.91999996    2.13000011
   12.64388847  101.96199799    1.89999998    2.13000011
   12.64722252  107.43299866    1.88000000    2.13000011
   12.65027714   91.51399994    1.88000000    2.13000011
   12.65361118   91.36750031    1.88000000    2.15000010
   12.65694427  101.18099976    1.88000000    2.15000010
   12.65999985   93.85479736    1.88000000    2.15000010
   12.66333294   95.81809998    1.88000000    2.15000010
   12.66611099   89.64140320    1.88000000    2.15000010
   12.66694450   83.31130219    1.88000000    2.15000010
   12.67027855   90.53919983    1.88000000    2.15000010
   12.67333412   93.64440155    1.86000001    2.15000010
   12.67666721   84.79139709    1.88000000    2.17000008
   12.68000031   96.58509827    1.86000001    2.15000010
   12.68305588   94.07830048    1.86000001    2.15000010
   12.68638897   95.67109680    1.88000000    2.17000008
   12.68972206   95.46929932    1.88000000    2.17000008
   12.69277763  100.05300140    1.86000001    2.17000008
   12.69611073   87.46949768    1.86000001    2.17000008
   12.69944477   88.83300018    1.86000001    2.17000008
   12.69972229   98.09239960    1.86000001    2.17000008
   12.70305538   99.29360199    1.86000001    2.17000008
   12.70611095   99.46579742    1.86000001    2.15000010
   12.70944405   91.43070221    1.83000004    2.17000008
   12.71277714   89.74289703    1.80999994    2.17000008
   12.71583271   98.52010345    1.80999994    2.17000008
   12.71916580   86.85240173    1.80999994    2.17000008
   12.72249985   85.65959930    1.80999994    2.19000006
   12.72555542   91.15650177    1.78999996    2.17000008
   12.72888851   93.38600159    1.75000000    2.19000006
   12.73194408   86.78250122    1.73000002    2.19000006
   12.73277760  107.24600220    1.73000002    2.19000006
   12.73555565   90.36720276    1.73000002    2.19000006
   12.73888874   90.60540009    1.71000004    2.19000006
   12.74222279   91.99459839    1.71000004    2.19000006
   12.74527836   90.82080078    1.71000004    2.19000006
   12.74861145   85.51930237    1.71000004    2.19000006
   12.75194454   87.33149719    1.73000002    2.19000006
   12.75500011   98.88860321    1.73000002    2.19000006
   12.75833321   82.52359772    1.73000002    2.21000004
   12.76138878   87.50990295    1.75000000    2.19000006
   12.76472187   94.17320251    1.75000000    2.19000006
   12.76611137   93.34529877    1.75000000    2.19000006
   12.76833344   85.82369995    1.75000000    2.21000004
   12.77166653   86.96679688    1.76999998    2.19000006
   12.77472210   93.07749939    1.75000000    2.21000004
   12.77805519   83.48169708    1.75000000    2.21000004
   12.78138828   85.23239899    1.75000000    2.21000004
   12.78444481   99.24629974    1.75000000    2.21000004
   12.78777790   82.68730164    1.73000002    2.21000004
   12.79111195   93.15080261    1.73000002    2.21000004
   12.79416752   80.66069794    1.73000002    2.21000004
   12.79750061   88.73690033    1.71000004    2.21000004
   12.79944515   89.08999634    1.71000004    2.21000004
   12.80138874   85.88200378    1.71000004    2.21000004
   12.80444431   87.86289978    1.71000004    2.23000002
   12.80777836   86.89119720    1.69000006    2.23000002
   12.81111145   86.61250305    1.69000006    2.23000002
   12.81416702   84.79889679    1.66999996    2.23000002
   12.81750011   94.10189819    1.64999998    2.23000002
   12.82083321   86.12490082    1.64999998    2.23000002
   12.82388878   91.62000275    1.53999996    2.23000002
   12.82722187   89.20339966    1.53999996    2.23000002
   12.83027744   90.54699707    1.51999998    2.23000002
   12.83277798   89.47489929    1.51999998    2.23000002
   12.83416653   97.41729736    1.51999998    2.23000002
   12.83749962   81.93370056    1.51999998    2.25000000
   12.84083271   89.55030060    1.51999998    2.25000000
   12.84388828   87.56030273    1.51999998    2.25000000
   12.84722233   93.92449951    1.51999998    2.25000000
   12.85027790   87.62390137    1.51999998    2.25000000
   12.85361195   86.59919739    1.50000000    2.25000000
   12.85694504   86.04830170    1.48000002    2.25000000
   12.86000061   87.93979645    1.48000002    2.25000000
   12.86333370   92.23719788    1.48000002    2.25000000
   12.86611176   85.14859772    1.48000002    2.25000000
   12.86694431   91.88990021    1.48000002    2.25000000
   12.87027836   95.87039948    1.46000004    2.26999998
   12.87361145   96.63649750    1.44000006    2.26999998
   12.87666702   87.43820190    1.44000006    2.25000000
   12.88000011   84.64080048    1.44000006    2.26999998
   12.88305569   92.49050140    1.39999998    2.26999998
   12.88638878   89.31130219    1.39999998    2.26999998
   12.88972187   89.58679962    1.36000001    2.26999998
   12.89277744   94.65260315    1.36000001    2.26999998
   12.89611053   89.56710052    1.30999994    2.28999996
   12.89944458   83.63960266    1.30999994    2.28999996
   12.89972210   89.92030334    1.30999994    2.28999996
   12.90305519   90.15100098    1.30999994    2.26999998
   12.90638828   89.45159912    1.30999994    2.26999998
   12.90944386   95.91889954    1.28999996    2.28999996
   12.91277695   91.61419678    1.26999998    2.28999996
   12.91611099   82.36579895    1.26999998    2.28999996
   12.91916656  107.69100189    1.25000000    2.28999996
   12.92250061   85.96800232    1.25000000    2.28999996
   12.92583370   89.63140106    1.23000002    2.28999996
   12.92888927   93.03790283    1.21000004    2.28999996
   12.93222237   93.79850006    1.21000004    2.30999994
   12.93277836   98.41269684    1.21000004    2.30999994
   12.93555546   90.54460144    1.19000006    2.30999994
   12.93888855  100.34700012    1.19000006    2.30999994
   12.94222260   97.61689758    1.19000006    2.28999996
   12.94527817  109.00499725    1.19000006    2.28999996
   12.94861126  101.21600342    1.16999996    2.28999996
   12.95194435  118.08399963    1.19000006    2.30999994
   12.95499992   98.49520111    1.19000006    2.30999994
   12.95833302  104.69899750    1.19000006    2.30999994
   12.96138859   90.33599854    1.19000006    2.30999994
   12.96472168   89.55560303    1.19000006    2.30999994
   12.96611118  107.32700348    1.21000004    2.30999994
   12.96833324   93.97129822    1.21000004    2.30999994
   12.97166634   90.37950134    1.23000002    2.32999992
   12.97499943   93.77950287    1.23000002    2.32999992
   12.97805500   98.76999664    1.23000002    2.32999992
   12.98138809   84.12129974    1.23000002    2.30999994
   12.98472214   97.50189972    1.25000000    2.32999992
   12.98777771   98.19069672    1.23000002    2.32999992
   12.99111176  103.14099884    1.25000000    2.30999994
   12.99416733   86.39589691    1.25000000    2.32999992
   12.99777794  103.51300049    1.25000000    2.32999992
   12.99944496   88.06349945    1.25000000    2.32999992
   13.00138855   97.81600189    1.25000000    2.30999994
   13.00472260  101.62200165    1.26999998    2.32999992
   13.00805569  100.58200073    1.30999994    2.32999992
   13.01111126  103.92800140    1.28999996    2.32999992
   13.01444435   95.35600281    1.30999994    2.32999992
   13.01777744   88.68759918    1.30999994    2.32999992
   13.02083302   92.35479736    1.30999994    2.32999992
   13.02416611   96.87560272    1.30999994    2.32999992
   13.02722168  104.65399933    1.30999994    2.32999992
   13.03055573   99.76480103    1.25000000    2.32999992
   13.03277779   88.52590179    1.25000000    2.32999992
   13.03416729   96.57990265    1.25000000    2.32999992
   13.03750038   94.35800171    1.23000002    2.32999992
   13.04083347  104.44799805    1.23000002    2.34999990
   13.04388905  102.74800110    1.21000004    2.34999990
   13.04722309   98.76180267    1.19000006    2.34999990
   13.05055618   87.66840363    1.19000006    2.34999990
   13.05361176   90.50399780    1.19000006    2.34999990
   13.05694485   83.03079987    1.16999996    2.34999990
   13.06000042   87.61250305    1.19000006    2.34999990
   13.06333351   84.06960297    1.19000006    2.34999990
   13.06611156   99.03469849    1.21000004    2.34999990
   13.06694412   99.22429657    1.21000004    2.34999990
   13.07027817   93.06240082    1.19000006    2.34999990
   13.07361126   99.34380341    1.19000006    2.34999990
   13.07666683   90.22859955    1.19000006    2.34999990
   13.07999992   91.76809692    1.16999996    2.34999990
   13.08333302   85.26370239    1.19000006    2.36999989
   13.08638859   86.86650085    1.19000006    2.36999989
   13.08972168   84.41989899    1.19000006    2.34999990
   13.09305477   91.12010193    1.16999996    2.34999990
   13.09638882   93.61579895    1.16999996    2.36999989
   13.09944439   97.00980377    1.16999996    2.34999990
   13.10027790   84.88369751    1.16999996    2.34999990
   13.10333347   91.40110016    1.14999998    2.36999989
   13.10666752   87.16880035    1.16999996    2.39000010
   13.11027813   82.06839752    1.19000006    2.36999989
   13.11333370   85.79579926    1.19000006    2.36999989
   13.11666679   92.01390076    1.21000004    2.34999990
   13.11999989   92.75370026    1.25000000    2.34999990
   13.12305546  105.88600159    1.25000000    2.34999990
   13.12638855   83.35209656    1.26999998    2.36999989
   13.12972260   91.02290344    1.26999998    2.36999989
   13.13277817   91.00189972    1.26999998    2.36999989
   13.13333321   89.89759827    1.26999998    2.36999989
   13.13638878   85.49420166    1.25000000    2.36999989
   13.13972187   92.43849945    1.25000000    2.36999989
   13.14277744   90.93340302    1.21000004    2.39000010
   13.14611053   92.41010284    1.21000004    2.39000010
   13.14944458   83.30039978    1.21000004    2.39000010
   13.15249920   94.74890137    1.21000004    2.39000010
   13.15583324   91.96510315    1.19000006    2.39000010
   13.15888882   84.91970062    1.16999996    2.39000010
   13.16222191   81.31369781    1.13000000    2.39000010
   13.16555500   88.62010193    1.13000000    2.39000010
   13.16611099   89.82839966    1.13000000    2.39000010
   13.16888905   89.03849792    1.13000000    2.39000010
   13.17222214   84.73889923    1.13000000    2.39000010
   13.17555618   83.11319733    1.13000000    2.39000010
   13.17861176   80.02040100    1.11000001    2.40000010
   13.18194485   89.73680115    1.11000001    2.40000010
   13.18527794   82.14810181    1.11000001    2.40000010
   13.18888855   84.47989655    1.11000001    2.39000010
   13.19277763   87.03739929    1.11000001    2.40000010
   13.19611073   88.95510101    1.09000003    2.39000010
   13.19944477   96.44950104    1.11000001    2.40000010
   13.19999981   94.35820007    1.11000001    2.40000010
   13.20333290  102.70300293    1.11000001    2.39000010
   13.20638847   81.81700134    1.11000001    2.40000010
   13.20972157   88.30390167    1.13000000    2.40000010
   13.21277714   94.14949799    1.13000000    2.40000010
   13.21611118   95.55280304    1.14999998    2.40000010
   13.21944427   87.83129883    1.13000000    2.40000010
   13.22249985  108.27799988    1.14999998    2.40000010
   13.22583294  100.16400146    1.14999998    2.40000010
   13.22916603   89.32879639    1.14999998    2.40000010
   13.23222160   87.64849854    1.16999996    2.40000010
   13.23277760   93.27239990    1.16999996    2.40000010
   13.23583317   92.16210175    1.16999996    2.40000010
   13.23888874   95.28810120    1.19000006    2.40000010
   13.24222279   87.12539673    1.19000006    2.40000010
   13.24555588  106.77400208    1.19000006    2.40000010
   13.24861145  103.90799713    1.19000006    2.40000010
   13.25194454   96.03890228    1.16999996    2.40000010
   13.25527763   91.92970276    1.16999996    2.40000010
   13.25833321  100.56400299    1.16999996    2.40000010
   13.26166630   96.17250061    1.16999996    2.40000010
   13.26472187  104.74199677    1.14999998    2.40000010
   13.26611137   91.84909821    1.14999998    2.40000010
   13.26861095   99.50910187    1.14999998    2.40000010
   13.27166653  100.40799713    1.13000000    2.42000008
   13.27499962   99.06739807    1.13000000    2.42000008
   13.27833271  111.92600250    1.13000000    2.42000008
   13.28138828  100.61299896    1.11000001    2.42000008
   13.28472233  102.76200104    1.11000001    2.42000008
   13.28805637   98.53299713    1.11000001    2.42000008
   13.29111195   99.80229950    1.09000003    2.42000008
   13.29444504  104.19499969    1.11000001    2.42000008
   13.29750061   91.92849731    1.11000001    2.42000008
   13.29944515  102.61000061    1.11000001    2.42000008
   13.30138874   89.72740173    1.11000001    2.42000008
   13.30444431   89.38819885    1.09000003    2.42000008
   13.30777836   93.66719818    1.09000003    2.42000008
   13.31111145  105.68800354    1.09000003    2.42000008
   13.31416702   98.25250244    1.09000003    2.42000008
   13.31750011   95.19429779    1.09000003    2.44000006
   13.32083321  106.05000305    1.09000003    2.42000008
   13.32388878   97.12860107    1.09000003    2.42000008
   13.32722187   97.81710052    1.09000003    2.42000008
   13.33027744   95.56269836    1.09000003    2.42000008
   13.34916592   93.70819855    1.05999994    2.42000008
   13.35027790   90.52819824    1.05999994    2.42000008
   13.35361195   89.95330048    1.05999994    2.44000006
   13.35694504   98.51850128    1.05999994    2.44000006
   13.36000061   89.07039642    1.03999996    2.42000008
   13.36333370   98.63539886    1.01999998    2.44000006
   13.36666679   92.58540344    1.01999998    2.44000006
   13.36972237   95.39910126    1.01999998    2.44000006
   13.37305546  101.27400208    1.03999996    2.44000006
   13.37611103   99.37370300    1.01999998    2.44000006
   13.37944412   93.96730042    1.03999996    2.46000004
   13.38222218   98.70510101    1.03999996    2.44000006
   13.38305569   97.90570068    1.03999996    2.44000006
   13.38638878   90.51360321    1.01999998    2.46000004
   13.38944435   91.13819885    1.01999998    2.46000004
   13.39277744   97.62349701    1.01999998    2.44000006
   13.39611053   91.28289795    1.01999998    2.44000006
   13.39916611   87.44709778    1.00000000    2.46000004
   13.40249920   94.00499725    1.00000000    2.44000006
   13.40555477   93.60040283    1.00000000    2.46000004
   13.40888882   87.25610352    1.01999998    2.46000004
   13.41222191   90.16359711    1.00000000    2.46000004
   13.41527748   89.34190369    1.01999998    2.44000006
   13.41583252   94.06420135    1.01999998    2.44000006
   13.41916656   91.90139771    1.01999998    2.46000004
   13.42250061   87.31289673    1.01999998    2.46000004
   13.42555618   81.18299866    1.01999998    2.46000004
   13.42888927   88.94319916    1.01999998    2.46000004
   13.43222237   81.53230286    1.01999998    2.46000004
   13.43527794   82.08950043    1.01999998    2.46000004
   13.43861103   79.53119659    1.01999998    2.46000004
   13.44166660   96.45480347    1.01999998    2.46000004
   13.44499969   85.88179779    1.00000000    2.46000004
   13.44833374   79.37670135    1.00000000    2.46000004
   13.44916630   86.67960358    1.00000000    2.46000004
   13.45194435   86.04989624    1.00000000    2.46000004
   13.45527744   93.99839783    1.00000000    2.46000004
   13.45833302   85.43920135    1.00000000    2.46000004
   13.46166611   96.24449921    1.00000000    2.46000004
   13.46500015   80.90139771    1.00000000    2.46000004
   13.46805477  100.00299835    1.00000000    2.46000004
   13.47138882   97.68509674    1.00000000    2.46000004
   13.47472191   91.77940369    1.00000000    2.46000004
   13.47777748  101.39199829    0.98000002    2.46000004
   13.48111057  100.26599884    0.98000002    2.46000004
   13.48249912   86.45800018    0.98000002    2.48000002
   13.48472214   96.72409821    0.98000002    2.48000002
   13.48805618   91.54669952    0.98000002    2.46000004
   13.49111176   84.43849945    0.98000002    2.48000002
   13.49444485   98.58899689    0.98000002    2.46000004
   13.49777794   87.97779846    0.98000002    2.46000004
   13.50083351   94.26589966    0.95999998    2.46000004
   13.50416660   87.03479767    0.95999998    2.48000002
   13.50749969   82.08660126    0.94000000    2.46000004
   13.51055527   90.27590179    0.94000000    2.46000004
   13.51388931   83.88379669    0.95999998    2.46000004
   13.51583290   91.05840302    0.95999998    2.46000004
   13.51749992   87.25839996    0.94000000    2.46000004
   13.52083302   95.07949829    0.94000000    2.48000002
   13.52416611   90.82250214    0.94000000    2.48000002
   13.52722168   85.65319824    0.94000000    2.48000002
   13.53055573   86.42289734    0.94000000    2.48000002
   13.53361130   90.09089661    0.94000000    2.48000002
   13.53694534   87.75900269    0.94000000    2.48000002
   13.54027843   92.15260315    0.94000000    2.48000002
   13.54333401   84.38929749    0.92000002    2.48000002
   13.54666710   79.61669922    0.92000002    2.48000002
   13.54916668   82.51139832    0.92000002    2.48000002
   13.55027771   81.68509674    0.92000002    2.48000002
   13.55361176   84.04540253    0.92000002    2.48000002
   13.55666733   81.99680328    0.89999998    2.48000002
   13.67500019   -1.00000000   -1.00000000   -1.00000000
   13.77055550   -1.00000000   -1.00000000   -1.00000000
   13.86944485   -1.00000000   -1.00000000   -1.00000000
   13.90416622   71.22419739    0.79000002    2.53999996
   13.90749931   98.83529663    0.79000002    2.55999994
   13.91083336   97.26979828    0.79000002    2.53999996
   13.91388893  102.21800232    0.79000002    2.53999996
   13.91722298   91.31089783    0.79000002    2.55999994
   13.92027855   94.76480103    0.79000002    2.53999996
   13.92444515   94.76480103    0.79000002    2.55999994
   13.92861176   92.83959961    0.79000002    2.53999996
   13.93194485   92.69740295    0.79000002    2.55999994
   13.93500042   94.21579742    0.79000002    2.55999994
   13.93750000  104.91200256    0.76999998    2.55999994
   13.93888855  102.15399933    0.76999998    2.55999994
   13.94194412   98.28679657    0.76999998    2.55999994
   13.94527817   92.29550171    0.76999998    2.55999994
   13.94861126   83.88439941    0.76999998    2.55999994
   13.95166683   88.26329803    0.79000002    2.55999994
   13.95499992   81.48040009    0.79000002    2.55999994
   13.95833302   86.73290253    0.76999998    2.55999994
   13.96138859   86.58039856    0.76999998    2.55999994
   13.96749973   86.58039856    0.76999998    2.55999994
   13.97138882  102.84500122    0.76999998    2.55999994
   13.97472191   90.58999634    0.75000000    2.55999994
   13.97805500   99.87039948    0.75000000    2.55999994
   13.98111057   99.80310059    0.75000000    2.55999994
   13.98444462  105.62000275    0.75000000    2.55999994
   13.98777771   85.42880249    0.75000000    2.55999994
   13.99083328   94.73829651    0.75000000    2.55999994
   13.99416733  101.33799744    0.75000000    2.55999994
   13.99722290   95.73159790    0.75000000    2.55999994
   14.00055599   87.58399963    0.75000000    2.55999994
   14.00388908   99.55229950    0.75000000    2.55999994
   14.00444412  101.20999908    0.75000000    2.55999994
   14.01027775  101.20999908    0.75000000    2.55999994
   14.01444435   86.94730377    0.73000002    2.57999992
   14.01749992   77.80500031    0.73000002    2.57999992
   14.02083302   92.29769897    0.73000002    2.55999994
   14.02416611   84.09359741    0.73000002    2.55999994
   14.02722168   89.81520081    0.73000002    2.55999994
   14.03055573   81.33910370    0.73000002    2.55999994
   14.03361130   88.95099640    0.73000002    2.55999994
   14.03694534   90.76989746    0.70999998    2.55999994
   14.03777790   92.20169830    0.70999998    2.55999994
   14.04055595   90.21260071    0.69000000    2.55999994
   14.04388905   94.56929779    0.69000000    2.57999992
   14.04722309   96.11499786    0.69000000    2.57999992
   14.05305576   96.11499786    0.69000000    2.57999992
   14.05722237   95.08999634    0.69000000    2.57999992
   14.06055546  101.68299866    0.69000000    2.57999992
   14.06361103  108.62000275    0.67000002    2.57999992
   14.06694412  102.95800018    0.64999998    2.57999992
   14.06999969   93.73729706    0.64999998    2.57999992
   14.07111073   92.78610229    0.64999998    2.57999992
   14.07361126   95.25180054    0.64999998    2.57999992
   14.07694435   92.42099762    0.64999998    2.57999992
   14.08027744   95.10379791    0.64999998    2.57999992
   14.08333302   92.31289673    0.67000002    2.57999992
   14.08666611   99.33550262    0.67000002    2.57999992
   14.08972168   90.99929810    0.67000002    2.57999992
   14.09583282   90.99929810    0.64999998    2.57999992
   14.10000038   98.48739624    0.64999998    2.57999992
   14.10333347   94.38220215    0.64999998    2.57999992
   14.10444450   98.18679810    0.67000002    2.57999992
   14.10694504   91.34329987    0.67000002    2.57999992
   14.11027813  100.16000366    0.67000002    2.57999992
   14.11333370  104.60700226    0.67000002    2.57999992
   14.11666679   97.05509949    0.67000002    2.57999992
   14.11999989   88.71890259    0.67000002    2.57999992
   14.12305546  103.15100098    0.67000002    2.57999992
   14.12638855   95.84609985    0.69000000    2.57999992
   14.12972260   96.64119720    0.69000000    2.57999992
   14.13277817   94.60250092    0.67000002    2.57999992
   14.13888836   94.60250092    0.67000002    2.57999992
   14.14277744   99.21140289    0.67000002    2.57999992
   14.14611053   97.54850006    0.69000000    2.57999992
   14.14944458   91.92929840    0.69000000    2.57999992
   14.15249920   92.64240265    0.67000002    2.57999992
   14.15583324   89.59690094    0.67000002    2.57999992
   14.15888882   89.79720306    0.69000000    2.59999990
   14.16222191  100.31400299    0.70999998    2.57999992
   14.16555500   91.27079773    0.70999998    2.57999992
   14.16861153   88.09239960    0.70999998    2.57999992
   14.17111111   92.62020111    0.70999998    2.57999992
   14.17222214   90.92729950    0.70999998    2.59999990
   14.17555618   86.19390106    0.70999998    2.59999990
   14.18166733   86.19390106    0.70999998    2.57999992
   14.18583298  103.95700073    0.70999998    2.57999992
   14.18888855  101.72499847    0.70999998    2.57999992
   14.19222260  101.78299713    0.70999998    2.57999992
   14.19555569   96.47589874    0.70999998    2.57999992
   14.19861126   98.18090057    0.69000000    2.59999990
   14.20194435   99.21420288    0.70999998    2.59999990
   14.20444393  101.56900024    0.69000000    2.59999990
   14.20555496   90.07050323    0.69000000    2.59999990
   14.20888901  101.76300049    0.67000002    2.57999992
   14.21222210  103.42199707    0.69000000    2.59999990
   14.21527767   91.49189758    0.67000002    2.59999990
   14.21861076   90.05590057    0.69000000    2.59999990
   14.22444439   90.05590057    0.67000002    2.57999992
   14.22861099   98.07440186    0.69000000    2.59999990
   14.23194408   94.21469879    0.69000000    2.59999990
   14.23500061  104.56700134    0.67000002    2.57999992
   14.23777771  104.68099976    0.67000002    2.59999990
   14.23861122  103.90200043    0.67000002    2.59999990
   14.24194431   99.70449829    0.67000002    2.59999990
   14.24527836   96.23709869    0.69000000    2.59999990
   14.24833393  101.40599823    0.69000000    2.59999990
   14.25166702   99.41249847    0.69000000    2.59999990
   14.25472260   91.16030121    0.69000000    2.59999990
   14.25805569   97.37889862    0.69000000    2.59999990
   14.26138878   88.04309845    0.67000002    2.59999990
   14.26722240   88.04309845    0.67000002    2.59999990
   14.27138901   90.64569855    0.67000002    2.59999990
   14.27472210   90.41989899    0.67000002    2.59999990
   14.27777767   96.89080048    0.67000002    2.59999990
   14.28111076   86.50959778    0.67000002    2.59999990
   14.28444481   94.07740021    0.67000002    2.59999990
   14.28750038   88.29109955    0.67000002    2.59999990
   14.29083347  101.00299835    0.64999998    2.59999990
   14.29388905   86.75689697    0.64999998    2.59999990
   14.29722309   96.52700043    0.63000000    2.59999990
   14.30055618   92.97850037    0.63000000    2.59999990
   14.30361176   99.10030365    0.63000000    2.59999990
   14.30444431   90.51499939    0.63000000    2.59999990
   14.31000042   90.51499939    0.63000000    2.61999989
   14.31416702  101.16100311    0.63000000    2.59999990
   14.31750011   91.81680298    0.63000000    2.59999990
   14.32083321  106.82900238    0.64999998    2.59999990
   14.32388878   91.32520294    0.63000000    2.61999989
   14.32722187   98.24430084    0.63000000    2.59999990
   14.33055592   96.16660309    0.63000000    2.59999990
   14.33361053  102.78600311    0.63000000    2.59999990
   14.33694458   98.48249817    0.63000000    2.61999989
   14.33777714   99.31379700    0.63000000    2.61999989
   14.34055519  100.39900208    0.58999997    2.61999989
   14.34388828   99.70210266    0.58999997    2.59999990
   14.34722233  101.09999847    0.58999997    2.61999989
   14.35305595  101.09999847    0.58999997    2.61999989
   14.35722256  105.29799652    0.58999997    2.61999989
   14.36027813   98.59329987    0.56999999    2.61999989
   14.36361122  100.07900238    0.56999999    2.59999990
   14.36694431  103.02999878    0.56999999    2.61999989
   14.36999989   95.54470062    0.56999999    2.61999989
   14.37111092   97.19170380    0.56999999    2.59999990
   14.37361145   92.15309906    0.56999999    2.59999990
   14.37694454   90.46970367    0.55000001    2.59999990
   14.38027763   88.88040161    0.55000001    2.59999990
   14.38333321  100.79399872    0.55000001    2.61999989
   14.38666630   93.38359833    0.55000001    2.61999989
   14.38972187   92.97419739    0.55000001    2.61999989
   14.39583302   92.97419739    0.52999997    2.61999989
   14.39999962   91.96119690    0.55000001    2.61999989
   14.40305519  101.20300293    0.55000001    2.61999989
   14.40444374   96.96790314    0.55000001    2.61999989
   14.40666676   98.66860199    0.55000001    2.61999989
   14.40999985   96.38739777    0.55000001    2.61999989
   14.41333294   98.89910126    0.55000001    2.61999989
   14.41638851   94.17120361    0.55000001    2.61999989
   14.41972256   95.09549713    0.55000001    2.61999989
   14.42305565   91.43450165    0.56999999    2.61999989
   14.42611122   94.27169800    0.55000001    2.61999989
   14.42944431  102.71199799    0.56999999    2.61999989
   14.43277836  109.30500031    0.56999999    2.61999989
   14.43861103  109.30500031    0.56999999    2.61999989
   14.44277763  108.51399994    0.56999999    2.61999989
   14.44611073   92.51899719    0.56999999    2.61999989
   14.44944477   90.89050293    0.56999999    2.61999989
   14.45249939   98.69300079    0.56999999    2.64000010
   14.45583344  101.83200073    0.58999997    2.61999989
   14.45888901  101.61000061    0.58999997    2.61999989
   14.46222210   84.32070160    0.58999997    2.61999989
   14.46555519   99.92109680    0.56999999    2.61999989
   14.46861076   97.39679718    0.56999999    2.61999989
   14.47111034   94.18979645    0.58999997    2.61999989
   14.47222137   99.44149780    0.58999997    2.61999989
   14.47555542  106.94799805    0.58999997    2.61999989
   14.48138809  106.94799805    0.58999997    2.64000010
   14.48555565   88.90200043    0.56999999    2.64000010
   14.48888874   87.06649780    0.58999997    2.61999989
   14.49222279   96.89510345    0.58999997    2.61999989
   14.49527836   97.98889923    0.58999997    2.61999989
   14.49861145   93.43569946    0.58999997    2.61999989
   14.50194454  104.26399994    0.58999997    2.64000010
   14.50444412   92.82369995    0.61000001    2.61999989
   14.50527763   94.03379822    0.58999997    2.61999989
   14.50861073   92.68360138    0.58999997    2.61999989
   14.51194477   96.15170288    0.58999997    2.61999989
   14.51500034   99.57720184    0.58999997    2.61999989
   14.51833344   93.46939850    0.58999997    2.61999989
   14.52444458   93.46939850    0.58999997    2.61999989
   14.52861118   91.29979706    0.58999997    2.61999989
   14.53166676   92.95780182    0.61000001    2.64000010
   14.53500080   96.51339722    0.58999997    2.61999989
   14.53777790   79.27400208    0.61000001    2.61999989
   14.53861141   93.85250092    0.61000001    2.61999989
   14.54194450   89.48459625    0.61000001    2.61999989
   14.54527855   95.42199707    0.58999997    2.64000010
   14.54833412  101.94999695    0.58999997    2.61999989
   14.55166721   87.15440369    0.58999997    2.64000010
   14.55500031   91.16280365    0.58999997    2.64000010
   14.55805588   91.61239624    0.58999997    2.64000010
   14.56138897  105.25000000    0.58999997    2.64000010
   14.56722260  105.25000000    0.58999997    2.64000010
   14.57138920   93.03929901    0.56999999    2.64000010
   14.57444477   91.34079742    0.56999999    2.64000010
   14.57777786   92.66999817    0.55000001    2.64000010
   14.58111095   93.82199860    0.56999999    2.64000010
   14.58416653   96.76450348    0.56999999    2.64000010
   14.58749962   94.02580261    0.56999999    2.64000010
   14.59083271   93.38490295    0.56999999    2.64000010
   14.59388828   97.76349640    0.56999999    2.64000010
   14.59722233  100.61699677    0.58999997    2.64000010
   14.60027790   92.99089813    0.58999997    2.61999989
   14.60361195   90.94799805    0.58999997    2.64000010
   14.60444450   94.54309845    0.61000001    2.64000010
   14.61000061   94.54309845    0.58999997    2.61999989
   14.61416721   93.53340149    0.58999997    2.64000010
   14.61750031  102.78500366    0.56999999    2.64000010
   14.62055588  104.54299927    0.58999997    2.64000010
   14.62388897   97.33280182    0.58999997    2.64000010
   14.62722206   96.48940277    0.56999999    2.64000010
   14.63027763   94.72640228    0.56999999    2.64000010
   14.63361073  101.02400208    0.56999999    2.64000010
   14.63666630   94.15579987    0.55000001    2.64000010
   14.63777733   91.36879730    0.55000001    2.64000010
   14.64055538   98.57189941    0.55000001    2.64000010
   14.64361095   95.95230103    0.55000001    2.64000010
   14.64694405   92.48359680    0.55000001    2.64000010
   14.65277767   92.48359680    0.58999997    2.64000010
   14.65694427   97.43470001    0.58999997    2.64000010
   14.66027737   94.24929810    0.58999997    2.64000010
   14.66361046   94.64499664    0.58999997    2.64000010
   14.66666698   92.86430359    0.61000001    2.64000010
   14.67000008  104.33399963    0.63000000    2.64000010
   14.67111111  108.23200226    0.63000000    2.64000010
   14.67361164   97.94419861    0.61000001    2.64000010
   14.67694473   97.44869995    0.61000001    2.64000010
   14.68027782   95.37550354    0.61000001    2.64000010
   14.68333340   92.95490265    0.58999997    2.64000010
   14.68666649  100.04000092    0.58999997    2.64000010
   14.69000053  102.83999634    0.58999997    2.64000010
   14.69583321  102.83999634    0.58999997    2.64000010
   14.69972229   96.16760254    0.58999997    2.64000010
   14.70305538   95.80709839    0.56999999    2.64000010
   14.70444393   91.59290314    0.56999999    2.64000010
   14.70666695  100.50800323    0.56999999    2.64000010
   14.71000004  102.24500275    0.56999999    2.64000010
   14.71333313   94.41149902    0.55000001    2.64000010
   14.71638870   89.92220306    0.55000001    2.64000010
   14.71972179  100.85900116    0.55000001    2.64000010
   14.72305489   93.03279877    0.55000001    2.64000010
   14.72611046   98.85289764    0.52999997    2.64000010
   14.72944355   98.59220123    0.55000001    2.64000010
   14.73277760   92.56230164    0.52999997    2.64000010
   14.73861122   92.56230164    0.55000001    2.64000010
   14.74277782   99.44319916    0.55000001    2.64000010
   14.74583340   94.19100189    0.56999999    2.64000010
   14.74916649   91.06189728    0.56999999    2.64000010
   14.75249958   91.59329987    0.55000001    2.64000010
   14.75555515  102.01200104    0.56999999    2.64000010
   14.75888920   95.07260132    0.55000001    2.64000010
   14.76222229   92.23120117    0.55000001    2.64000010
   14.76527786  106.33499908    0.55000001    2.66000009
   14.76861095   98.91639709    0.55000001    2.66000009
   14.77111053   96.54440308    0.56999999    2.64000010
   14.77222157  100.99199677    0.56999999    2.64000010
   14.77527714   95.67109680    0.55000001    2.66000009
   14.78138828   95.67109680    0.55000001    2.64000010
   14.78555584   88.85540009    0.55000001    2.64000010
   14.78888893   99.63240051    0.55000001    2.66000009
   14.79194450   99.15260315    0.55000001    2.66000009
   14.79527855   97.17669678    0.55000001    2.66000009
   14.79833412  100.04499817    0.55000001    2.66000009
   14.80166721   97.62660217    0.56999999    2.66000009
   14.80444431  107.32800293    0.55000001    2.66000009
   14.80555534   97.21219635    0.55000001    2.66000009
   14.80861092   99.58390045    0.55000001    2.64000010
   14.81194496  102.26100159    0.55000001    2.66000009
   14.81527805   91.70099640    0.55000001    2.66000009
   14.81833363   82.77649689    0.56999999    2.66000009
   14.82416630   82.77649689    0.55000001    2.66000009
   14.82833290   95.90370178    0.55000001    2.66000009
   14.83166695   92.65070343    0.55000001    2.66000009
   14.83500004   97.92030334    0.55000001    2.66000009
   14.83777714   91.65280151    0.52999997    2.66000009
   14.83861065   91.37799835    0.52999997    2.66000009
   14.84166622   91.94699860    0.55000001    2.64000010
   14.84499931   87.11620331    0.55000001    2.66000009
   14.84805489   88.39009857    0.52999997    2.66000009
   14.85138893   88.12490082    0.52999997    2.66000009
   14.85472298   97.43240356    0.52999997    2.66000009
   14.85777855   92.31770325    0.52999997    2.66000009
   14.86111164   90.86840057    0.52999997    2.66000009
   14.86722279   90.86840057    0.52999997    2.66000009
   14.87111092   96.98780060    0.52999997    2.66000009
   14.87444496   95.12860107    0.56999999    2.66000009
   14.87777805  108.38899994    0.56999999    2.66000009
   14.88083363  100.62999725    0.55000001    2.66000009
   14.88416672  103.60600281    0.55000001    2.66000009
   14.88749981   96.42870331    0.56999999    2.66000009
   14.89055538   99.05660248    0.56999999    2.66000009
   14.89388847  104.73500061    0.56999999    2.66000009
   14.89694405   99.30829620    0.56999999    2.66000009
   14.90027714   98.16069794    0.55000001    2.66000009
   14.90361118  102.31999969    0.55000001    2.66000009
   14.90444374   95.65190125    0.55000001    2.66000009
   14.92527771   95.65190125    0.52999997    2.66000009
   14.92916679   95.68840027    0.52999997    2.66000009
   14.93249989   96.11180115    0.52999997    2.67000008
   14.93583298   97.37570190    0.52999997    2.66000009
   14.93777752  111.26999664    0.52999997    2.66000009
   14.93944454   98.28949738    0.52999997    2.66000009
   14.94250011  103.89800262    0.52999997    2.66000009
   14.94583321  107.79199982    0.52999997    2.66000009
   14.94916630   91.52539825    0.52999997    2.66000009
   14.95222187   90.89140320    0.52999997    2.66000009
   14.95555496   99.22200012    0.51999998    2.66000009
   14.95888901   99.83950043    0.51999998    2.67000008
   14.96194458   99.07579803    0.51999998    2.67000008
   14.96777725   99.07579803    0.51999998    2.67000008
   14.97194386   91.86669922    0.51999998    2.67000008
   14.97527695  105.18599701    0.52999997    2.66000009
   14.97861099   98.84870148    0.51999998    2.66000009
   14.98166656   99.03810120    0.51999998    2.66000009
   14.98500061   99.74220276    0.51999998    2.67000008
   14.98805618  102.98799896    0.51999998    2.66000009
   14.99138927   98.33470154    0.50000000    2.66000009
   14.99472237   98.43450165    0.50000000    2.66000009
   14.99805546   96.60449982    0.51999998    2.66000009
   15.00138855  100.09700012    0.50000000    2.67000008
   15.00444412   97.02970123    0.50000000    2.67000008
   15.00500011   88.26059723    0.50000000    2.67000008
   15.01083374   88.26059723    0.50000000    2.67000008
   15.01472187   93.81670380    0.50000000    2.67000008
   15.01805496   92.50180054    0.50000000    2.67000008
   15.02138901   97.99130249    0.50000000    2.66000009
   15.02444458  101.27999878    0.50000000    2.66000009
   15.02777767   93.95539856    0.50000000    2.67000008
   15.03111076   96.39250183    0.50000000    2.66000009
   15.03416729   92.83989716    0.50000000    2.67000008
   15.03750038   88.49500275    0.50000000    2.67000008
   15.03805637   99.08940125    0.50000000    2.67000008
   15.04111195   90.84989929    0.50000000    2.67000008
   15.04444504   90.14959717    0.50000000    2.67000008
   15.04777813   99.91780090    0.47999999    2.66000009
   15.05361176   99.91780090    0.50000000    2.67000008
   15.05777836  103.66899872    0.50000000    2.67000008
   15.06083393   92.35949707    0.50000000    2.67000008
   15.06416702   89.93720245    0.50000000    2.67000008
   15.06750011   90.17160034    0.50000000    2.67000008
   15.07055569   93.58650208    0.50000000    2.67000008
   15.07138920   99.46109772    0.50000000    2.66000009
   15.07416630   98.19249725    0.50000000    2.67000008
   15.07750034   90.24060059    0.50000000    2.67000008
   15.08083344   96.94219971    0.50000000    2.67000008
   15.08388901  101.85600281    0.50000000    2.66000009
   15.08722210  101.19899750    0.50000000    2.67000008
   15.09055519  104.07199860    0.47999999    2.67000008
   15.09638882  104.07199860    0.50000000    2.67000008
   15.10055637  100.16500092    0.47999999    2.67000008
   15.10388947   92.55960083    0.47999999    2.67000008
   15.10472298   97.02809906    0.47999999    2.67000008
   15.10722256   91.00399780    0.50000000    2.67000008
   15.11055565   96.12840271    0.50000000    2.67000008
   15.11388969   99.46340179    0.50000000    2.67000008
   15.11694431   94.95610046    0.50000000    2.67000008
   15.12027836   93.72830200    0.50000000    2.67000008
   15.12361145   96.65460205    0.50000000    2.67000008
   15.12666702   89.45970154    0.50000000    2.67000008
   15.13000011   97.52130127    0.50000000    2.67000008
   15.13305569   88.73629761    0.50000000    2.67000008
   15.13916683   88.73629761    0.50000000    2.67000008
   15.14333344   87.25469971    0.50000000    2.67000008
   15.14666653   89.41510010    0.51999998    2.67000008
   15.14972210   89.30429840    0.51999998    2.67000008
   15.15305519   87.13240051    0.50000000    2.67000008
   15.15638828   88.00779724    0.50000000    2.67000008
   15.15944386   97.29489899    0.51999998    2.67000008
   15.16277695   89.44509888    0.51999998    2.67000008
   15.16611099   80.19660187    0.50000000    2.67000008
   15.16916656   93.15889740    0.51999998    2.67000008
   15.17138958   87.27349854    0.50000000    2.67000008
   15.17277813   94.67919922    0.50000000    2.67000008
   15.17611122   90.74880219    0.50000000    2.67000008
   15.18222237   90.74880219    0.50000000    2.67000008
   15.18611145   98.07649994    0.50000000    2.67000008
   15.18944454   91.98329926    0.51999998    2.67000008
   15.19277763   92.73079681    0.51999998    2.67000008
   15.19583321   98.95339966    0.51999998    2.67000008
   15.19916630   95.19200134    0.51999998    2.67000008
   15.20249939   92.25959778    0.51999998    2.67000008
   15.20472240   94.44570160    0.51999998    2.67000008
   15.20611095   90.45359802    0.50000000    2.67000008
   15.20916653   95.59010315    0.51999998    2.67000008
   15.21249962   94.34400177    0.51999998    2.67000008
   15.21555519   98.09069824    0.51999998    2.67000008
   15.21888828   99.21759796    0.51999998    2.67000008
   15.22499943   99.21759796    0.52999997    2.67000008
   15.22916603   91.98500061    0.51999998    2.67000008
   15.23222160   92.69699860    0.51999998    2.67000008
   15.23555565   85.11750031    0.52999997    2.67000008
   15.23805618   85.87090302    0.51999998    2.67000008
   15.23944473   80.29489899    0.51999998    2.67000008
   15.24250031  100.53600311    0.51999998    2.67000008
   15.24583340   94.53549957    0.51999998    2.67000008
   15.24888897   87.98999786    0.51999998    2.67000008
   15.25222206   91.16729736    0.50000000    2.67000008
   15.25555515   90.72519684    0.51999998    2.67000008
   15.25888920   86.84950256    0.51999998    2.69000006
   15.26194477   84.76180267    0.51999998    2.67000008
   15.26777744   84.76180267    0.51999998    2.67000008
   15.27194405   88.84739685    0.50000000    2.67000008
   15.27527714   95.01280212    0.50000000    2.67000008
   15.27833271   99.10520172    0.50000000    2.69000006
   15.28166676   93.82510376    0.50000000    2.67000008
   15.28472233   87.65119934    0.47999999    2.69000006
   15.28805637   95.23829651    0.47999999    2.67000008
   15.29138947   95.69969940    0.47999999    2.67000008
   15.29444504  100.87899780    0.47999999    2.67000008
   15.29777813   99.73259735    0.47999999    2.67000008
   15.30111122   86.46250153    0.50000000    2.67000008
   15.30416679   93.77829742    0.50000000    2.67000008
   15.30472279   85.79599762    0.50000000    2.69000006
   15.31055546   85.79599762    0.50000000    2.69000006
   15.31472206   90.30919647    0.50000000    2.67000008
   15.31805515   88.56839752    0.50000000    2.67000008
   15.32138920   97.96410370    0.50000000    2.67000008
   15.32444477   92.19650269    0.50000000    2.67000008
   15.32777786   91.79290009    0.50000000    2.67000008
   15.33083344   93.79859924    0.50000000    2.69000006
   15.33416653   95.08090210    0.50000000    2.69000006
   15.33749962   89.38120270    0.50000000    2.67000008
   15.33805561   99.40509796    0.50000000    2.67000008
   15.34111118   82.81099701    0.50000000    2.67000008
   15.34416676   96.94869995    0.50000000    2.69000006
   15.34749985   87.41970062    0.47999999    2.67000008
   15.35361195   87.41970062    0.47999999    2.69000006
   15.35750008   87.69409943    0.47999999    2.69000006
   15.36083412   92.81259918    0.47999999    2.69000006
   15.36416721   95.30190277    0.47999999    2.69000006
   15.36722279   85.87770081    0.47999999    2.69000006
   15.37055588   85.52400208    0.47999999    2.69000006
   15.37138939   97.23570251    0.47999999    2.69000006
   15.37416649   97.10890198    0.47999999    2.69000006
   15.37750053   94.78880310    0.47999999    2.69000006
   15.38055611   84.10350037    0.47999999    2.69000006
   15.38388920   91.07579803    0.47999999    2.69000006
   15.38694477   87.53060150    0.47999999    2.69000006
   15.39027786   91.02819824    0.47999999    2.67000008
   15.39638901   91.02819824    0.47999999    2.69000006
   15.40055561  100.40899658    0.47999999    2.69000006
   15.40361118   95.54900360    0.47999999    2.69000006
   15.40472221   85.20050049    0.47999999    2.69000006
   15.40749931   88.03250122    0.47999999    2.69000006
   15.41083336   87.67130280    0.47999999    2.69000006
   15.41388893   92.28910065    0.47999999    2.69000006
   15.41722298   91.34880066    0.47999999    2.69000006
   15.42027855   89.78880310    0.47999999    2.69000006
   15.42361164   96.69950104    0.47999999    2.69000006
   15.42694473   86.02660370    0.47999999    2.69000006
   15.43000031   94.39479828    0.47999999    2.69000006
   15.43333340   81.44680023    0.47999999    2.69000006
   15.43916702   81.44680023    0.47999999    2.69000006
   15.44333363   86.14869690    0.47999999    2.69000006
   15.44666672   94.64830017    0.47999999    2.69000006
   15.44972229   87.07170105    0.47999999    2.69000006
   15.45305538   89.79010010    0.47999999    2.69000006
   15.45611095   88.49980164    0.47999999    2.69000006
   15.45944405   96.19170380    0.47999999    2.69000006
   15.46277714   93.94360352    0.47999999    2.67000008
   15.46583271   91.04530334    0.47999999    2.69000006
   15.46916580   84.68830109    0.47999999    2.69000006
   15.47138882   89.42430115    0.47999999    2.69000006
   15.47277737   91.15750122    0.47999999    2.69000006
   15.47611046   90.23310089    0.47999999    2.69000006
   15.48194408   90.23310089    0.46000001    2.69000006
   15.48611164  100.46499634    0.46000001    2.71000004
   15.48944473   91.16780090    0.46000001    2.69000006
   15.49250031  110.44499969    0.46000001    2.69000006
   15.49583340  105.42800140    0.47999999    2.69000006
   15.49916649  109.20800018    0.46000001    2.69000006
   15.50222206  113.62400055    0.46000001    2.69000006
   15.50472260   98.66020203    0.46000001    2.69000006
   15.50611115  114.32399750    0.47999999    2.69000006
   15.50916672  104.52600098    0.47999999    2.71000004
   15.51249981  101.37200165    0.47999999    2.69000006
   15.51583290  118.75000000    0.50000000    2.69000006
   15.51888847  120.00000000    0.50000000    2.69000006
   15.52499962  120.00000000    0.50000000    2.69000006
   15.52888870   79.63150024    0.50000000    2.69000006
   15.53222179  106.22299957    0.47999999    2.69000006
   15.53555584  124.66100311    0.47999999    2.69000006
   15.53805637  118.34999847    0.47999999    2.69000006
   15.53916740  103.48000336    0.47999999    2.69000006
   15.54250050  112.08799744    0.51999998    2.69000006
   15.54555607  116.04100037    0.51999998    2.69000006
   15.54888916   97.37429810    0.51999998    2.69000006
   15.55194473  100.65200043    0.51999998    2.69000006
   15.55527782  103.92400360    0.50000000    2.69000006
   15.55861092  113.76300049    0.50000000    2.69000006
   15.56166649  117.58300018    0.47999999    2.69000006
   15.56777763  117.58300018    0.50000000    2.71000004
   15.57194424  118.57700348    0.52999997    2.69000006
   15.57499981  109.44499969    0.52999997    2.71000004
   15.57833290  107.77100372    0.51999998    2.69000006
   15.58166695  104.65799713    0.51999998    2.69000006
   15.58472157  118.61100006    0.51999998    2.69000006
   15.58805561  117.38500214    0.55000001    2.69000006
   15.59111118  103.54100037    0.55000001    2.71000004
   15.59444427  128.11799622    0.51999998    2.71000004
   15.59777737  119.18000031    0.51999998    2.71000004
   15.60083389  115.88999939    0.51999998    2.69000006
   15.60416698   95.84040070    0.51999998    2.69000006
   15.60472298  120.71299744    0.51999998    2.69000006
   15.61055565  120.71299744    0.51999998    2.69000006
   15.61472225  123.38200378    0.51999998    2.71000004
   15.61805534  114.05100250    0.51999998    2.69000006
   15.62111092  100.55699921    0.50000000    2.69000006
   15.62444496  111.48200226    0.50000000    2.69000006
   15.62750053  117.09300232    0.50000000    2.69000006
   15.63083363  103.66000366    0.50000000    2.69000006
   15.63416672  108.52899933    0.50000000    2.69000006
   15.63722229  130.07800293    0.47999999    2.69000006
   15.63805580  119.51100159    0.47999999    2.69000006
   15.64083290  122.06800079    0.50000000    2.69000006
   15.64416695  104.99600220    0.46000001    2.69000006
   15.64722252  125.29699707    0.46000001    2.69000006
   15.65333271  125.29699707    0.46000001    2.71000004
   15.65749931  104.34799957    0.46000001    2.69000006
   15.66083336  101.92600250    0.46000001    2.69000006
   15.66416645   96.94080353    0.46000001    2.69000006
   15.66722298  103.52600098    0.46000001    2.71000004
   15.67055607  120.88600159    0.47999999    2.69000006
   15.67138958  102.61000061    0.47999999    2.69000006
   15.67416668  130.75199890    0.47999999    2.69000006
   15.67750072  128.99099731    0.47999999    2.69000006
   15.68055630  107.26300049    0.47999999    2.71000004
   15.68388939   98.80670166    0.47999999    2.69000006
   15.68722248   97.07479858    0.47999999    2.69000006
   15.69027805  101.32299805    0.47999999    2.69000006
   15.69638920  101.32299805    0.47999999    2.69000006
   15.70055580   95.58740234    0.47999999    2.69000006
   15.70361137   99.81849670    0.46000001    2.69000006
   15.70472240   99.20339966    0.46000001    2.69000006
   15.70722198  111.93900299    0.46000001    2.69000006
   15.71055508   98.01869965    0.46000001    2.69000006
   15.71361065  101.19899750    0.46000001    2.71000004
   15.71694374   88.90689850    0.46000001    2.69000006
   15.72027779  117.04299927    0.46000001    2.71000004
   15.72333336   97.82569885    0.46000001    2.71000004
   15.72666645  108.66899872    0.46000001    2.71000004
   15.72999954   99.62969971    0.46000001    2.71000004
   15.73305511   99.47910309    0.46000001    2.71000004
   15.73916721   99.47910309    0.46000001    2.71000004
   15.74333382   91.16380310    0.46000001    2.71000004
   15.74638939   96.33879852    0.46000001    2.71000004
   15.74972248   91.55490112    0.46000001    2.71000004
   15.75305557   90.67459869    0.46000001    2.69000006
   15.75611115   92.75559998    0.46000001    2.71000004
   15.75944424   86.58159637    0.46000001    2.71000004
   15.76277733   89.69819641    0.44000000    2.71000004
   15.76583290   84.07939911    0.46000001    2.71000004
   15.76916599  101.19899750    0.44000000    2.71000004
   15.77138901   91.26740265    0.44000000    2.71000004
   15.77277756   88.90039825    0.46000001    2.69000006
   15.77611065   90.22100067    0.46000001    2.71000004
   15.78194427   90.22100067    0.46000001    2.71000004
   15.78611183   91.32379913    0.46000001    2.71000004
   15.78944492  107.40599823    0.46000001    2.71000004
   15.79250050   96.82669830    0.46000001    2.71000004
   15.79583359   99.96700287    0.46000001    2.71000004
   15.79888916   93.62779999    0.46000001    2.71000004
   15.80222225   93.19450378    0.46000001    2.71000004
   15.80472279   91.18299866    0.44000000    2.71000004
   15.80583382   98.04840088    0.44000000    2.71000004
   15.80916691  104.45300293    0.46000001    2.71000004
   15.81222248   94.72339630    0.44000000    2.69000006
   15.81555557   97.18039703    0.44000000    2.71000004
   15.81861115  103.88300323    0.47999999    2.71000004
   15.82472229  103.88300323    0.50000000    2.71000004
   15.82888889  100.52300262    0.47999999    2.71000004
   15.83222198   95.43470001    0.46000001    2.71000004
   15.83527756   98.78469849    0.44000000    2.71000004
   15.83805561   96.92929840    0.46000001    2.71000004
   15.83916664   91.37110138    0.46000001    2.71000004
   15.84249973   93.55400085    0.44000000    2.71000004
   15.84583282   90.97380066    0.44000000    2.71000004
   15.84888840   86.33719635    0.41999999    2.71000004
   15.85222244   94.86940002    0.41999999    2.69000006
   15.85527802   94.47579956    0.44000000    2.71000004
   15.85861111   91.22180176    0.44000000    2.69000006
   15.86194515   84.79740143    0.41999999    2.71000004
   15.86777782   84.79740143    0.41999999    2.71000004
   15.87194443   84.96720123    0.41999999    2.71000004
   15.87500000   93.83950043    0.41999999    2.71000004
   15.87833309   93.01719666    0.41999999    2.71000004
   15.88138866   92.06780243    0.41999999    2.71000004
   15.88472176   96.23950195    0.41999999    2.71000004
   15.88805580   93.32060242    0.41999999    2.71000004
   15.89111137   89.85710144    0.40000001    2.71000004
   15.89444447   92.99389648    0.41999999    2.71000004
   15.89777756   94.95600128    0.41999999    2.71000004
   15.90083313   94.60649872    0.41999999    2.71000004
   15.90416622   93.97380066    0.41999999    2.71000004
   15.90472221   94.03939819    0.41999999    2.71000004
   15.91055489   94.03939819    0.41999999    2.71000004
   15.91472149   87.83319855    0.41999999    2.71000004
   15.91777802   94.62079620    0.41999999    2.71000004
   15.92111111   85.28939819    0.44000000    2.71000004
   15.93888855   90.84609985    0.44000000    2.71000004
   15.94111156   98.03500366    0.41999999    2.71000004
   15.94444466   88.56809998    0.41999999    2.71000004
   15.94750023   97.14600372    0.44000000    2.71000004
   15.95361137   97.14600372    0.44000000    2.71000004
   15.95777798   88.73010254    0.44000000    2.71000004
   15.96083355   91.73909760    0.44000000    2.71000004
   15.96416664   91.99310303    0.44000000    2.71000004
   15.96749973  102.03299713    0.44000000    2.71000004
   15.97055531   90.36150360    0.44000000    2.71000004
   15.97194386   85.12010193    0.44000000    2.71000004
   15.97444439   93.03839874    0.44000000    2.71000004
   15.97749996   91.04910278    0.41999999    2.71000004
   15.98083305   86.50620270    0.41999999    2.71000004
   15.98416710  102.25099945    0.41999999    2.71000004
   15.98722267   91.12889862    0.41999999    2.71000004
   15.99055576   92.81610107    0.40000001    2.71000004
   15.99638939   92.81610107    0.40000001    2.71000004
   16.00055504   87.58529663    0.40000001    2.71000004
   16.00388908   94.47660065    0.40000001    2.71000004
   16.00527763   88.41690063    0.40000001    2.71000004
   16.00749969   82.18820190    0.40000001    2.71000004
   16.01055527   91.52809906    0.40000001    2.71000004
   16.01388931   98.63079834    0.40000001    2.71000004
   16.01722145   96.95929718    0.40000001    2.71000004
   16.02027702   90.08329773    0.41999999    2.71000004
   16.02361107   98.21549988    0.41999999    2.71000004
   16.02694511   91.18800354    0.44000000    2.71000004
   16.03000069   96.14980316    0.41999999    2.71000004
   16.03333282   93.78810120    0.41999999    2.71000004
   16.03916550   93.78810120    0.40000001    2.71000004
   16.04333305   89.34390259    0.41999999    2.71000004
   16.04666710   99.23529816    0.41999999    2.71000004
   16.04972076  100.76399994    0.44000000    2.71000004
   16.05305481   91.29730225    0.40000001    2.71000004
   16.05638885   90.29440308    0.40000001    2.71000004
   16.05944443   92.63089752    0.38000000    2.71000004
   16.06277657   94.86070251    0.38000000    2.71000004
   16.06611061  100.11399841    0.40000001    2.71000004
   16.06916809   98.88339996    0.38000000    2.71000004
   16.07194519   92.72109985    0.38000000    2.71000004
   16.07305717  101.65299988    0.38000000    2.71000004
   16.07611275  101.21299744    0.38000000    2.71000004
   16.08222389  101.21299744    0.40000001    2.71000004
   16.08611107   96.15470123    0.38000000    2.71000004
   16.08944511   92.28029633    0.38000000    2.71000004
   16.09277916   93.87059784    0.38000000    2.71000004
   16.09583473   89.61270142    0.38000000    2.71000004
   16.09916687   92.36139679    0.38000000    2.71000004
   16.10250092   98.02400208    0.38000000    2.71000004
   16.10527802   94.38069916    0.38000000    2.71000004
   16.10611153   88.20980072    0.38000000    2.71000004
   16.10944557   99.80149841    0.36000001    2.71000004
   16.11250114   88.81990051    0.38000000    2.71000004
   16.11583328   94.44149780    0.36000001    2.71000004
   16.11916733   90.73560333    0.38000000    2.71000004
   16.12500000   90.73560333    0.36000001    2.71000004
   16.12916756   95.90209961    0.36000001    2.71000004
   16.13222313  100.74099731    0.38000000    2.71000004
   16.13555527   97.15399933    0.36000001    2.71000004
   16.13861084   92.48380280    0.38000000    2.71000004
   16.13916588   95.82740021    0.36000001    2.71000004
   16.14222145   96.97450256    0.36000001    2.71000004
   16.14555550  100.18499756    0.36000001    2.71000004
   16.14888954   93.77780151    0.36000001    2.71000004
   16.15194321   98.02359772    0.38000000    2.73000002
   16.15527725   88.07550049    0.38000000    2.71000004
   16.15861130   94.98030090    0.36000001    2.71000004
   16.16166687   90.02850342    0.36000001    2.71000004
   16.16777802   90.02850342    0.36000001    2.71000004
   16.17194366   89.14659882    0.38000000    2.71000004
   16.17249870   86.53060150    0.38000000    2.71000004
   16.17555428   99.09470367    0.40000001    2.71000004
   16.17888832   86.87249756    0.40000001    2.71000004
   16.18222237   96.09390259    0.38000000    2.71000004
   16.18527603   93.67040253    0.40000001    2.71000004
   16.18861008   86.82730103    0.38000000    2.71000004
   16.19194412   81.75730133    0.38000000    2.71000004
   16.19499969   91.12339783    0.38000000    2.71000004
   16.19833183   85.94560242    0.38000000    2.73000002
   16.20166779   87.88729858    0.38000000    2.71000004
   16.20472336   92.39080048    0.36000001    2.71000004
   16.20527840   88.31199646    0.36000001    2.71000004
   16.21055603   88.31199646    0.38000000    2.71000004
   16.21472359   88.43679810    0.38000000    2.71000004
   16.21805573   83.64160156    0.40000001    2.71000004
   16.22111130   84.21019745    0.40000001    2.71000004
   16.22444534   86.92169952    0.40000001    2.71000004
   16.22777748   83.93630219    0.38000000    2.71000004
   16.23083305   91.01080322    0.40000001    2.71000004
   16.23416710   87.60880280    0.38000000    2.71000004
   16.23722267   87.53029633    0.38000000    2.71000004
   16.23861122   87.51419830    0.38000000    2.71000004
   16.24111176   84.72609711    0.40000001    2.73000002
   16.24416733   90.21260071    0.40000001    2.71000004
   16.24749947   83.04869843    0.38000000    2.71000004
   16.25361061   83.04869843    0.40000001    2.71000004
   16.25749969   91.10099792    0.40000001    2.71000004
   16.26083374   94.78140259    0.40000001    2.71000004
   16.26416588   90.01339722    0.38000000    2.71000004
   16.26722145   93.73609924    0.36000001    2.71000004
   16.27055550   92.90419769    0.36000001    2.71000004
   16.27194405   89.72350311    0.38000000    2.71000004
   16.27416611   93.75920105    0.38000000    2.71000004
   16.27750015   95.67359924    0.36000001    2.71000004
   16.28055573   91.44650269    0.36000001    2.71000004
   16.28388786   94.47869873    0.36000001    2.71000004
   16.28694344   88.56079865    0.36000001    2.71000004
   16.29027748   92.83380127    0.38000000    2.71000004
   16.29638863   92.83380127    0.38000000    2.71000004
   16.30055428   94.08070374    0.38000000    2.71000004
   16.30360985   96.93309784    0.38000000    2.71000004
   16.30527687   95.26629639    0.38000000    2.71000004
   16.30722237   96.54039764    0.38000000    2.71000004
   16.31055450   95.83190155    0.38000000    2.73000002
   16.31361008   94.12840271    0.38000000    2.73000002
   16.31694603   96.65299988    0.40000001    2.71000004
   16.32000160   85.20120239    0.38000000    2.71000004
   16.32333374   91.72450256    0.40000001    2.71000004
   16.32666779   89.47830200    0.36000001    2.71000004
   16.32972336   99.80850220    0.36000001    2.71000004
   16.33305550   91.84249878    0.36000001    2.71000004
   16.33916664   91.84249878    0.36000001    2.73000002
   16.34333420   91.90460205    0.36000001    2.71000004
   16.34638977   94.62159729    0.34000000    2.71000004
   16.34972191   97.02020264    0.36000001    2.71000004
   16.35305595   95.28070068    0.34000000    2.71000004
   16.35611153  102.91999817    0.36000001    2.71000004
   16.35944557   95.02169800    0.34000000    2.71000004
   16.36277771   87.56559753    0.34000000    2.71000004
   16.36583328   88.32099915    0.34000000    2.71000004
   16.36916733   88.71399689    0.34000000    2.73000002
   16.37194443   92.81369781    0.36000001    2.71000004
   16.37277794   96.92050171    0.36000001    2.71000004
   16.37611198   81.73529816    0.36000001    2.71000004
   16.38194466   81.73529816    0.36000001    2.71000004
   16.38611031   93.49810028    0.36000001    2.71000004
   16.38944435   92.97579956    0.36000001    2.71000004
   16.39249992   91.27189636    0.38000000    2.71000004
   16.39583397   90.89379883    0.38000000    2.71000004
   16.39916611   89.21700287    0.36000001    2.73000002
   16.40222168   83.19830322    0.36000001    2.71000004
   16.40527725   93.57209778    0.36000001    2.71000004
   16.40583229   85.80190277    0.36000001    2.71000004
   16.40916634   90.62850189    0.36000001    2.71000004
   16.41222191   91.41329956    0.41999999    2.71000004
   16.41555595   97.19950104    0.40000001    2.71000004
   16.41860962   93.73699951    0.41999999    2.73000002
   16.42472076   93.73699951    0.38000000    2.71000004
   16.42888832   92.21990204    0.38000000    2.71000004
   16.43222237   91.48280334    0.38000000    2.71000004
   16.43555450   89.49739838    0.41999999    2.71000004
   16.43861008   94.69640350    0.41999999    2.71000004
   16.43916512   94.49150085    0.41999999    2.71000004
   16.44249916   89.50319672    0.40000001    2.71000004
   16.44555473   83.47329712    0.40000001    2.71000004
   16.44888878   98.76149750    0.40000001    2.73000002
   16.45194435   89.14600372    0.40000001    2.73000002
   16.45527840  100.09799957    0.40000001    2.71000004
   16.45861244   92.32939911    0.38000000    2.71000004
   16.46166801   87.21479797    0.38000000    2.71000004
   16.46777916   87.21479797    0.38000000    2.73000002
   16.47194481   90.91290283    0.36000001    2.71000004
   16.47249985   87.83090210    0.36000001    2.71000004
   16.47555542   86.32620239    0.38000000    2.71000004
   16.47888947   92.28079987    0.38000000    2.71000004
   16.48194504   92.10780334    0.40000001    2.73000002
   16.48527718   92.15470123    0.40000001    2.71000004
   16.48861122   90.47440338    0.40000001    2.71000004
   16.49166679   96.02179718    0.38000000    2.71000004
   16.49500084   97.66000366    0.40000001    2.71000004
   16.49833298   96.18869781    0.36000001    2.71000004
   16.50138855   95.63569641    0.36000001    2.71000004
   16.50472260   90.49579620    0.36000001    2.71000004
   16.50583267   91.41580200    0.38000000    2.71000004
   16.51055527   91.41580200    0.36000001    2.71000004
   16.51472282   87.82980347    0.36000001    2.71000004
   16.51777840   95.16760254    0.38000000    2.71000004
   16.52111053   90.59179688    0.40000001    2.71000004
   16.52444458   95.64689636    0.40000001    2.71000004
   16.52777672   91.54550171    0.41999999    2.73000002
   16.53083229   84.09310150    0.40000001    2.73000002
   16.53416634   93.81900024    0.41999999    2.71000004
   16.53722191   97.95040131    0.41999999    2.71000004
   16.53916550   91.43399811    0.41999999    2.71000004
   16.54083252   91.49600220    0.41999999    2.71000004
   16.54416656   92.48320007    0.41999999    2.71000004
   16.54749870   79.89369965    0.41999999    2.71000004
   16.55333328   79.89369965    0.40000001    2.71000004
   16.55749893   87.04049683    0.40000001    2.71000004
   16.56083298   95.62539673    0.38000000    2.71000004
   16.56388855   92.28189850    0.40000001    2.71000004
   16.56722260   93.69779968    0.36000001    2.71000004
   16.57055664   90.27169800    0.38000000    2.71000004
   16.57250023   96.26460266    0.36000001    2.71000004
   16.57389069   97.65419769    0.36000001    2.71000004
   16.57722282   96.02960205    0.38000000    2.73000002
   16.58027840   95.14409637    0.38000000    2.71000004
   16.58361244   91.09190369    0.38000000    2.71000004
   16.58694458   91.87809753    0.38000000    2.71000004
   16.59000015   92.73809814    0.36000001    2.71000004
   16.59611130   92.73809814    0.36000001    2.71000004
   16.60027885  101.31600189    0.38000000    2.71000004
   16.60361099   84.20700073    0.36000001    2.71000004
   16.60583305   96.88410187    0.34000000    2.71000004
   16.60722351   99.87920380    0.34000000    2.71000004
   16.61055565   96.41210175    0.36000001    2.71000004
   16.61388969   93.50839996    0.36000001    2.71000004
   16.61694527  104.40599823    0.34000000    2.71000004
   16.62027740   96.91369629    0.34000000    2.71000004
   16.62333298  102.52999878    0.36000001    2.73000002
   16.62666702  101.95999908    0.36000001    2.73000002
   16.63000107  102.16899872    0.34000000    2.71000004
   16.63305473   92.73229980    0.47999999    2.71000004
   16.63916588   92.73229980    0.46000001    2.71000004
   16.64333344   99.55780029    0.38000000    2.71000004
   16.64638901   94.39659882    0.36000001    2.71000004
   16.64972115   92.21630096    0.38000000    2.71000004
   16.65277672   97.05390167    0.40000001    2.71000004
   16.65611076   94.90709686    0.46000001    2.73000002
   16.65944481   90.40660095    0.51999998    2.73000002
   16.66250038   96.76229858    0.52999997    2.71000004
   16.66583252   92.89309692    0.55000001    2.71000004
   16.66916656   94.13610077    0.56999999    2.71000004
   16.67222214   89.73930359    0.50000000    2.71000004
   16.67416573   95.33850098    0.47999999    2.71000004
   16.67611122   94.26349640    0.50000000    2.71000004
   16.68194389   94.26349640    0.47999999    2.71000004
   16.68610954   92.76090240    0.40000001    2.71000004
   16.68916512   88.22630310    0.38000000    2.71000004
   16.69249916   93.16889954    0.34000000    2.71000004
   16.69583321   92.78170013    0.34000000    2.71000004
   16.69888878   90.54000092    0.34000000    2.71000004
   16.70222282   95.58519745    0.34000000    2.73000002
   16.70555687   91.50299835    0.36000001    2.71000004
   16.70750046   90.96790314    0.36000001    2.71000004
   16.70916748   89.20079803    0.36000001    2.71000004
   16.71222305   94.58380127    0.36000001    2.73000002
   16.71555710  104.44599915    0.36000001    2.73000002
   16.71861076   90.91560364    0.41999999    2.71000004
   16.72472191   90.91560364    1.38000000    2.73000002
   16.72888947  113.78800201    1.64999998    2.73000002
   16.73222351   96.21469879    3.91000009    2.64000010
   16.73527718   93.45619965    4.90999985    2.61999989
   16.73861122   96.03230286    4.90999985    2.64000010
   16.74111176   94.64849854    4.90999985    2.67000008
   16.74222183   87.89369965    4.90999985    2.67000008
   16.74555588   87.79209900    4.90999985    2.66000009
   16.74888992  110.36100006    4.90999985    2.71000004
   16.75194359   93.78359985    4.90999985    2.67000008
   16.75527763   94.11160278    4.90999985    2.71000004
   16.75833321   96.94300079    4.90999985    2.73000002
   16.76166725   94.02739716    4.90999985    2.69000006
   16.76749992   94.02739716    4.90999985    2.71000004
   16.77166557   91.54820251    4.90999985    2.73000002
   16.77444458   94.43599701    4.90999985    2.73000002
   16.77527809   89.21230316    4.90999985    2.73000002
   16.77861023   93.08149719    4.90999985    2.73000002
   16.78194427   95.52159882    2.94000006    2.73000002
   16.78499985  104.36499786    3.34999990    2.71000004
   16.78833199   89.05970001    4.90999985    2.73000002
   16.79138756   88.69390106    4.90999985    2.71000004
   16.79472160  110.15100098    4.90999985    2.69000006
   16.79805565   99.21160126    4.90999985    2.61999989
   16.80111122   87.39240265    4.90999985    2.64000010
   16.80444336   98.34529877    4.90999985    2.73000002
   16.81055450   98.34529877    2.86999989    2.73000002
   16.81472206   96.72229767    2.15000010    2.73000002
   16.81777954   91.89430237    1.73000002    2.73000002
   16.82111168   99.00579834    1.66999996    2.71000004
   16.82416725   88.39920044    1.21000004    2.71000004
   16.82750130   87.81929779    1.11000001    2.73000002
   16.83083344   93.44450378    1.38000000    2.73000002
   16.83388901   82.06950378    2.07999992    2.73000002
   16.83722305   95.05930328    2.28999996    2.73000002
   16.84055710   92.77780151    2.51999998    2.73000002
   16.84138870   89.87650299    2.71000004    2.73000002
   16.84416771   96.82800293    1.21000004    2.73000002
   16.84722328   82.23069763    0.47999999    2.73000002
   16.85333443   82.23069763    0.79000002    2.73000002
   16.85750008   93.32270050    1.23000002    2.73000002
   16.86083412  101.20999908    1.71000004    2.73000002
   16.86388969   94.02960205    1.94000006    2.73000002
   16.86722183  101.42800140    1.94000006    2.73000002
   16.87055588  100.77999878    2.19000006    2.73000002
   16.87361145   94.36119843    4.90999985    2.69000006
   16.87472153  105.73600006    4.90999985    2.69000006
   16.87750053  103.73699951    4.90999985    2.57999992
   16.88055611  112.66200256    4.90999985    2.36999989
   16.88388824  119.94200134    4.90999985    2.40000010
   16.88722229  113.80200195    4.90999985    2.28999996
   16.89027786   96.09089661    4.90999985    2.32999992
   16.89611053   96.09089661    4.90999985    2.51999998
   16.90027809   91.56960297    4.90999985    2.73000002
   16.90361023   96.15339661    4.90999985    2.67000008
   16.90666580   94.26039886    4.90999985    2.73000002
   16.90833282   95.51719666    4.90999985    2.75000000
   16.91027832   94.71530151    4.90999985    2.75000000
   16.91361046   94.10489655    4.90999985    2.73000002
   16.91694450   90.48950195    4.90999985    2.73000002
   16.92000008   96.35240173    3.16000009    2.71000004
   16.92333221   92.18180084    4.90999985    2.71000004
   16.92638779   96.09239960    4.90999985    2.69000006
   16.92972183  103.91500092    4.90999985    2.67000008
   16.93305397  108.03099823    4.90999985    2.59999990
   16.93888855  108.03099823    4.90999985    2.67000008
   16.95750046   93.62650299    4.90999985    2.64000010
   16.96055603  104.39600372    4.90999985    2.66000009
   16.96389008   96.36750031    4.90999985    2.66000009
   16.96722221   92.71340179    4.09999990    2.69000006
   16.97027779   97.65450287    3.23000002    2.69000006
   16.97361183   91.35459900    4.26999998    2.69000006
   16.97666740   89.52300262    4.90999985    2.73000002
   16.98222351   89.52300262    4.90999985    2.67000008
   16.98611069  108.41100311    4.90999985    2.57999992
   16.98944473  104.24700165    4.90999985    2.57999992
   16.99055672  103.81800079    4.90999985    2.55999994
   16.99305534  115.18299866    4.90999985    2.44000006
   16.99638939  106.41799927    4.90999985    2.44000006
   16.99972153  117.56600189    4.90999985    2.50000000
   17.00277710  125.57599640    4.90999985    2.46000004
   17.00611115  125.16500092    4.90999985    2.34999990
   17.00916672  272.38699341    4.90999985    2.25000000
   17.01250076  203.72900391    4.90999985    2.01999998
   17.01583290  147.98100281    4.90999985    2.09999990
   17.01888847  142.91099548    4.90999985    2.30999994
   17.02499962  142.91099548    4.90999985    2.17000008
   17.02916718  101.85600281    4.90999985    2.59999990
   17.03222275  129.07499695    4.90999985    2.48000002
   17.03555489  169.39799500    4.90999985    2.25000000
   17.03888893  161.13999939    4.90999985    2.17000008
   17.04194450  136.02999878    4.90999985    2.15000010
   17.04527664  108.07199860    4.90999985    2.39000010
   17.04833221  102.59799957    4.90999985    2.59999990
   17.05166626  121.09799957    4.90999985    2.59999990
   17.05499840   96.73629761    4.90999985    2.48000002
   17.05722237  102.99099731    4.90999985    2.71000004
   17.05833244   97.80049896    4.90999985    2.71000004
   17.06166649  101.59600067    4.90999985    2.64000010
   17.06777954  101.59600067    4.90999985    2.75000000
   17.07194519  102.13300323    4.90999985    2.75000000
   17.07527924  103.81900024    4.90999985    2.69000006
   17.07833481   96.72540283    4.90999985    2.69000006
   17.08166695  102.26799774    4.90999985    2.67000008
   17.08472252  105.47399902    4.90999985    2.64000010
   17.08805656  109.69100189    4.90999985    2.69000006
   17.09055710  100.40000153    4.90999985    2.69000006
   17.09166718  102.26499939    4.90999985    2.71000004
   17.09500122  105.44200134    4.90999985    2.67000008
   17.09833336  101.81099701    4.90999985    2.71000004
   17.10138893  106.44799805    4.90999985    2.69000006
   17.10472298  123.63600159    4.90999985    2.69000006
   17.11055565  123.63600159    4.90999985    2.67000008
   17.11472321  112.09200287    4.90999985    2.67000008
   17.11805534  153.94500732    4.90999985    2.66000009
   17.12138939  112.54399872    4.90999985    2.61999989
   17.12388992  114.69300079    4.90999985    2.73000002
   17.12472153  113.95500183    4.90999985    2.69000006
   17.12805557  106.02500153    4.53999996    2.69000006
   17.13138962  104.88999939    1.44000006    2.71000004
   17.13444519  105.29100037    0.73000002    2.71000004
   17.13777733  105.36799622    0.46000001    2.71000004
   17.14111137   98.28459930    0.41999999    2.71000004
   17.14416695   98.25769806    0.40000001    2.71000004
   17.14749908   99.71720123    0.38000000    2.71000004
   17.15361023   99.71720123    0.40000001    2.71000004
   17.15749931  114.44200134    0.40000001    2.71000004
   17.16083336  113.31700134    0.41999999    2.73000002
   17.16416550  122.66400146    0.41999999    2.71000004
   17.16722107  103.02600098    0.44000000    2.71000004
   17.17055511  103.37500000    0.47999999    2.71000004
   17.17388916  110.08999634    0.67000002    2.71000004
   17.17694473   99.95970154    1.01999998    2.71000004
   17.18027687  116.27999878    1.88000000    2.71000004
   17.18333244  107.90299988    2.32999992    2.71000004
   17.18666649   94.33409882    2.25000000    2.71000004
   17.18999863  110.68199921    1.23000002    2.71000004
   17.19055557   93.06559753    1.23000002    2.71000004
   17.19638824   93.06559753    0.40000001    2.71000004
   17.20055580   93.13459778    0.40000001    2.71000004
   17.20361137   98.31050110    0.41999999    2.71000004
   17.20694542   94.32460022    0.46000001    2.71000004
   17.21027946  100.60299683    0.52999997    2.71000004
   17.21333504  103.49199677    0.73000002    2.71000004
   17.21666718   94.21040344    0.75000000    2.71000004
   17.22000122   98.18730164    0.52999997    2.71000004
   17.22305679   97.96240234    0.41999999    2.71000004
   17.22389030  108.25599670    0.41999999    2.71000004
   17.22666740  104.31700134    0.41999999    2.71000004
   17.23000145  104.10299683    0.41999999    2.71000004
   17.23333359  106.48100281    0.40000001    2.71000004
   17.23916626  106.48100281    0.40000001    2.71000004
   17.24333382  104.00499725    0.38000000    2.73000002
   17.24666786  107.15599823    0.38000000    2.71000004
   17.24972153  108.24700165    0.38000000    2.71000004
   17.25305557  103.39700317    0.38000000    2.71000004
   17.25638962  100.01899719    0.40000001    2.71000004
   17.25722313  100.15599823    0.40000001    2.71000004
   17.25972176  109.79599762    0.40000001    2.71000004
   17.26305580  107.88200378    0.41999999    2.71000004
   17.26638794  100.76499939    0.41999999    2.71000004
   17.26944351  107.90100098    0.38000000    2.71000004
   17.27277756  104.16400146    0.38000000    2.71000004
   17.27611160  110.04199982    0.38000000    2.71000004
   17.28194427  110.04199982    0.38000000    2.71000004
   17.28610992  100.16000366    0.38000000    2.71000004
   17.28944397  112.55899811    0.40000001    2.71000004
   17.29055595   93.49320221    0.38000000    2.71000004
   17.29277802   94.32810211    0.38000000    2.71000004
   17.29611015   97.08750153    0.38000000    2.71000004
   17.29944420   95.16100311    0.38000000    2.71000004
   17.30249977   98.50279999    0.40000001    2.71000004
   17.30583191  104.49500275    0.86000001    2.71000004
   17.30916595   98.73629761    1.00000000    2.71000004
   17.31222153   95.50569916    1.01999998    2.71000004
   17.31555557   99.53730011    0.81999999    2.69000006
   17.31861115   99.09269714    0.95999998    2.69000006
   17.32500076   99.09269714    1.23000002    2.71000004
   17.32916832   92.11990356    0.46000001    2.71000004
   17.33222389  102.19899750    0.40000001    2.71000004
   17.33555603  100.41899872    0.40000001    2.71000004
   17.33889008   90.54519653    0.40000001    2.71000004
   17.34194565   99.67340088    0.40000001    2.71000004
   17.34527779  101.19699860    0.52999997    2.71000004
   17.34833336  104.99500275    0.58999997    2.71000004
   17.35166740   91.06199646    0.61000001    2.71000004
   17.35499954   92.10310364    0.86000001    2.71000004
   17.35722351  101.14299774    1.19000006    2.71000004
   17.35833359  103.17700195    1.09000003    2.71000004
   17.36166763   98.38110352    0.92000002    2.64000010
   17.36777878   98.38110352    2.15000010    2.71000004
   17.37194443  105.23100281    0.56999999    2.71000004
   17.37500000  102.33599854    0.46000001    2.71000004
   17.37833405  101.33599854    0.46000001    2.71000004
   17.38166618   94.06189728    0.46000001    2.71000004
   17.38472176   97.64170074    0.46000001    2.71000004
   17.38805580  101.28099823    0.47999999    2.69000006
   17.39055634  102.56999969    0.46000001    2.71000004
   17.39138794  105.47599792    0.46000001    2.71000004
   17.39472198   89.94069672    0.41999999    2.71000004
   17.39805603   98.20200348    0.41999999    2.71000004
   17.40111160   98.92520142    0.41999999    2.71000004
   17.40444374   87.07589722    0.40000001    2.71000004
   17.41055489   87.07589722    0.40000001    2.71000004
   17.41472244   95.89140320    0.76999998    2.71000004
   17.41805458  100.15599823    0.79000002    2.71000004
   17.42111015   92.24720001    0.55000001    2.71000004
   17.42388916   97.53240204    0.51999998    2.71000004
   17.42472076   90.85079956    0.52999997    2.69000006
   17.42805481   98.52449799    0.52999997    2.69000006
   17.43138885   90.11810303    0.41999999    2.71000004
   17.43444443   91.94599915    0.40000001    2.71000004
   17.43777657   85.27330017    0.38000000    2.71000004
   17.44111061  102.41000366    0.40000001    2.71000004
   17.44416618   91.91149902    0.40000001    2.71000004
   17.44749832   96.80870056    0.38000000    2.71000004
   17.45333481   96.80870056    0.64999998    2.71000004
   17.45750046  100.77700043    0.73000002    2.67000008
   17.46083450   92.83219910    0.76999998    2.67000008
   17.46416664   99.21890259    1.13000000    2.69000006
   17.46722221   92.92259979    1.00000000    2.71000004
   17.47055626   98.61270142    0.88000000    2.69000006
   17.47389030   95.06300354    1.13000000    2.69000006
   17.47694588   99.02819824    1.39999998    2.71000004
   17.48027802   89.69159698    1.21000004    2.71000004
   17.48333359   85.24710083    1.11000001    2.71000004
   17.48666763   95.53690338    0.46000001    2.71000004
   17.48999977   91.59960175    0.46000001    2.71000004
   17.49055672   98.84909821    0.46000001    2.71000004
   17.49638939   98.84909821    0.52999997    2.71000004
   17.50027847  102.37999725    0.73000002    2.71000004
   17.50361061   97.94020081    0.64999998    2.71000004
   17.50694466  100.42199707    0.63000000    2.71000004
   17.51000023   96.34590149    0.50000000    2.71000004
   17.51333427  103.99299622    0.47999999    2.71000004
   17.51666641  107.66500092    0.56999999    2.69000006
   17.51972198   98.48269653    0.70999998    2.71000004
   17.52305603  104.30799866    0.75000000    2.69000006
   17.52388954  111.63899994    0.75000000    2.69000006
   17.52666664  115.95400238    1.28999996    2.71000004
   17.52972221  111.65200043    1.44000006    2.71000004
   17.53305435   97.45880127    1.51999998    2.71000004
   17.53916550   97.45880127    3.39000010    2.73000002
   17.54333305  119.68299866    4.57999992    2.71000004
   17.54638863  130.70199585    4.90999985    2.53999996
   17.54972076  105.20700073    4.90999985    2.57999992
   17.55305481   96.40889740    4.90999985    2.73000002
   17.55611038  110.99199677    4.90999985    2.71000004
   17.55722237  112.23500061    4.90999985    2.71000004
   17.55999947  110.26899719    4.53000021    2.69000006
   17.56305504  103.73300171    4.90999985    2.71000004
   17.56638718  101.37100220    3.59999990    2.71000004
   17.56944466  115.62300110    2.32999992    2.71000004
   17.57277870  122.81500244    2.32999992    2.69000006
   17.57611275  105.24299622    2.67000008    2.66000009
   17.58194542  105.24299622    4.90999985    2.71000004
   17.58611107   99.08920288    1.41999996    2.71000004
   17.58944511   94.70439911    0.41999999    2.71000004
   17.59055710  104.14700317    0.41999999    2.71000004
   17.59305573   96.62529755    0.40000001    2.69000006
   17.59611130  114.19599915    0.41999999    2.71000004
   17.59944534  106.85900116    0.44000000    2.71000004
   17.60250092  116.16200256    0.44000000    2.71000004
   17.60583305  117.42800140    0.44000000    2.71000004
   17.60916710  104.97000122    0.44000000    2.71000004
   17.61222267  112.52899933    0.44000000    2.71000004
   17.61555672   96.69989777    0.44000000    2.71000004
   17.61888885   80.18170166    0.44000000    2.71000004
   17.62472153   80.18170166    0.52999997    2.71000004
   17.62888908  100.77300262    0.47999999    2.69000006
   17.63222313   90.16120148    0.50000000    2.71000004
   17.63527679   92.89209747    0.46000001    2.69000006
   17.63861084   90.20629883    0.47999999    2.71000004
   17.64194489   99.22669983    0.51999998    2.71000004
   17.64500046   93.87229919    0.56999999    2.71000004
   17.64833260   90.42800140    0.94000000    2.71000004
   17.65166664  104.05699921    0.95999998    2.71000004
   17.65472221  101.77500153    0.58999997    2.71000004
   17.65722275   99.58580017    0.56999999    2.71000004
   17.65861130  100.25599670    0.51999998    2.71000004
   17.66166687  102.70300293    0.47999999    2.71000004
   17.66777802  102.70300293    0.41999999    2.69000006
   17.67166519   95.20549774    0.41999999    2.71000004
   17.67499924   99.61949921    0.41999999    2.71000004
   17.67833328   94.85970306    0.41999999    2.71000004
   17.68138885  111.86199951    0.41999999    2.71000004
   17.68472099  108.03099823    0.41999999    2.71000004
   17.68805504  104.71299744    0.41999999    2.71000004
   17.69055557   96.35119629    0.44000000    2.71000004
   17.69166565   96.87490082    0.44000000    2.71000004
   17.69472122  106.54699707    0.44000000    2.71000004
   17.69805527  107.66000366    0.46000001    2.71000004
   17.70138931  102.89199829    0.50000000    2.69000006
   17.70444489   89.43319702    0.51999998    2.69000006
   17.71055603   89.43319702    0.64999998    2.71000004
   17.71472359   99.34049988    0.44000000    2.71000004
   17.71777916  100.86599731    0.41999999    2.69000006
   17.72111130   97.43139648    0.41999999    2.71000004
   17.72389030   96.04550171    0.41999999    2.71000004
   17.72472191  110.70700073    0.41999999    2.71000004
   17.72777748  101.95800018    0.41999999    2.71000004
   17.73111153  106.22200012    0.41999999    2.71000004
   17.73416710   98.02619934    0.41999999    2.69000006
   17.73750114  100.57399750    0.41999999    2.71000004
   17.74083328   98.04679871    0.40000001    2.69000006
   17.74388885  104.37999725    0.40000001    2.69000006
   17.74722290  102.06600189    0.41999999    2.69000006
   17.75333405  102.06600189    0.41999999    2.71000004
   17.75749969  103.10600281    0.41999999    2.69000006
   17.76083374   98.93789673    0.41999999    2.69000006
   17.76388931   98.63379669    0.41999999    2.71000004
   17.76722145  106.09400177    0.41999999    2.69000006
   17.77055550  102.87100220    0.41999999    2.71000004
   17.77361107  111.12699890    0.41999999    2.71000004
   17.77694511  107.54499817    0.44000000    2.71000004
   17.78000069   97.81710052    0.44000000    2.69000006
   17.78333282  102.18900299    0.41999999    2.69000006
   17.78666687   87.54299927    0.41999999    2.71000004
   17.78972244   92.77519989    0.41999999    2.71000004
   17.79055595  100.66699982    0.41999999    2.71000004
   17.79611015  100.66699982    0.41999999    2.69000006
   17.80027771   97.71420288    0.41999999    2.71000004
   17.80360985   92.32360077    0.41999999    2.69000006
   17.80694389   92.85579681    0.41999999    2.69000006
   17.80999947   91.83789825    0.41999999    2.69000006
   17.81333351   92.64450073    0.41999999    2.69000006
   17.81638718   88.48229980    0.50000000    2.69000006
   17.81972313  104.94799805    0.50000000    2.71000004
   17.82305717   86.72660065    0.46000001    2.69000006
   17.82389069  101.90000153    0.46000001    2.69000006
   17.82666779   94.87629700    0.47999999    2.71000004
   17.82972336   94.55380249    0.47999999    2.71000004
   17.83305550   94.26799774    0.47999999    2.71000004
   17.83916664   94.26799774    0.40000001    2.69000006
   17.84305573   95.78620148    0.40000001    2.69000006
   17.84638977  101.98000336    0.40000001    2.69000006
   17.84972191   95.91269684    0.40000001    2.69000006
   17.85277748   92.08290100    0.40000001    2.69000006
   17.85611153   90.88310242    0.40000001    2.71000004
   17.85722351  100.42700195    0.40000001    2.69000006
   17.85972214   81.42859650    0.40000001    2.71000004
   17.86277771   90.55419922    0.40000001    2.71000004
   17.86611176  103.26899719    0.40000001    2.71000004
   17.86944389   91.52210236    0.40000001    2.69000006
   17.87249947   82.17659760    0.40000001    2.69000006
   17.87583351   87.52580261    0.40000001    2.69000006
   17.88194466   87.52580261    0.40000001    2.69000006
   17.88611031   88.45240021    0.40000001    2.69000006
   17.88916588   87.06040192    0.40000001    2.69000006
   17.89055634   92.24009705    0.40000001    2.69000006
   17.89305496   91.47959900    0.40000001    2.69000006
   17.89611053   96.31719971    0.40000001    2.71000004
   17.89944458   87.73229980    0.40000001    2.69000006
   17.90277672   82.22760010    0.40000001    2.69000006
   17.90583229   94.32129669    0.40000001    2.69000006
   17.90916634   92.93869781    0.41999999    2.69000006
   17.91250038   94.83450317    0.40000001    2.69000006
   17.91555595   93.49900055    0.40000001    2.69000006
   17.91888809   86.24130249    0.40000001    2.69000006
   17.92472076   86.24130249    0.40000001    2.69000006
   17.92888832   91.15139771    0.40000001    2.69000006
   17.93194389   96.43409729    0.41999999    2.69000006
   17.93527603   87.78839874    0.40000001    2.69000006
   17.93861008   94.70839691    0.41999999    2.71000004
   17.94166565   84.66609955    0.41999999    2.69000006
   17.94499969   91.39849854    0.41999999    2.71000004
   17.94833183   89.03839874    0.40000001    2.69000006
   17.95138931   85.42559814    0.40000001    2.69000006
   17.95472336   91.30149841    0.40000001    2.69000006
   17.95722389   87.52230072    0.40000001    2.69000006
   17.97777748   87.52230072    0.40000001    2.69000006
   17.98194504   94.76480103    0.40000001    2.69000006
   17.98527718   90.58170319    0.41999999    2.69000006
   17.98861122   94.93630219    0.40000001    2.69000006
   17.99055672   94.47119904    0.40000001    2.69000006
   17.99222183   84.26010132    0.40000001    2.69000006
   17.99555588   96.24349976    0.40000001    2.69000006
   17.99861145   92.45919800    0.40000001    2.69000006
   18.00194359   97.08540344    0.41999999    2.69000006
   18.00527763   87.94069672    0.40000001    2.69000006
   18.00833321   92.42839813    0.41999999    2.69000006
   18.01166725   98.93019867    0.41999999    2.69000006
   18.01472282  101.54699707    0.41999999    2.69000006
   18.02055550  101.54699707    0.41999999    2.69000006
   18.02472115   83.98880005    0.41999999    2.69000006
   18.02805519   89.47000122    0.41999999    2.69000006
   18.03138924   92.82839966    0.41999999    2.69000006
   18.03472137   97.11190033    0.41999999    2.69000006
   18.03777695   88.18129730    0.41999999    2.69000006
   18.04111099   90.79850006    0.41999999    2.69000006
   18.04444313   94.85800171    0.41999999    2.69000006
   18.04749870  102.47399902    0.41999999    2.69000006
   18.05083275   83.69609833    0.44000000    2.69000006
   18.05388832   86.14109802    0.41999999    2.69000006
   18.05722237   89.91750336    0.41999999    2.69000006
   18.05777740   96.78009796    0.41999999    2.69000006
   18.06361008   96.78009796    0.41999999    2.69000006
   18.06750107   88.55650330    0.41999999    2.69000006
   18.07083511   82.35330200    0.41999999    2.69000006
   18.07416725   82.02279663    0.44000000    2.69000006
   18.07722282   85.21779633    0.44000000    2.69000006
   18.08055687   79.89689636    0.44000000    2.69000006
   18.08388901   77.89119720    0.44000000    2.69000006
   18.08694458   98.70510101    0.44000000    2.69000006
   18.09027863   81.42579651    0.44000000    2.69000006
   18.09083366   90.15200043    0.44000000    2.69000006
   18.09416771   89.18599701    0.44000000    2.69000006
   18.09722328   86.34570313    0.44000000    2.69000006
   18.10055542   90.46029663    0.44000000    2.69000006
   18.10639000   90.46029663    0.44000000    2.69000006
   18.11055565   84.31580353    0.44000000    2.69000006
   18.11361122   96.37609863    0.44000000    2.69000006
   18.11694527   93.16400146    0.44000000    2.69000006
   18.12000084   90.70809937    0.44000000    2.69000006
   18.12333298   91.69650269    0.44000000    2.69000006
   18.12416649   97.36949921    0.44000000    2.69000006
   18.12722206   96.02629852    0.44000000    2.69000006
   18.13027763   89.26470184    0.44000000    2.69000006
   18.13361168   87.78630066    0.44000000    2.69000006
   18.13666725   86.70980072    0.44000000    2.69000006
   18.13999939   89.67299652    0.44000000    2.69000006
   18.14333344   81.92400360    0.44000000    2.69000006
   18.14916611   81.92400360    0.44000000    2.69000006
   18.15333366   92.46269989    0.41999999    2.69000006
   18.15666580   92.32759857    0.41999999    2.69000006
   18.15749931   87.09510040    0.41999999    2.69000006
   18.16027832   95.76409912    0.41999999    2.69000006
   18.16333389   92.30629730    0.44000000    2.69000006
   18.16666603   90.97959900    0.41999999    2.69000006
   18.16972160   91.36869812    0.44000000    2.69000006
   18.17305565   93.06839752    0.41999999    2.69000006
   18.17638779   90.72219849    0.41999999    2.69000006
   18.17944336   91.76110077    0.44000000    2.69000006
   18.18277740   88.48069763    0.44000000    2.69000006
   18.18610954   96.26010132    0.44000000    2.67000008
   18.19194412   96.26010132    0.44000000    2.69000006
   18.19610977   87.41190338    0.44000000    2.69000006
   18.19944382   93.24060059    0.44000000    2.67000008
   18.20250130   92.54699707    0.44000000    2.67000008
   18.20583344   98.72200012    0.44000000    2.69000006
   18.20916748   95.06580353    0.44000000    2.69000006
   18.21222305   89.91200256    0.44000000    2.69000006
   18.21555710   99.67359924    0.44000000    2.69000006
   18.21888924   92.19940186    0.46000001    2.67000008
   18.22194481   88.28710175    0.46000001    2.69000006
   18.22416687   95.06210327    0.46000001    2.67000008
   18.22583389   86.13999939    0.46000001    2.67000008
   18.22888947   93.21469879    0.46000001    2.67000008
   18.23500061   93.21469879    0.47999999    2.69000006
   18.23888969   89.82550049    0.46000001    2.67000008
   18.24222183   89.12750244    0.46000001    2.67000008
   18.24555588   94.85179901    0.46000001    2.67000008
   18.24888992   85.01770020    0.46000001    2.67000008
   18.25194359   89.70549774    0.46000001    2.67000008
   18.25527763   88.93319702    0.46000001    2.67000008
   18.25749969   98.99369812    0.46000001    2.67000008
   18.25888824   87.90440369    0.46000001    2.67000008
   18.26194382   85.34480286    0.47999999    2.69000006
   18.26527786  100.97100067    0.46000001    2.67000008
   18.26861000  101.35800171    0.46000001    2.67000008
   18.27166557   92.07039642    0.46000001    2.67000008
   18.27777672   92.07039642    0.46000001    2.69000006
   18.28194427   81.63760376    0.47999999    2.67000008
   18.28499985  103.80400085    0.47999999    2.67000008
   18.28833199   92.42130280    0.47999999    2.67000008
   18.29083252   81.80989838    0.47999999    2.67000008
   18.29194450   85.00499725    0.47999999    2.67000008
   18.29500008   93.03679657    0.47999999    2.67000008
   18.29833221   92.85710144    0.47999999    2.67000008
   18.30166626   94.09279633    0.47999999    2.67000008
   18.30472183   86.27680206    0.50000000    2.67000008
   18.30805397   89.68879700    0.50000000    2.67000008
   18.31110954   87.49929810    0.50000000    2.67000008
   18.31444359   93.99749756    0.50000000    2.67000008
   18.32055664   93.99749756    0.50000000    2.67000008
   18.32472229  206.59500122    0.51999998    2.67000008
   18.32805634   84.57659912    0.50000000    2.67000008
   18.33111191   90.85700226    0.50000000    2.67000008
   18.33444595   88.44329834    0.51999998    2.67000008
   18.33750153   90.96440125    0.50000000    2.67000008
   18.34083366   92.72480011    0.51999998    2.67000008
   18.34416771   83.89189911    0.51999998    2.67000008
   18.34722328   99.85209656    0.51999998    2.67000008
   18.35055542   91.13890076    0.51999998    2.67000008
   18.35361099   94.53720093    0.51999998    2.67000008
   18.35694504   87.07119751    0.51999998    2.67000008
   18.35750008   92.97170258    0.51999998    2.67000008
   18.36333466   92.97170258    0.51999998    2.67000008
   18.36750031   87.56639862    0.52999997    2.67000008
   18.37083435   91.42720032    0.52999997    2.67000008
   18.37388992   89.58889771    0.52999997    2.67000008
   18.37722206   87.02690125    0.52999997    2.67000008
   18.38055611   96.30760193    0.52999997    2.67000008
   18.38361168   85.34259796    0.52999997    2.67000008
   18.38694382   84.44879913    0.52999997    2.67000008
   18.38999939   86.05680084    0.51999998    2.67000008
   18.39083290   96.36730194    0.51999998    2.67000008
   18.39388847   87.31289673    0.52999997    2.67000008
   18.39694405   80.24949646    0.52999997    2.67000008
   18.40027809   80.44290161    0.52999997    2.67000008
   18.40611076   80.44290161    0.51999998    2.67000008
   18.41027832   95.79319763    0.52999997    2.67000008
   18.41361046   83.23310089    0.51999998    2.66000009
   18.41694450   93.15190125    0.51999998    2.67000008
   18.42000008   90.89409637    0.51999998    2.67000008
   18.42333221   87.43119812    0.52999997    2.67000008
   18.42416573   90.18669891    0.52999997    2.67000008
   18.42694473   89.49369812    0.52999997    2.67000008
   18.43027687   85.84799957    0.52999997    2.67000008
   18.43333244   83.94419861    0.52999997    2.67000008
   18.43666649   92.07250214    0.52999997    2.67000008
   18.43972206   76.63600159    0.52999997    2.66000009
   18.44305420   88.56079865    0.52999997    2.66000009
   18.44916534   88.56079865    0.52999997    2.66000009
   18.45333481   83.64440155    4.90999985    2.67000008
   18.45639038   83.05039978    0.05000000    0.61000001
   18.45750046   93.83640289    0.05000000    0.61000001
   18.46000099   94.10009766    0.03000000    0.34000000
   18.46333504   83.14849854    0.03000000    0.07000000
   18.46638870   87.88790131    0.03000000    0.07000000
   18.46972275   72.19370270    0.03000000    0.07000000
   18.47277832   84.66040039    0.03000000    0.07000000
   18.47611237   81.26059723    0.03000000    0.07000000
   18.47944450   87.48470306    0.03000000    0.07000000
   18.48250008   86.38580322    0.03000000    0.07000000
   18.48583412   86.62750244    0.03000000    0.07000000
   18.49194527   86.62750244    0.03000000    0.07000000
   18.49611092   87.47209930    0.03000000    0.07000000
   18.49916649   87.28869629    0.03000000    0.07000000
   18.50250053   90.64679718    0.03000000    0.07000000
   18.50583267   91.58599854    0.03000000    0.07000000
   18.50888824  104.13099670    0.03000000    0.07000000
   18.51222229   97.65709686    0.03000000    0.07000000
   18.51527786   91.01419830    0.03000000    0.07000000
   18.51861000   93.08380127    0.03000000    0.07000000
   18.52194405   83.72360229    0.03000000    0.07000000
   18.52416611   92.24469757    0.03000000    0.07000000
   18.52555466   94.17120361    0.03000000    0.07000000
   18.52861023   96.48780060    0.03000000    0.07000000
   18.53472137   96.48780060    0.03000000    0.07000000
   18.53888893   81.58029938    0.03000000    0.07000000
   18.54222107   84.64469910    0.03000000    0.07000000
   18.54527664   87.39550018    0.03000000    0.07000000
   18.54861069   88.53869629    0.03000000    0.07000000
   18.55166626   82.82779694    0.03000000    0.07000000
   18.55499840   93.74530029    0.03000000    0.07000000
   18.55749893   88.55539703    0.03000000    0.07000000
   18.55861092   77.85199738    0.03000000    0.07000000
   18.56166649   79.76200104    0.03000000    0.07000000
   18.56499863   90.41690063    0.03000000    0.07000000
   18.56833458   83.36150360    0.03000000    0.07000000
   18.57139015   82.59960175    0.03000000    0.07000000
   18.57750130   82.59960175    0.03000000    0.07000000
   18.58166695   84.71070099    0.03000000    0.07000000
   18.58500099   85.82839966    0.03000000    0.07000000
   18.58805656   83.27050018    0.03000000    0.07000000
   18.59083366   87.39550018    0.03000000    0.07000000
   18.59194565   83.17839813    0.03000000    0.07000000
   18.59527779   81.50959778    0.03000000    0.07000000
   18.59833336   85.56159973    0.03000000    0.07000000
   18.60166740   82.42150116    0.03000000    0.07000000
   18.60472298   87.29370117    0.03000000    0.07000000
   18.60805511   87.07160187    0.03000000    0.07000000
   18.61138916   88.58029938    0.03000000    0.07000000
   18.61444473   87.68730164    0.03000000    0.07000000
   18.62055588   87.68730164    0.03000000    0.07000000
   18.62472153   87.94309998    0.03000000    0.07000000
   18.62777710   86.30740356    0.03000000    0.07000000
   18.63111115   85.48030090    0.03000000    0.07000000
   18.63416672   89.68520355    0.03000000    0.07000000
   18.63750076   86.46119690    0.03000000    0.07000000
   18.64083290   82.29940033    0.03000000    0.07000000
   18.64388847   88.39230347    0.03000000    0.07000000
   18.64722252   83.85620117    0.03000000    0.07000000
   18.65027809   91.72930145    0.03000000    0.07000000
   18.65361023   80.62020111    0.03000000    0.07000000
   18.65694427   88.97470093    0.03000000    0.07000000
   18.65749931   87.00959778    0.03000000    0.07000000
   18.66333389   87.00959778    0.03000000    0.07000000
   18.66749954   84.31140137    0.03000000    0.07000000
   18.67055511   84.72290039    0.03000000    0.07000000
   18.67388916   87.83039856    0.03000000    0.07000000
   18.67722130   86.34649658    0.03000000    0.07000000
   18.68055534   79.86759949    0.03000000    0.07000000
   18.68361092   83.04460144    0.03000000    0.07000000
   18.68694305   88.60070038    0.03000000    0.07000000
   18.68999863   85.55609894    0.03000000    0.07000000
   18.69083214   82.19779968    0.03000000    0.07000000
   18.69388771   81.69770050    0.03000000    0.07000000
   18.69722176   84.20790100    0.03000000    0.07000000
   18.70027924   89.35959625    0.03000000    0.07000000
   18.70611191   89.35959625    0.03000000    0.07000000
   18.71027946   84.36699677    0.03000000    0.07000000
   18.71361160   86.88079834    0.03000000    0.07000000
   18.71666718   87.84780121    0.03000000    0.07000000
   18.72000122   81.94409943    0.03000000    0.07000000
   18.72333336   88.91480255    0.03000000    0.07000000
   18.72416687   81.00000000    0.03000000    0.07000000
   18.72694588   85.10489655    0.03000000    0.07000000
   18.73000145   91.30069733    0.03000000    0.07000000
   18.73333359   95.20059967    0.03000000    0.07000000
   18.73666763   95.82839966    0.03000000    0.07000000
   18.73972321   84.05780029    0.03000000    0.07000000
   18.74305534   97.32939911    0.03000000    0.07000000
   18.74888992   97.32939911    0.03000000    0.07000000
   18.75305557   87.27220154    0.03000000    0.07000000
   18.75638962   90.30750275    0.03000000    0.07000000
   18.75749969   94.62779999    0.03000000    0.07000000
   18.76000023  100.85199738    0.03000000    0.07000000
   18.76333427   98.50420380    0.03000000    0.07000000
   18.76638794   99.83640289    0.03000000    0.07000000
   18.76972198   94.60230255    0.03000000    0.07000000
   18.77305603   85.41590118    0.03000000    0.07000000
   18.77611160   86.44760132    0.03000000    0.07000000
   18.77944374   86.06990051    0.03000000    0.07000000
   18.78249931   88.95659637    0.03000000    0.07000000
   18.78583336   82.29149628    0.03000000    0.07000000
   18.79194450   82.29149628    0.03000000    0.07000000
   18.79583359   86.83689880    0.03000000    0.07000000
   18.79916573   84.56390381    0.03000000    0.07000000
   18.80249977   82.50749969    0.03000000    0.07000000
   18.80555534   82.21520233    0.03000000    0.07000000
   18.80888748   85.50289917    0.03000000    0.07000000
   18.81222153   81.69029999    0.03000000    0.07000000
   18.81527710   87.15470123    0.03000000    0.07000000
   18.81861115   82.09290314    0.03000000    0.07000000
   18.82166672   83.13210297    0.03000000    0.07000000
   18.82416725   87.40679932    0.03000000    0.07000000
   18.82555580   90.19429779    0.03000000    0.07000000
   18.82888985   88.63770294    0.03000000    0.07000000
   18.83472252   88.63770294    0.03000000    0.07000000
   18.83889008   93.85559845    0.03000000    0.07000000
   18.84194565   85.14270020    0.03000000    0.07000000
   18.84527779   83.40910339    0.03000000    0.07000000
   18.84861183   96.40309906    0.03000000    0.07000000
   18.85166740   82.23680115    0.03000000    0.07000000
   18.85499954   92.52050018    0.03000000    0.07000000
   18.85750008   81.96739960    0.03000000    0.07000000
   18.85861206   85.17500305    0.03000000    0.07000000
   18.86194420   83.96869659    0.03000000    0.07000000
   18.86499977   85.22339630    0.03000000    0.07000000
   18.86833382   83.31800079    0.03000000    0.07000000
   18.87138939   91.11049652    0.03000000    0.07000000
   18.87750053   91.11049652    0.03000000    0.07000000
   18.88166618   84.21179962    0.03000000    0.07000000
   18.88500023   81.86750031    0.03000000    0.07000000
   18.88805580   81.12699890    0.03000000    0.07000000
   18.89083290   82.60420227    0.03000000    0.07000000
   18.89166641   83.21970367    0.03000000    0.07000000
   18.89500046   88.82540131    0.03000000    0.07000000
   18.89805603   81.99179840    0.03000000    0.07000000
