    HOUR (UT)   FLARE FACTOR    SKY TESTER    SUN TESTER
   11.90472221   -1.00000000   -1.00000000   -1.00000000
   11.93000031  222.94700623    2.76999998    1.86000001
   11.93305588  138.76400757    2.75000000    1.86000001
   11.93638897  138.14700317    2.75000000    1.86000001
   11.93972206  126.72299957    2.73000002    1.86000001
   11.94277763  133.56399536    2.73000002    1.86000001
   11.94611073  135.06399536    2.71000004    1.88000000
   11.95027733  135.06399536    2.71000004    1.88000000
   11.95444393  116.24299622    2.71000004    1.88000000
   11.95749950  117.36000061    2.69000006    1.88000000
   11.96083355  121.09899902    2.69000006    1.89999998
   11.96333313  137.39399719    2.69000006    1.89999998
   11.96444416  130.82099915    2.69000006    1.89999998
   11.96777725  115.72399902    2.69000006    1.89999998
   11.97083282  126.30799866    2.67000008    1.89999998
   11.97416592  131.89399719    2.69000006    1.89999998
   11.97749996  136.96600342    2.67000008    1.89999998
   11.98055553  122.41899872    2.69000006    1.89999998
   11.98388958  122.60099792    2.67000008    1.91999996
   11.98694515  138.35400391    2.67000008    1.91999996
   11.99305534  138.35400391    2.66000009    1.91999996
   11.99722290  118.06999969    2.66000009    1.91999996
   12.00027752  130.99299622    2.66000009    1.91999996
   12.00361156  122.80599976    2.64000010    1.91999996
   12.00694466  126.02200317    2.64000010    1.91999996
   12.01000023  129.89799500    2.64000010    1.91999996
   12.01333332  131.57200623    2.64000010    1.94000006
   12.01666641  126.31999969    2.64000010    1.94000006
   12.01972198  116.14099884    2.64000010    1.94000006
   12.02305508  129.46000671    2.61999989    1.94000006
   12.02611065  124.78299713    2.61999989    1.94000006
   12.02944374  138.55700684    2.61999989    1.94000006
   12.02999973  121.16200256    2.61999989    1.94000006
   12.03583336  121.16200256    2.61999989    1.94000006
   12.04000092  116.98999786    2.61999989    1.94000006
   12.04333401  125.75099945    2.59999990    1.96000004
   12.04638958  111.24400330    2.59999990    1.96000004
   12.04972267  122.54799652    2.59999990    1.96000004
   12.05305576  115.38099670    2.57999992    1.96000004
   12.05611134  124.25700378    2.57999992    1.98000002
   12.05944443  144.83599854    2.57999992    1.98000002
   12.06250000  119.14299774    2.57999992    1.98000002
   12.06333351  133.27400208    2.57999992    1.98000002
   12.06638908  126.10600281    2.55999994    1.98000002
   12.06944466  115.80899811    2.55999994    1.98000002
   12.07277775  123.90399933    2.55999994    1.98000002
   12.07888889  123.90399933    2.57999992    1.98000002
   12.08277798  125.11000061    2.55999994    1.98000002
   12.08611107  116.75499725    2.55999994    2.00000000
   12.08944416  120.87100220    2.53999996    2.00000000
   12.09249973  120.78099823    2.53999996    2.00000000
   12.09583282  117.22499847    2.53999996    2.00000000
   12.09666634  118.84999847    2.51999998    2.01999998
   12.09944439  118.64299774    2.51999998    2.00000000
   12.10249996  117.46600342    2.51999998    2.00000000
   12.10583401  120.27300262    2.51999998    2.00000000
   12.10916710  122.15799713    2.50000000    2.01999998
   12.11222267  116.53399658    2.50000000    2.01999998
   12.11555576  114.09799957    2.48000002    2.01999998
   12.12166691  114.09799957    2.48000002    2.01999998
   12.12583351  117.76200104    2.46000004    2.01999998
   12.12888908  111.34100342    2.46000004    2.01999998
   12.13000011  121.69799805    2.46000004    2.01999998
   12.13277817  123.62999725    2.46000004    2.01999998
   12.13583279  117.08599854    2.46000004    2.01999998
   12.13916683  122.07800293    2.44000006    2.01999998
   12.14249992  111.60700226    2.44000006    2.03999996
   12.14555550  118.57599640    2.44000006    2.03999996
   12.14888859  108.70500183    2.44000006    2.03999996
   12.15194416  118.82499695    2.42000008    2.03999996
   12.15527725  114.20400238    2.42000008    2.03999996
   12.15861034  111.28600311    2.44000006    2.05999994
   12.16444397  111.28600311    2.44000006    2.05999994
   12.16861153  112.17299652    2.42000008    2.05999994
   12.17166710  114.29799652    2.44000006    2.05999994
   12.17500019  119.95600128    2.42000008    2.05999994
   12.17833328  122.95600128    2.42000008    2.05999994
   12.18138885  114.46399689    2.42000008    2.05999994
   12.18472195  119.81900024    2.42000008    2.05999994
   12.18805599  111.32700348    2.40000010    2.05999994
   12.19111156  115.24600220    2.40000010    2.05999994
   12.19444466  115.21600342    2.40000010    2.07999992
   12.19666672  125.74500275    2.40000010    2.07999992
   12.19805527  109.34400177    2.40000010    2.07999992
   12.20111084  127.21199799    2.40000010    2.07999992
   12.20722198  127.21199799    2.40000010    2.07999992
   12.21138859  123.36499786    2.40000010    2.07999992
   12.21472168  119.85600281    2.40000010    2.07999992
   12.21777725  117.70400238    2.40000010    2.07999992
   12.22111034  111.78299713    2.40000010    2.07999992
   12.22444439  122.80300140    2.40000010    2.07999992
   12.22749996  109.03099823    2.40000010    2.09999990
   12.22999954  104.78299713    2.40000010    2.09999990
   12.23138809  110.69899750    2.40000010    2.09999990
   12.23444462  112.52500153    2.40000010    2.09999990
   12.23777771  117.48600006    2.40000010    2.09999990
   12.24111176  112.65499878    2.40000010    2.09999990
   12.24416733  111.87899780    2.39000010    2.09999990
   12.25000000  111.87899780    2.36999989    2.09999990
   12.25416660  114.39700317    2.34999990    2.11999989
   12.25749969  111.16500092    2.36999989    2.11999989
   12.26083374  121.86100006    2.36999989    2.11999989
   12.26333332  104.58799744    2.34999990    2.11999989
   12.26444435  117.61900330    2.34999990    2.11999989
   12.26749992  124.45999908    2.32999992    2.11999989
   12.27083302  110.03600311    2.32999992    2.11999989
   12.27416611  113.52200317    2.30999994    2.11999989
   12.27722168  116.76899719    2.28999996    2.11999989
   12.28055573  116.68599701    2.26999998    2.13000011
   12.28361130  115.61799622    2.26999998    2.13000011
   12.28694534  116.48699951    2.26999998    2.13000011
   12.29305553  116.48699951    2.25000000    2.13000011
   12.29722309  110.56600189    2.23000002    2.13000011
   12.30027771  109.79799652    2.21000004    2.13000011
   12.30361176  104.32199860    2.21000004    2.13000011
   12.30666733  103.28500366    2.23000002    2.13000011
   12.31000042  111.86799622    2.21000004    2.13000011
   12.31333351  108.91600037    2.19000006    2.15000010
   12.31638908  107.13700104    2.19000006    2.13000011
   12.31972218  111.52799988    2.19000006    2.15000010
   12.32305527  119.38999939    2.19000006    2.15000010
   12.32611084  111.05300140    2.17000008    2.15000010
   12.32944393  115.31900024    2.17000008    2.17000008
   12.32999992  109.49099731    2.17000008    2.15000010
   12.33583260  109.49099731    2.15000010    2.17000008
   12.34000015  117.98799896    2.13000011    2.15000010
   12.34305477  113.39399719    2.13000011    2.17000008
   12.34638882  112.39399719    2.13000011    2.15000010
   12.34972191  109.59500122    2.13000011    2.17000008
   12.35277843  118.12599945    2.13000011    2.15000010
   12.35611153  122.18800354    2.13000011    2.17000008
   12.35944462  120.26000214    2.13000011    2.17000008
   12.36305618  131.49800110    2.15000010    2.17000008
   12.36416721  117.22299957    2.13000011    2.17000008
   12.36722279  110.36900330    2.13000011    2.17000008
   12.37027836  116.71800232    2.15000010    2.17000008
   12.37361145  119.81099701    2.15000010    2.17000008
   12.37861156  119.81099701    2.17000008    2.17000008
   12.38277817  109.26000214    2.15000010    2.17000008
   12.38611126  123.70700073    2.15000010    2.17000008
   12.38916683  108.40499878    2.15000010    2.17000008
   12.39249992  115.36499786    2.15000010    2.17000008
   12.39583302  110.81700134    2.15000010    2.17000008
   12.39694405  105.64600372    2.15000010    2.19000006
   12.39944458  110.04499817    2.15000010    2.19000006
   12.40249920  110.25499725    2.15000010    2.19000006
   12.40583324  105.30599976    2.15000010    2.19000006
   12.40916634  100.60199738    2.15000010    2.21000004
   12.41222191  109.50099945    2.13000011    2.19000006
   12.41555500  102.95300293    2.13000011    2.19000006
   12.42166710  102.95300293    2.13000011    2.19000006
   12.42583370  102.20700073    2.13000011    2.21000004
   12.42888927  103.53700256    2.13000011    2.21000004
   12.43027782  104.10500336    2.11999989    2.19000006
   12.43277836  106.07599640    2.13000011    2.21000004
   12.43611145  107.26200104    2.11999989    2.21000004
   12.43944454  102.51200104    2.11999989    2.21000004
   12.44277763  112.73600006    2.11999989    2.21000004
   12.44583321  112.26699829    2.09999990    2.21000004
   12.44916630  104.80799866    2.09999990    2.21000004
   12.45222187  109.70899963    2.09999990    2.21000004
   12.45555496  100.24900055    2.07999992    2.21000004
   12.45888901  108.97499847    2.09999990    2.21000004
   12.46444416  108.97499847    2.09999990    2.23000002
   12.46861076  105.88600159    2.07999992    2.23000002
   12.47166634  107.21099854    2.05999994    2.23000002
   12.47499943   99.75740051    2.05999994    2.23000002
   12.47805500  105.45800018    2.07999992    2.23000002
   12.48138809   97.33149719    2.07999992    2.23000002
   12.48472214  104.78800201    2.05999994    2.23000002
   12.48777771  104.50299835    2.05999994    2.23000002
   12.49111176  102.34600067    2.05999994    2.23000002
   12.49444485  102.73899841    2.05999994    2.23000002
   12.49694443  105.29199982    2.05999994    2.23000002
   12.49805546  104.12999725    2.05999994    2.23000002
   12.50138855  109.49199677    2.07999992    2.23000002
   12.50722218  109.49199677    2.07999992    2.25000000
   12.51138878  103.04799652    2.05999994    2.25000000
   12.51444435  100.79299927    2.05999994    2.25000000
   12.51777744  101.90899658    2.05999994    2.23000002
   12.52111053  100.71800232    2.05999994    2.25000000
   12.52416611   99.43699646    2.05999994    2.25000000
   12.52750015  104.90599823    2.03999996    2.25000000
   12.53027725  101.89900208    2.05999994    2.25000000
   12.53111076  105.47899628    2.05999994    2.25000000
   12.53444481  100.73000336    2.03999996    2.25000000
   12.53750038  102.80999756    2.03999996    2.25000000
   12.54083347   96.98529816    2.03999996    2.25000000
   12.54388905  102.81300354    2.03999996    2.25000000
   12.55000019  102.81300354    2.01999998    2.25000000
   12.55416679  100.98999786    2.01999998    2.25000000
   12.55749989  107.22100067    2.01999998    2.26999998
   12.56055546   99.61579895    2.01999998    2.26999998
   12.56361103  100.94599915    2.00000000    2.26999998
   12.56416702  100.46199799    2.00000000    2.26999998
   12.56750011  107.35399628    2.00000000    2.26999998
   12.57055569  104.88600159    2.00000000    2.25000000
   12.57388878  106.45600128    2.00000000    2.26999998
   12.57694435  100.91400146    2.00000000    2.26999998
   12.58027744   96.61479950    2.01999998    2.26999998
   12.58361053   96.90830231    2.01999998    2.28999996
   12.58666611   99.32369995    2.01999998    2.26999998
   12.59277725   99.32369995    2.01999998    2.26999998
   12.59694386  113.22799683    2.00000000    2.26999998
   12.59749985  105.88300323    2.01999998    2.26999998
   12.60083389  100.00900269    2.01999998    2.26999998
   12.60388947   99.81539917    2.01999998    2.26999998
   12.60722256   97.22560120    2.00000000    2.28999996
   12.61027813  105.59999847    2.00000000    2.28999996
   12.61361122   95.34100342    1.96000004    2.28999996
   12.61694431   98.36540222    1.98000002    2.28999996
   12.61999989   97.09929657    1.98000002    2.28999996
   12.62333393  106.31099701    1.98000002    2.28999996
   12.62666702   96.08080292    1.98000002    2.28999996
   12.62972260   98.51540375    1.96000004    2.28999996
   12.63027763   96.47730255    1.96000004    2.28999996
   12.63583279   96.47730255    1.96000004    2.28999996
   12.64000034   98.52809906    1.96000004    2.28999996
   12.64305496  103.89499664    1.96000004    2.28999996
   12.64638901   96.10089874    1.96000004    2.28999996
   12.64944458   95.74880219    1.96000004    2.28999996
   12.65277767   94.34700012    1.96000004    2.28999996
   12.65611076  103.64399719    1.96000004    2.30999994
   12.65916634   95.56690216    1.96000004    2.30999994
   12.66249943   96.99759674    1.94000006    2.30999994
   12.66388893   93.80799866    1.94000006    2.30999994
   12.66611099   96.36530304    1.94000006    2.30999994
   12.66944504   96.66819763    1.94000006    2.30999994
   12.67250061   90.65689850    1.94000006    2.30999994
   12.67861176   90.65689850    1.94000006    2.30999994
   12.68277836   94.75659943    1.91999996    2.30999994
   12.68583298   95.90219879    1.94000006    2.30999994
   12.68916702   95.90390015    1.94000006    2.30999994
   12.69250011   95.53019714    1.94000006    2.30999994
   12.69555569   99.52709961    1.94000006    2.30999994
   12.69694424  100.44100189    1.94000006    2.30999994
   12.69916630   97.85810089    1.91999996    2.30999994
   12.70249939   98.78220367    1.91999996    2.30999994
   12.70555496  100.49400330    1.91999996    2.30999994
   12.70888901  101.79699707    1.91999996    2.30999994
   12.71222210  104.40699768    1.91999996    2.32999992
   12.71527767  110.67600250    1.94000006    2.32999992
   12.72138882  110.67600250    1.91999996    2.32999992
   12.72555542   97.65350342    1.91999996    2.32999992
   12.72888851  105.00800323    1.91999996    2.32999992
   12.73027706   99.61350250    1.89999998    2.32999992
   12.73249912  107.63500214    1.89999998    2.32999992
   12.73583317   93.73930359    1.89999998    2.32999992
   12.73888874   94.10089874    1.89999998    2.32999992
   12.74222279   95.74690247    1.88000000    2.32999992
   12.74555588   97.72380066    1.88000000    2.32999992
   12.74861145  100.46299744    1.88000000    2.32999992
   12.75194454  110.14800262    1.86000001    2.32999992
   12.75500011  103.68000031    1.86000001    2.32999992
   12.75833321   96.61840057    1.86000001    2.32999992
   12.76416683   96.61840057    1.86000001    2.32999992
   12.76833344   96.03880310    1.86000001    2.32999992
   12.77166653  102.94799805    1.86000001    2.34999990
   12.77472210   98.22360229    1.86000001    2.34999990
   12.77805519   93.88069916    1.86000001    2.32999992
   12.78138828  110.46700287    1.86000001    2.34999990
   12.78444481   97.78659821    1.86000001    2.34999990
   12.78777790  103.09300232    1.86000001    2.34999990
   12.79111195  102.66899872    1.86000001    2.34999990
   12.79416752  105.84899902    1.86000001    2.34999990
   12.79722309   99.18340302    1.85000002    2.34999990
   12.79777813  111.38300323    1.85000002    2.34999990
   12.80111122   89.32469940    1.85000002    2.34999990
   12.80722237   89.32469940    1.85000002    2.34999990
   12.81111145   91.28530121    1.83000004    2.34999990
   12.81444454   95.36409760    1.83000004    2.36999989
   12.81777763   91.17369843    1.83000004    2.36999989
   12.82083321   96.21240234    1.83000004    2.36999989
   12.82416630   96.48509979    1.80999994    2.36999989
   12.82750034   94.32260132    1.80999994    2.34999990
   12.83055592   97.75869751    1.80999994    2.36999989
   12.83111095   91.06169891    1.78999996    2.36999989
   12.83444405   95.56729889    1.80999994    2.36999989
   12.83749962   95.24269867    1.80999994    2.36999989
   12.84083271   98.79900360    1.78999996    2.36999989
   12.84416676  104.66000366    1.78999996    2.36999989
   12.85000038  104.66000366    1.78999996    2.36999989
   12.85416698  102.96399689    1.78999996    2.36999989
   12.85722256  110.58799744    1.78999996    2.36999989
   12.86055565  115.89199829    1.76999998    2.36999989
   12.86388969  120.20400238    1.76999998    2.36999989
   12.86416721  107.43199921    1.76999998    2.36999989
   12.86750031  106.05100250    1.76999998    2.36999989
   12.87055588  102.30200195    1.76999998    2.36999989
   12.87388897  110.33499908    1.76999998    2.36999989
   12.87722206  109.37699890    1.75000000    2.39000010
   12.88027763  116.94899750    1.76999998    2.39000010
   12.88361073  102.55699921    1.75000000    2.39000010
   12.88666630  109.01699829    1.75000000    2.39000010
   12.89277744  109.01699829    1.75000000    2.39000010
   12.89694405   93.37020111    1.75000000    2.39000010
   12.89750004   98.35729980    1.75000000    2.39000010
   12.90083313  102.18900299    1.75000000    2.39000010
   12.90388870  101.63600159    1.75000000    2.39000010
   12.90722179  109.05000305    1.75000000    2.39000010
   12.91027737  108.12200165    1.75000000    2.39000010
   12.91361046  109.34600067    1.73000002    2.39000010
   12.91694450  102.44300079    1.73000002    2.39000010
   12.92000008  109.78199768    1.73000002    2.39000010
   12.92333412  106.87699890    1.75000000    2.39000010
   12.92638874  100.09700012    1.73000002    2.39000010
   12.92972279  114.12799835    1.73000002    2.39000010
   12.94722271   91.39379883    1.73000002    2.39000010
   12.95138836   91.39379883    1.73000002    2.39000010
   12.95555496  100.78700256    1.73000002    2.40000010
   12.95861053   98.07209778    1.73000002    2.40000010
   12.96194458  103.72699738    1.73000002    2.40000010
   12.96500015   94.04039764    1.73000002    2.40000010
   12.96833324   96.09339905    1.73000002    2.40000010
   12.97166634   95.56600189    1.73000002    2.39000010
   12.97472191  108.03800201    1.71000004    2.40000010
   12.97805500   93.67369843    1.71000004    2.39000010
   12.98055553   91.84449768    1.71000004    2.40000010
   12.98166656   91.65229797    1.71000004    2.40000010
   12.98500061   91.38600159    1.69000006    2.40000010
   12.98805618  100.96399689    1.69000006    2.40000010
   12.99416733  100.96399689    1.69000006    2.40000010
   12.99833393   96.38289642    1.66999996    2.40000010
   13.00166702   87.98650360    1.69000006    2.40000010
   13.00472260   91.01540375    1.66999996    2.40000010
   13.00805569   90.62629700    1.66999996    2.40000010
   13.01111126   90.87809753    1.66999996    2.40000010
   13.01388931   90.51830292    1.66999996    2.40000010
   13.01472187   92.64450073    1.66999996    2.40000010
   13.01805496   85.90440369    1.66999996    2.40000010
   13.02111053   87.01719666    1.66999996    2.40000010
   13.02444458   83.32399750    1.66999996    2.40000010
   13.02777767   91.40329742    1.64999998    2.40000010
   13.03083324   90.39550018    1.64999998    2.40000010
   13.03694534   90.39550018    1.64999998    2.42000008
   13.04111195   91.23739624    1.63000000    2.42000008
   13.04444504   85.52749634    1.63000000    2.42000008
   13.04722309   90.48249817    1.63000000    2.40000010
   13.04805565   86.84169769    1.63000000    2.40000010
   13.05138874   89.84909821    1.63000000    2.42000008
   13.05444431   87.80269623    1.63000000    2.42000008
   13.05777836   87.60369873    1.61000001    2.42000008
   13.06111145   92.95220184    1.61000001    2.42000008
   13.06416702   90.07969666    1.61000001    2.42000008
   13.06750011   86.20320129    1.61000001    2.42000008
   13.07055569   94.17990112    1.61000001    2.42000008
   13.07388878   88.68160248    1.61000001    2.42000008
   13.07972240   88.68160248    1.61000001    2.42000008
   13.08388901   89.98090363    1.60000002    2.42000008
   13.08722210   85.41030121    1.60000002    2.42000008
   13.09055519   84.89869690    1.60000002    2.44000006
   13.09361076   86.57160187    1.60000002    2.42000008
   13.09694386   87.30329895    1.60000002    2.42000008
   13.10000038   89.72810364    1.60000002    2.44000006
   13.10333347   90.47850037    1.60000002    2.44000006
   13.10666752   88.45500183    1.60000002    2.44000006
   13.10972214   88.88559723    1.60000002    2.44000006
   13.11305618   97.37670135    1.60000002    2.44000006
   13.11500072   92.26760101    1.58000004    2.44000006
   13.11666679   86.53990173    1.60000002    2.44000006
   13.12277794   86.53990173    1.58000004    2.44000006
   13.12694454   86.81279755    1.58000004    2.44000006
   13.13000011   85.55740356    1.58000004    2.44000006
   13.13333321   80.36830139    1.58000004    2.44000006
   13.13638878   88.13770294    1.55999994    2.44000006
   13.13972187   85.04209900    1.55999994    2.46000004
   13.14305496   84.70149994    1.55999994    2.46000004
   13.14611053   85.27330017    1.55999994    2.46000004
   13.14833355   80.53690338    1.55999994    2.46000004
   13.14999962   83.91770172    1.55999994    2.46000004
   13.15305519   83.99330139    1.55999994    2.46000004
   13.15638828   84.32779694    1.55999994    2.46000004
   13.15944386   83.93389893    1.53999996    2.46000004
   13.16555500   83.93389893    1.53999996    2.44000006
   13.16972256   82.92590332    1.53999996    2.46000004
   13.17277813   82.74379730    1.53999996    2.46000004
   13.17611122   81.59279633    1.53999996    2.46000004
   13.17944431   85.95469666    1.51999998    2.46000004
   13.18166733   83.40049744    1.53999996    2.46000004
   13.18305588   85.57279968    1.53999996    2.46000004
   13.18638897   81.64689636    1.53999996    2.46000004
   13.18944454   86.60949707    1.51999998    2.46000004
   13.19277763   82.64350128    1.51999998    2.46000004
   13.19611073   82.02570343    1.51999998    2.46000004
   13.19916630   79.77380371    1.51999998    2.46000004
   13.20249939   81.77439880    1.51999998    2.46000004
   13.20833302   81.77439880    1.51999998    2.46000004
   13.21249962   83.29640198    1.53999996    2.46000004
   13.21500015   83.45359802    1.53999996    2.46000004
   13.21611118   82.42369843    1.53999996    2.46000004
   13.21944427   83.07800293    1.51999998    2.46000004
   13.22249985   78.42980194    1.53999996    2.46000004
   13.22583294   85.31950378    1.51999998    2.48000002
   13.22916603   85.54850006    1.51999998    2.46000004
   13.23222160   82.47380066    1.51999998    2.48000002
   13.23555565   84.92479706    1.51999998    2.48000002
   13.23861122   84.46369934    1.51999998    2.46000004
   13.24194431   88.55680084    1.51999998    2.46000004
   13.24527836   85.91539764    1.51999998    2.46000004
   13.25111103   85.91539764    1.51999998    2.46000004
   13.25527763   80.57749939    1.50000000    2.46000004
   13.25861073   88.68959808    1.48000002    2.48000002
   13.26194477   84.85140228    1.48000002    2.46000004
   13.26500034   81.77149963    1.48000002    2.48000002
   13.26833344   86.49069977    1.48000002    2.48000002
   13.27138901   86.37889862    1.48000002    2.48000002
   13.27472210   78.67659760    1.48000002    2.46000004
   13.27805519   82.70839691    1.48000002    2.48000002
   13.28111076   82.75399780    1.48000002    2.48000002
   13.28222179   79.30090332    1.48000002    2.48000002
   13.28500080   85.21040344    1.48000002    2.48000002
   13.28805637   79.19300079    1.48000002    2.48000002
   13.29416752   79.19300079    1.46000004    2.48000002
   13.29833412   81.32869720    1.48000002    2.48000002
   13.30138874   80.72329712    1.46000004    2.48000002
   13.30472279   80.17489624    1.48000002    2.48000002
   13.30777836   76.38379669    1.46000004    2.48000002
   13.31111145   85.43720245    1.46000004    2.48000002
   13.31444454   80.95870209    1.46000004    2.48000002
   13.31555557   80.49410248    1.46000004    2.48000002
   13.31805515   82.69159698    1.46000004    2.48000002
   13.32138920   84.20429993    1.46000004    2.48000002
   13.32472229   80.39559937    1.46000004    2.48000002
   13.32777786   81.18409729    1.46000004    2.48000002
   13.33111095   82.60569763    1.46000004    2.50000000
   13.33694458   82.60569763    1.46000004    2.50000000
   13.34111118   83.95539856    1.46000004    2.48000002
   13.34416676  122.14499664    1.46000004    2.48000002
   13.34749985   81.66329956    1.44000006    2.48000002
   13.34888840   90.65149689    1.44000006    2.48000002
   13.35111141   85.86270142    1.46000004    2.50000000
   13.35444450   86.34940338    1.46000004    2.48000002
   13.35750008   90.21450043    1.44000006    2.48000002
   13.36083412   88.74250031    1.46000004    2.50000000
   13.36416721   95.52929688    1.44000006    2.50000000
   13.36722279   88.37640381    1.46000004    2.50000000
   13.37055588   81.61239624    1.44000006    2.50000000
   13.37388897   85.90899658    1.44000006    2.48000002
   13.37972260   85.90899658    1.46000004    2.50000000
   13.38388920   77.81629944    1.44000006    2.48000002
   13.38722229   95.90709686    1.44000006    2.50000000
   13.39027786   82.75170135    1.46000004    2.50000000
   13.39361095   83.12789917    1.46000004    2.50000000
   13.39694405   83.06759644    1.44000006    2.50000000
   13.39999962   85.92610168    1.46000004    2.50000000
   13.40333271   83.35260010    1.44000006    2.50000000
   13.40638828  100.21299744    1.44000006    2.50000000
   13.40972137   85.96040344    1.46000004    2.50000000
   13.41305542   85.39320374    1.44000006    2.50000000
   13.41583252   83.77400208    1.46000004    2.50000000
   13.41666698   84.27159882    1.46000004    2.50000000
   13.42250061   84.27159882    1.46000004    2.50000000
   13.42666721   83.76699829    1.44000006    2.50000000
   13.43000031   80.70590210    1.44000006    2.50000000
   13.43333340   80.98639679    1.46000004    2.50000000
   13.43638897   80.73590088    1.44000006    2.50000000
   13.43972206   83.51129913    1.44000006    2.51999998
   13.44277763   83.92350006    1.44000006    2.50000000
   13.44611073   81.85469818    1.44000006    2.51999998
   13.44916630   86.32849884    1.44000006    2.50000000
   13.44972229   81.79689789    1.44000006    2.50000000
   13.45305538   83.81580353    1.41999996    2.50000000
   13.45611095   78.23919678    1.44000006    2.50000000
   13.45944405   79.61599731    1.41999996    2.50000000
   13.46555519   79.61599731    1.44000006    2.51999998
   13.46972179   81.52100372    1.41999996    2.50000000
   13.47277737   81.72090149    1.39999998    2.50000000
   13.47611046   81.10009766    1.39999998    2.51999998
   13.47944355   81.10759735    1.39999998    2.51999998
   13.48249912   80.67610168    1.39999998    2.51999998
   13.48277760   79.98729706    1.39999998    2.51999998
   13.48611164   78.56069946    1.39999998    2.50000000
   13.48916721   79.75630188    1.39999998    2.51999998
   13.49250031   82.39029694    1.39999998    2.51999998
   13.49583340   82.90519714    1.39999998    2.51999998
   13.49888897   81.60810089    1.39999998    2.51999998
   13.50222206   80.33010101    1.38000000    2.51999998
   13.50833321   80.33010101    1.38000000    2.51999998
   13.51249981   81.33170319    1.38000000    2.51999998
   13.51583290   83.68650055    1.38000000    2.51999998
   13.51611137   81.94180298    1.38000000    2.51999998
   13.51944447   78.55639648    1.38000000    2.51999998
   13.52250004   80.49890137    1.38000000    2.51999998
   13.52583313   79.59590149    1.38000000    2.51999998
   13.52916622   80.81210327    1.38000000    2.51999998
   13.53222179   79.26920319    1.38000000    2.51999998
   13.53555584   77.38079834    1.38000000    2.51999998
   13.53888893   78.02300262    1.38000000    2.51999998
   13.54194450   77.39969635    1.36000001    2.51999998
   13.54527855   80.29640198    1.38000000    2.51999998
   13.55111122   80.29640198    1.38000000    2.51999998
   13.55527782   79.77390289    1.38000000    2.51999998
   13.55861092   80.35569763    1.38000000    2.51999998
   13.56166649   83.36509705    1.38000000    2.53999996
   13.56500053   87.00090027    1.38000000    2.51999998
   13.56833363   79.51349640    1.38000000    2.51999998
   13.57138920   82.61799622    1.38000000    2.53999996
   13.57472229   83.94750214    1.36000001    2.53999996
   13.57777786   81.16369629    1.36000001    2.53999996
   13.58111095   82.13980103    1.36000001    2.53999996
   13.58249950   85.95379639    1.36000001    2.53999996
   13.58472157   80.25720215    1.38000000    2.53999996
   13.58805561   81.26909637    1.36000001    2.51999998
   13.59388828   81.26909637    1.36000001    2.53999996
   13.59805489   78.26300049    1.36000001    2.53999996
   13.60138893   78.97480011    1.36000001    2.53999996
   13.60472298   80.10910034    1.34000003    2.53999996
   13.60777855   77.53089905    1.36000001    2.53999996
   13.61111164   79.88970184    1.34000003    2.53999996
   13.61416721   85.38539886    1.34000003    2.53999996
   13.61583328   82.07800293    1.34000003    2.53999996
   13.61777782   83.14399719    1.34000003    2.53999996
   13.62111092   81.04209900    1.34000003    2.53999996
   13.62444496   76.84179688    1.34000003    2.53999996
   13.62750053   79.32800293    1.34000003    2.53999996
   13.63083363   85.75000000    1.34000003    2.53999996
   13.63694477   85.75000000    1.33000004    2.53999996
   13.64083290   80.20369720    1.33000004    2.53999996
   13.64416695   79.90080261    1.33000004    2.53999996
   13.64750004   78.89600372    1.33000004    2.53999996
   13.64916611   77.83809662    1.33000004    2.53999996
   13.65111065   81.55509949    1.33000004    2.55999994
   13.65444374   79.08840179    1.33000004    2.53999996
   13.65749931   80.23519897    1.33000004    2.53999996
   13.66083336   81.27439880    1.33000004    2.55999994
   13.66388893   77.75309753    1.33000004    2.53999996
   13.66722298   82.75050354    1.33000004    2.53999996
   13.67055607   83.51869965    1.34000003    2.53999996
   13.67361164   81.43959808    1.34000003    2.53999996
   13.67972279   81.43959808    1.33000004    2.53999996
   13.68388939   84.84079742    1.33000004    2.53999996
   13.68694496   81.36900330    1.33000004    2.53999996
   13.69027805   79.01540375    1.33000004    2.53999996
   13.69361115   82.80690002    1.33000004    2.53999996
   13.69666672   75.79740143    1.33000004    2.53999996
   13.69999981   83.15299988    1.33000004    2.53999996
   13.70333290   77.74050140    1.33000004    2.53999996
   13.70638847   81.47910309    1.33000004    2.53999996
   13.70972157   77.65540314    1.33000004    2.53999996
   13.71277714   78.24019623    1.33000004    2.55999994
   13.71583271   80.87500000    1.33000004    2.55999994
   13.71666622   77.10410309    1.33000004    2.55999994
   13.72249985   77.10410309    1.33000004    2.53999996
   13.72666645   83.27559662    1.33000004    2.55999994
   13.72999954   79.82849884    1.33000004    2.55999994
   13.73305511   81.63150024    1.33000004    2.55999994
   13.73638916   79.80709839    1.33000004    2.53999996
   13.73944473   82.44339752    1.33000004    2.55999994
   13.74277782   76.97100067    1.33000004    2.55999994
   13.74611092   81.48529816    1.34000003    2.55999994
   13.74916649   78.68209839    1.34000003    2.55999994
   13.74972248   80.19049835    1.34000003    2.55999994
   13.75305557   79.87509918    1.34000003    2.55999994
   13.75611115   83.65299988    1.34000003    2.55999994
   13.75944424   82.48030090    1.34000003    2.55999994
   13.76527786   82.48030090    1.33000004    2.55999994
   13.76944447   77.40229797    1.33000004    2.55999994
   13.77277756   77.46340179    1.33000004    2.55999994
   13.77583313   83.12210083    1.30999994    2.55999994
   13.77916622   79.45439911    1.30999994    2.55999994
   13.78249931   79.43920135    1.30999994    2.55999994
   13.78305531   76.66529846    1.30999994    2.55999994
   13.78611183   76.49379730    1.30999994    2.55999994
   13.78944492   76.32740021    1.30999994    2.55999994
   13.79277802   76.29930115    1.28999996    2.55999994
   13.79583359   83.33390045    1.28999996    2.55999994
   13.79916668   79.45899963    1.28999996    2.55999994
   13.80222225   75.70130157    1.30999994    2.55999994
   13.80833340   75.70130157    1.28999996    2.55999994
   13.81222248   79.78749847    1.30999994    2.55999994
   13.81555557   77.66880035    1.30999994    2.55999994
   13.81638908   80.24610138    1.30999994    2.55999994
   13.81916618   74.61479950    1.30999994    2.55999994
   13.82250023   82.36190033    1.30999994    2.55999994
   13.82583332   79.40779877    1.30999994    2.55999994
   13.82888889   71.76580048    1.30999994    2.55999994
   13.83222198   76.27510071    1.30999994    2.55999994
   13.83527756   81.63960266    1.30999994    2.55999994
   13.83861065   75.39099884    1.30999994    2.55999994
   13.84194374   78.96099854    1.30999994    2.55999994
   13.84499931   80.12470245    1.30999994    2.55999994
   13.85111141   80.12470245    1.30999994    2.55999994
   13.85527802   78.19999695    1.33000004    2.57999992
   13.85833359   78.16000366    1.30999994    2.55999994
   13.86166668   78.30690002    1.30999994    2.55999994
   13.86500072   79.92440033    1.30999994    2.55999994
   13.86805534   81.60189819    1.30999994    2.55999994
   13.87138939   76.09860229    1.30999994    2.55999994
   13.87472248   78.04100037    1.30999994    2.57999992
   13.87777805   76.48110199    1.30999994    2.55999994
   13.88111115   77.34539795    1.28999996    2.55999994
   13.88305569   80.42199707    1.28999996    2.57999992
   13.88472176   81.16850281    1.28999996    2.57999992
   13.88805580   82.77079773    1.28999996    2.55999994
   13.89388847   82.77079773    1.30999994    2.57999992
   13.89805508   76.93779755    1.28999996    2.57999992
   13.90138817   80.16200256    1.26999998    2.55999994
   13.90444374   78.40979767    1.26999998    2.57999992
   13.90777779   76.64700317    1.28999996    2.55999994
   13.91111088   77.15350342    1.26999998    2.57999992
   13.91416645   78.33419800    1.28999996    2.57999992
   13.91638851   82.86389923    1.26999998    2.57999992
   13.91777802   79.90740204    1.28999996    2.57999992
   13.92111111   79.29669952    1.28999996    2.57999992
   13.92444515   77.53659821    1.28999996    2.57999992
   13.92750072   80.26629639    1.28999996    2.57999992
   13.93083382   77.93070221    1.28999996    2.57999992
   13.93666649   77.93070221    1.28999996    2.57999992
   13.94083309   79.57910156    1.28999996    2.57999992
   13.94416714   85.66680145    1.28999996    2.57999992
   13.94722271   84.91110229    1.26999998    2.57999992
   13.96444416   79.57939911    1.26999998    2.59999990
   13.96749973   77.19809723    1.26999998    2.57999992
   13.97055531   79.06099701    1.26999998    2.57999992
   13.97388840   77.31620026    1.26999998    2.57999992
   13.97972202   77.31620026    1.26999998    2.59999990
   13.98388958   78.11440277    1.26999998    2.57999992
   13.98722267   80.30709839    1.26999998    2.57999992
   13.99027824   76.94699860    1.26999998    2.57999992
   13.99361134   78.22160339    1.26999998    2.57999992
   13.99694443   80.80770111    1.26999998    2.57999992
   13.99777794   77.03549957    1.26999998    2.57999992
   14.00027752   82.08170319    1.26999998    2.57999992
   14.00361156   77.55300140    1.26999998    2.57999992
   14.00694466   81.70739746    1.26999998    2.57999992
   14.01000023   78.97879791    1.26999998    2.57999992
   14.01333332   82.87349701    1.26999998    2.57999992
   14.01638889   80.83010101    1.26999998    2.59999990
   14.02277756   80.83010101    1.28999996    2.59999990
   14.02666664   78.92469788    1.28999996    2.59999990
   14.02999973   81.49099731    1.28999996    2.57999992
   14.03111076   83.97480011    1.28999996    2.57999992
   14.03361130   76.75330353    1.28999996    2.59999990
   14.03694534   78.52120209    1.28999996    2.57999992
   14.04027843   76.99079895    1.30999994    2.57999992
   14.04333401   78.18650055    1.33000004    2.57999992
   14.04666710   79.98770142    1.33000004    2.57999992
   14.05000019   77.97280121    1.33000004    2.57999992
   14.05305576   74.33350372    1.30999994    2.57999992
   14.05638885   80.58550262    1.30999994    2.59999990
   14.05944443   76.42880249    1.33000004    2.59999990
   14.06555557   76.42880249    1.30999994    2.57999992
   14.06972218   78.06289673    1.30999994    2.59999990
   14.07277775   80.04959869    1.30999994    2.59999990
   14.07611084   80.90850067    1.28999996    2.59999990
   14.07944393   81.02719879    1.28999996    2.59999990
   14.08249950   74.45960236    1.28999996    2.59999990
   14.08583260   76.21189880    1.26999998    2.57999992
   14.08888817   78.84880066    1.25000000    2.59999990
   14.09222221   79.32469940    1.25000000    2.59999990
   14.09555531   79.29540253    1.25000000    2.59999990
   14.09777737   76.71640015    1.23000002    2.59999990
   14.09888840   75.72080231    1.23000002    2.59999990
   14.10222244   81.44290161    1.23000002    2.59999990
   14.10833359   81.44290161    1.23000002    2.59999990
   14.11250019   82.41049957    1.23000002    2.59999990
   14.11583328   78.81150055    1.23000002    2.59999990
   14.11888885   82.02110291    1.25000000    2.59999990
   14.12222195   79.54519653    1.23000002    2.59999990
   14.12527752   80.56929779    1.25000000    2.59999990
   14.12861156   82.55709839    1.25000000    2.59999990
   14.13111115   79.20819855    1.25000000    2.59999990
   14.13222218   86.97000122    1.25000000    2.59999990
   14.13555527   76.32830048    1.25000000    2.61999989
   14.13888836   75.95210266    1.25000000    2.59999990
   14.14194393   78.10379791    1.25000000    2.59999990
   14.14527798   77.32939911    1.25000000    2.59999990
   14.15111065   77.32939911    1.25000000    2.59999990
   14.15527725   75.67800140    1.25000000    2.61999989
   14.15861034   81.07499695    1.25000000    2.61999989
   14.16166592   81.13140106    1.25000000    2.59999990
   14.16444397   79.62129974    1.25000000    2.59999990
   14.16527748   83.75199890    1.25000000    2.59999990
   14.16861153   78.32910156    1.26999998    2.59999990
   14.17194462   84.80180359    1.26999998    2.59999990
   14.17500019   78.07949829    1.26999998    2.59999990
   14.17833328   78.63359833    1.26999998    2.59999990
   14.18166733   80.47859955    1.26999998    2.59999990
   14.18472195   76.02660370    1.26999998    2.59999990
   14.18805599   75.66989899    1.30999994    2.59999990
   14.19416714   75.66989899    1.30999994    2.59999990
   14.19805527   84.16069794    1.28999996    2.61999989
   14.20138836   85.25029755    1.30999994    2.61999989
   14.20472240   80.52100372    1.28999996    2.61999989
   14.20777798   83.79889679    1.30999994    2.59999990
   14.21111107   83.51920319    1.30999994    2.59999990
   14.21444416   79.36129761    1.30999994    2.59999990
   14.21749973   85.69909668    1.30999994    2.61999989
   14.22083282   77.26210022    1.30999994    2.59999990
   14.22388840   82.26809692    1.30999994    2.61999989
   14.22722149   79.06849670    1.33000004    2.59999990
   14.23055553   81.80290222    1.30999994    2.61999989
   14.23111057   83.71309662    1.30999994    2.61999989
   14.23694515   83.71309662    1.30999994    2.61999989
   14.24111176   80.71420288    1.30999994    2.59999990
   14.24416733   79.85060120    1.33000004    2.61999989
   14.24750042   82.79190063    1.33000004    2.59999990
   14.25083351   78.09570313    1.30999994    2.59999990
   14.25388908   81.54010010    1.30999994    2.61999989
   14.25722218   82.18659973    1.30999994    2.59999990
   14.26027775   85.06980133    1.30999994    2.61999989
   14.26361084   80.64060211    1.30999994    2.61999989
   14.26444435   85.84120178    1.28999996    2.59999990
   14.26722240   79.76290131    1.28999996    2.59999990
   14.27055550   81.35610199    1.26999998    2.61999989
   14.27388859   84.05090332    1.25000000    2.61999989
   14.27972221   84.05090332    1.23000002    2.61999989
   14.28388977   84.24929810    1.23000002    2.59999990
   14.28722286   85.07299805    1.25000000    2.59999990
   14.29027843   82.52980042    1.25000000    2.61999989
   14.29361153   78.36689758    1.25000000    2.61999989
   14.29666710   85.77899933    1.25000000    2.64000010
   14.29777813   80.28459930    1.25000000    2.64000010
   14.30055618   81.41020203    1.26999998    2.61999989
   14.30361176   82.17430115    1.26999998    2.61999989
   14.30694485   81.43589783    1.26999998    2.61999989
   14.31027794   83.74559784    1.28999996    2.61999989
   14.31333351   80.95020294    1.28999996    2.61999989
   14.31666660   85.91380310    1.28999996    2.61999989
   14.32250023   85.91380310    1.30999994    2.61999989
   14.32666683   82.29889679    1.30999994    2.61999989
   14.32999992   82.52709961    1.30999994    2.61999989
   14.33111095   80.50250244    1.30999994    2.61999989
   14.33333302   80.89140320    1.33000004    2.61999989
   14.33666611   80.75150299    1.30999994    2.61999989
   14.34000015   80.07430267    1.30999994    2.59999990
   14.34305477   79.59639740    1.28999996    2.61999989
   14.34638882   80.58840179    1.30999994    2.61999989
   14.34972191   79.68959808    1.28999996    2.61999989
   14.35277843   84.76589966    1.28999996    2.61999989
   14.35611153   85.30339813    1.28999996    2.61999989
   14.35916710   85.62200165    1.30999994    2.61999989
   14.36555576   85.62200165    1.26999998    2.61999989
   14.36944485   85.31780243    1.26999998    2.61999989
   14.37277794   87.52210236    1.25000000    2.61999989
   14.37611103   86.03330231    1.25000000    2.61999989
   14.37916660   79.54180145    1.25000000    2.61999989
   14.38249969   91.31790161    1.25000000    2.61999989
   14.38583279   88.04049683    1.23000002    2.61999989
   14.38888836   85.38670349    1.21000004    2.64000010
   14.39222240   85.34940338    1.23000002    2.61999989
   14.39555550   84.70020294    1.21000004    2.61999989
   14.39777756   85.18039703    1.21000004    2.61999989
   14.39888859   85.46350098    1.21000004    2.64000010
   14.40222168   83.52089691    1.19000006    2.61999989
   14.40833282   83.52089691    1.19000006    2.61999989
   14.41249943   86.83409882    1.19000006    2.61999989
   14.41555500   80.01529694    1.19000006    2.61999989
   14.41888905   80.78589630    1.19000006    2.61999989
   14.42222214   86.31639862    1.19000006    2.61999989
   14.42527771   81.97859955    1.19000006    2.61999989
   14.42861176   84.37619781    1.19000006    2.61999989
   14.43111134   84.61810303    1.19000006    2.64000010
   14.43194485   87.03479767    1.19000006    2.64000010
   14.43527794   81.95989990    1.19000006    2.64000010
   14.43861103   83.29650116    1.19000006    2.61999989
   14.44166660   81.88289642    1.19000006    2.61999989
   14.44499969   80.15059662    1.19000006    2.61999989
   14.45111084   80.15059662    1.21000004    2.61999989
   14.45527744   87.27799988    1.21000004    2.61999989
   14.45861053   85.08840179    1.21000004    2.61999989
   14.46166611   86.28089905    1.21000004    2.61999989
   14.46444416   82.76959991    1.21000004    2.64000010
   14.46527767   84.07430267    1.21000004    2.64000010
   14.46861076   87.80970001    1.21000004    2.64000010
   14.47194386   89.25420380    1.21000004    2.61999989
   14.47499943   88.05079651    1.21000004    2.61999989
   14.47833252   81.41369629    1.21000004    2.61999989
   14.48166656   86.84079742    1.21000004    2.64000010
   14.48472214   84.18910217    1.21000004    2.61999989
   14.48805618   90.23439789    1.21000004    2.61999989
   14.49388885   90.23439789    1.19000006    2.64000010
   14.49805546   84.63619995    1.19000006    2.61999989
   14.50138855   87.03240204    1.19000006    2.64000010
   14.50444412   85.10900116    1.19000006    2.64000010
   14.50777817   82.53959656    1.19000006    2.64000010
   14.51111126   87.42939758    1.16999996    2.64000010
   14.51444435   83.56620026    1.16999996    2.64000010
   14.51749992   80.85070038    1.16999996    2.61999989
   14.52083302   86.41770172    1.16999996    2.64000010
   14.52416611   85.49629974    1.16999996    2.61999989
   14.52722168   91.24579620    1.16999996    2.64000010
   14.53055573   84.81870270    1.16999996    2.64000010
   14.53111076   83.85040283    1.16999996    2.64000010
   14.53694534   83.85040283    1.16999996    2.64000010
   14.54083347   80.22789764    1.16999996    2.64000010
   14.54416752   85.55069733    1.19000006    2.64000010
   14.54750061   87.11990356    1.19000006    2.64000010
   14.55055618   84.77030182    1.19000006    2.64000010
   14.55388927   84.03700256    1.19000006    2.64000010
   14.55722237   79.89939880    1.19000006    2.64000010
   14.56027794   84.36309814    1.19000006    2.64000010
   14.56361103   88.28749847    1.19000006    2.64000010
   14.56444454   84.95539856    1.19000006    2.64000010
   14.56750011   85.74579620    1.16999996    2.64000010
   14.57055569   83.09570313    1.16999996    2.64000010
   14.57388878   85.02590179    1.16999996    2.64000010
   14.57972240   85.02590179    1.14999998    2.64000010
   14.58388901   85.05349731    1.14999998    2.66000009
   14.58694458   84.84570313    1.14999998    2.64000010
   14.59027767   78.53320313    1.13000000    2.64000010
   14.59361076   85.31020355    1.13000000    2.61999989
   14.59666634   86.50830078    1.11000001    2.64000010
   14.59777737   87.85780334    1.11000001    2.64000010
   14.60055637   83.73970032    1.11000001    2.64000010
   14.60361195   81.67420197    1.09000003    2.64000010
   14.60694504   85.95870209    1.09000003    2.64000010
   14.61000061   86.54910278    1.11000001    2.64000010
   14.61333370   87.04350281    1.11000001    2.64000010
   14.61666679   83.84110260    1.11000001    2.64000010
   14.62250042   83.84110260    1.13000000    2.64000010
   14.62666702   82.03530121    1.13000000    2.64000010
   14.63000011   85.42690277    1.13000000    2.64000010
   14.63111115   88.41139984    1.13000000    2.64000010
   14.63361073   85.82489777    1.13000000    2.64000010
   14.63666630   83.83670044    1.14999998    2.64000010
   14.64000034   91.87809753    1.13000000    2.64000010
   14.64333344   90.38839722    1.13000000    2.64000010
   14.64638901   90.35260010    1.14999998    2.64000010
   14.64972210   88.37409973    1.13000000    2.64000010
   14.65305519   98.04019928    1.13000000    2.64000010
   14.65638828   86.89360046    1.13000000    2.64000010
   14.65944386   95.40550232    1.11000001    2.64000010
   14.66527748   95.40550232    1.11000001    2.64000010
   14.66944504   99.30149841    1.11000001    2.64000010
   14.67277813   89.04979706    1.11000001    2.64000010
   14.67583370   91.33270264    1.11000001    2.64000010
   14.67916679   94.60669708    1.11000001    2.64000010
   14.68249989   88.48470306    1.09000003    2.64000010
   14.68555546   85.03060150    1.09000003    2.64000010
   14.68888855   86.66390228    1.09000003    2.64000010
   14.69222260   93.62819672    1.09000003    2.64000010
   14.69527817   84.42800140    1.09000003    2.64000010
   14.69777775   80.36090088    1.09000003    2.66000009
   14.69916630   85.72370148    1.09000003    2.66000009
   14.70222187   92.73940277    1.09000003    2.66000009
   14.70833302   92.73940277    1.09000003    2.64000010
   14.71222210   88.89779663    1.09000003    2.64000010
   14.71555519   87.65200043    1.09000003    2.64000010
   14.71888828   87.79419708    1.09000003    2.64000010
   14.72194386   82.73850250    1.09000003    2.64000010
   14.72527695   83.62480164    1.09000003    2.66000009
   14.72861099   77.41339874    1.09000003    2.66000009
   14.73111057   81.72000122    1.11000001    2.66000009
   14.73222160   84.69290161    1.11000001    2.66000009
   14.73527813   83.26999664    1.11000001    2.66000009
   14.73861122   88.83180237    1.11000001    2.64000010
   14.74166679   87.48179626    1.13000000    2.66000009
   14.74499989   84.43139648    1.13000000    2.66000009
   14.75111103   84.43139648    1.13000000    2.66000009
   14.75527763   88.92539978    1.14999998    2.64000010
   14.75833321   88.62879944    1.14999998    2.64000010
   14.76166630   87.41850281    1.14999998    2.64000010
   14.76444435   87.16300201    1.14999998    2.64000010
   14.76555538   84.50199890    1.14999998    2.64000010
   14.76861095   84.17980194    1.14999998    2.66000009
   14.77194405   84.83589935    1.14999998    2.64000010
   14.77527714   82.92279816    1.14999998    2.66000009
   14.77833271   86.58090210    1.13000000    2.64000010
   14.78166676   86.68119812    1.13000000    2.66000009
   14.78472233   87.24240112    1.13000000    2.66000009
   14.78805637   83.90670013    1.13000000    2.66000009
   14.79388905   83.90670013    1.11000001    2.66000009
   14.79805565   88.76959991    1.09000003    2.64000010
   14.80138874   86.32160187    1.09000003    2.66000009
   14.80444431   84.52100372    1.09000003    2.66000009
   14.80777836   91.58809662    1.09000003    2.66000009
   14.81083393   87.46810150    1.11000001    2.66000009
   14.81444454   84.08350372    1.09000003    2.66000009
   14.81750011   87.63320160    1.11000001    2.66000009
   14.82083321   87.37909698    1.11000001    2.66000009
   14.82416630   84.07460022    1.09000003    2.66000009
   14.82722187   83.46040344    1.07000005    2.66000009
   14.83055592   86.00689697    1.07000005    2.66000009
   14.83111095   87.86689758    1.07000005    2.66000009
   14.83666611   87.86689758    1.07000005    2.66000009
   14.84083271   91.52819824    1.07000005    2.66000009
   14.84416676   89.69069672    1.07000005    2.66000009
   14.84722233   93.63590240    1.07000005    2.66000009
   14.85055637   94.49279785    1.07000005    2.66000009
   14.85388947   87.29660034    1.09000003    2.66000009
   14.85694504   90.27030182    1.09000003    2.66000009
   14.86027813   86.95420074    1.09000003    2.66000009
   14.86361122   91.86219788    1.11000001    2.66000009
   14.86444473   86.50930023    1.11000001    2.66000009
   14.86722279   86.51909637    1.11000001    2.66000009
   14.87027836   84.31629944    1.09000003    2.66000009
   14.87361145   89.23680115    1.11000001    2.66000009
   14.87972260   89.23680115    1.11000001    2.66000009
   14.88361073   91.06700134    1.11000001    2.66000009
   14.88694477   90.28530121    1.13000000    2.67000008
   14.89027786   92.07820129    1.13000000    2.66000009
   14.89361095   95.21330261    1.11000001    2.66000009
   14.89666653   95.07649994    1.09000003    2.66000009
   14.89777756   90.19010162    1.11000001    2.66000009
   14.90055561   89.08630371    1.09000003    2.66000009
   14.90361118   87.35150146    1.09000003    2.66000009
   14.90694427   90.63240051    1.09000003    2.66000009
   14.91027737   90.89240265    1.09000003    2.66000009
   14.91333294   90.27580261    1.09000003    2.67000008
   14.91666698   90.60759735    1.09000003    2.66000009
   14.92250061   90.60759735    1.09000003    2.66000009
   14.92666721   88.78900146    1.11000001    2.66000009
   14.92972279   84.87840271    1.09000003    2.66000009
   14.93111134   87.39099884    1.09000003    2.66000009
   14.93361092   87.21140289    1.09000003    2.66000009
   14.93666649   87.08409882    1.09000003    2.66000009
   14.94000053   85.92189789    1.11000001    2.66000009
   14.94333363   87.92990112    1.11000001    2.66000009
   14.94638920   90.20469666    1.09000003    2.66000009
   14.94972229   86.22769928    1.09000003    2.66000009
   14.95305538   84.44619751    1.09000003    2.64000010
   14.95611095   89.14479828    1.09000003    2.67000008
   14.95944405   88.05889893    1.09000003    2.66000009
   14.98166656   90.78959656    1.09000003    2.67000008
   14.98194408   87.31849670    1.09000003    2.66000009
   14.98527813   88.84279633    1.09000003    2.67000008
   14.98861122   92.17030334    1.07000005    2.66000009
   14.99166679   89.16500092    1.07000005    2.66000009
   14.99499989   92.50530243    1.07000005    2.66000009
   14.99777794   84.16850281    1.07000005    2.66000009
   14.99861145   86.65699768    1.07000005    2.66000009
   15.00166702   83.83190155    1.07000005    2.67000008
   15.00805569   83.83190155    1.09000003    2.66000009
   15.01222229   88.97760010    1.07000005    2.66000009
   15.01555538   89.53600311    1.09000003    2.67000008
   15.01888847   89.83180237    1.09000003    2.67000008
   15.02194405   84.68820190    1.09000003    2.67000008
   15.02527714   88.32080078    1.09000003    2.66000009
   15.02833271   89.97270203    1.09000003    2.67000008
   15.03111076   92.74410248    1.09000003    2.66000009
   15.03222179   88.27549744    1.09000003    2.66000009
   15.03527832   92.07479858    1.09000003    2.66000009
   15.03861141   91.04010010    1.11000001    2.66000009
   15.04194450   87.99210358    1.11000001    2.66000009
   15.04500008   89.54160309    1.11000001    2.66000009
   15.05111122   89.54160309    1.11000001    2.66000009
   15.05527782   90.76200104    1.11000001    2.66000009
   15.05833340   92.60630035    1.13000000    2.67000008
   15.06166649   96.52950287    1.14999998    2.67000008
   15.06444454   91.40550232    1.16999996    2.67000008
   15.06527805   90.68949890    1.16999996    2.66000009
   15.06833363   97.56600189    1.14999998    2.66000009
   15.07166672   88.02770233    1.16999996    2.67000008
   15.07499981   90.66410065    1.14999998    2.66000009
   15.07805538   93.29499817    1.16999996    2.66000009
   15.08138847   92.73739624    1.14999998    2.67000008
   15.08472157   92.91940308    1.14999998    2.66000009
   15.08777714   90.80709839    1.13000000    2.67000008
   15.09388828   90.80709839    1.11000001    2.66000009
   15.09805489   92.81199646    1.11000001    2.67000008
   15.10111141   92.91310120    1.09000003    2.67000008
   15.10444450   99.80950165    1.05999994    2.67000008
   15.10777855   99.12270355    1.05999994    2.66000009
   15.11083412   89.84639740    1.05999994    2.66000009
   15.11416721   91.59179688    1.05999994    2.66000009
   15.11750031   92.27649689    1.05999994    2.66000009
   15.12055588   94.14689636    1.05999994    2.66000009
   15.12388897   91.15799713    1.05999994    2.67000008
   15.12694454   92.17189789    1.07000005    2.67000008
   15.13027763   87.88069916    1.07000005    2.66000009
   15.13111115   89.28919983    1.07000005    2.67000008
   15.13666630   89.28919983    1.07000005    2.67000008
   15.14083290   87.14739990    1.09000003    2.66000009
   15.24277782   -1.00000000   -1.00000000   -1.00000000
   15.33361053   -1.00000000   -1.00000000   -1.00000000
   15.44027805   -1.00000000   -1.00000000   -1.00000000
   15.56388950   -1.00000000   -1.00000000   -1.00000000
   15.60805607   97.20220184    1.01999998    2.69000006
   15.61111164  100.60800171    1.03999996    2.69000006
   15.61444473  101.53299713    1.03999996    2.69000006
   15.61777782   94.12290192    1.01999998    2.67000008
   15.62083340  100.64700317    1.01999998    2.69000006
   15.62416649   90.14230347    1.03999996    2.67000008
   15.62833309   90.14230347    1.03999996    2.69000006
   15.63249969   91.60810089    1.03999996    2.69000006
   15.63555527   97.28029633    1.01999998    2.69000006
   15.63888836   94.09989929    1.03999996    2.69000006
   15.64111137   94.19850159    1.01999998    2.69000006
   15.64249992   92.69680023    1.03999996    2.67000008
   15.64583302   92.80239868    1.01999998    2.69000006
   15.64888859   94.37449646    1.01999998    2.69000006
   15.65222168   95.12940216    1.03999996    2.69000006
   15.65555477   91.02749634    1.03999996    2.69000006
   15.65861034   96.74559784    1.03999996    2.69000006
   15.66194439   96.67120361    1.03999996    2.69000006
   15.66527748   90.60330200    1.03999996    2.69000006
   15.67111111   90.60330200    1.03999996    2.67000008
   15.67527771   89.58280182    1.05999994    2.69000006
   15.67861176   90.56439972    1.05999994    2.69000006
   15.68166733   88.95800018    1.03999996    2.69000006
   15.68500042   90.55359650    1.03999996    2.69000006
   15.68833351   84.32649994    1.03999996    2.69000006
   15.69166660   87.75589752    1.03999996    2.69000006
   15.69472218   93.16179657    1.01999998    2.69000006
   15.69805527   89.80580139    1.03999996    2.69000006
   15.70111084   91.91200256    1.01999998    2.69000006
   15.70444393   85.27069855    1.01999998    2.69000006
   15.70777798   85.29429626    1.00000000    2.69000006
   15.70833302   94.48580170    1.00000000    2.69000006
   15.71388912   94.48580170    0.98000002    2.69000006
   15.71805477   95.63809967    0.98000002    2.69000006
   15.72138882   88.59420013    0.98000002    2.69000006
   15.72472191   93.32319641    0.98000002    2.71000004
   15.72777748   92.63420105    0.98000002    2.69000006
   15.73111057   89.67500305    1.00000000    2.69000006
   15.73416710   94.05699921    0.98000002    2.69000006
   15.73750019   89.91280365    0.98000002    2.71000004
   15.74083328   92.08899689    0.98000002    2.69000006
   15.74166679   90.70140076    0.98000002    2.69000006
   15.74416733   92.22859955    0.98000002    2.71000004
   15.74750042   93.06439972    0.98000002    2.69000006
   15.75055599   96.93650055    0.98000002    2.69000006
   15.75694466   96.93650055    0.98000002    2.69000006
   15.76111126   96.27690125    0.98000002    2.69000006
   15.76416683   92.22019958    0.98000002    2.69000006
   15.76749992   91.41750336    0.98000002    2.69000006
   15.77083302   90.70860291    0.98000002    2.69000006
   15.77388859   96.76589966    0.98000002    2.69000006
   15.77499962   89.02310181    0.98000002    2.71000004
   15.77750015   87.39810181    0.98000002    2.71000004
   15.78083324   86.67700195    0.98000002    2.69000006
   15.78388977   87.31199646    0.98000002    2.71000004
   15.78722286   92.58260345    0.98000002    2.69000006
   15.79055595   85.26309967    0.98000002    2.69000006
   15.79361153   92.16459656    0.98000002    2.69000006
   15.79972267   92.16459656    0.98000002    2.69000006
   15.80388927   93.55259705    0.98000002    2.69000006
   15.80694485   86.14649963    1.00000000    2.69000006
   15.80833340   92.20040131    1.00000000    2.69000006
   15.81055546   88.38369751    0.98000002    2.69000006
   15.81388950   83.89749908    1.00000000    2.69000006
   15.81694412   84.69519806    1.00000000    2.69000006
   15.82027817   89.74890137    1.00000000    2.69000006
   15.82361126   89.27439880    1.01999998    2.69000006
   15.82666683   88.89129639    1.03999996    2.69000006
   15.82999992   86.21410370    1.03999996    2.69000006
   15.83333302   95.30899811    1.03999996    2.69000006
   15.83638859   90.22309875    1.05999994    2.69000006
   15.84249973   90.22309875    1.03999996    2.69000006
   15.84666634   92.59940338    1.03999996    2.71000004
   15.85000038   92.32270050    1.03999996    2.69000006
   15.85305595   87.06089783    1.03999996    2.69000006
   15.85638905   84.88269806    1.03999996    2.69000006
   15.85972214   94.21119690    1.03999996    2.69000006
   15.86277771   86.03269958    1.01999998    2.69000006
   15.86611176   90.84639740    1.01999998    2.69000006
   15.86916637   83.47699738    1.01999998    2.69000006
   15.87250042   79.51770020    1.01999998    2.69000006
   15.87500000   86.57180023    1.01999998    2.71000004
   15.87611103   85.76010132    1.01999998    2.71000004
   15.87944412   88.76409912    1.01999998    2.71000004
   15.88527775   88.76409912    1.03999996    2.69000006
   15.88944435   79.61489868    1.07000005    2.71000004
   15.89277744   85.16059875    1.05999994    2.69000006
   15.89583302   86.50839996    1.03999996    2.69000006
   15.89916611   88.26239777    1.03999996    2.69000006
   15.90249920   84.18450165    1.05999994    2.69000006
   15.90555477   81.55200195    1.03999996    2.69000006
   15.90833282   90.05570221    1.03999996    2.71000004
   15.90916634   85.03880310    1.03999996    2.71000004
   15.91249943   88.77059937    1.03999996    2.69000006
   15.91583252   87.94039917    1.03999996    2.69000006
   15.91888905   86.16269684    1.03999996    2.71000004
   15.92222214   89.42569733    1.01999998    2.71000004
   15.92833328   89.42569733    1.03999996    2.71000004
   15.93222237   85.42890167    1.05999994    2.71000004
   15.93555546   91.67849731    1.05999994    2.71000004
   15.93888855   91.86100006    1.05999994    2.69000006
   15.94166660   86.19509888    1.05999994    2.71000004
   15.94250011   82.84809875    1.05999994    2.71000004
   15.94583321   88.12380219    1.07000005    2.69000006
   15.94888878   82.74199677    1.05999994    2.71000004
   15.95222187   87.21790314    1.05999994    2.69000006
   15.95555496   86.83689880    1.07000005    2.71000004
   15.95861053   85.78410339    1.07000005    2.69000006
   15.96194458   89.19090271    1.09000003    2.69000006
   15.96527767   90.73889923    1.07000005    2.69000006
   15.97111034   90.73889923    1.11000001    2.69000006
   15.97527695   87.57730103    1.14999998    2.69000006
   15.97833252   85.97560120    1.16999996    2.71000004
   15.98166656   80.38760376    1.19000006    2.69000006
   15.98500061   90.34329987    1.19000006    2.71000004
   15.98805618   86.22039795    1.19000006    2.71000004
   15.99138927   81.38259888    1.13000000    2.71000004
   15.99472237   85.51640320    1.13000000    2.71000004
   15.99777794   90.65249634    1.14999998    2.71000004
   16.00111198   84.36990356    1.13000000    2.69000006
   16.00416756   85.42819977    1.13000000    2.69000006
   16.00749969   82.82330322    1.11000001    2.69000006
   16.00833321   87.78700256    1.11000001    2.69000006
   16.01388931   87.78700256    1.11000001    2.71000004
   16.01805496   85.15820313    1.07000005    2.71000004
   16.02138901   84.40599823    1.07000005    2.69000006
   16.02444458   90.90139771    1.05999994    2.69000006
   16.02777672   86.03350067    1.05999994    2.71000004
   16.03111076   81.02529907    1.03999996    2.69000006
   16.03416634   88.57890320    1.03999996    2.69000006
   16.03750038   87.26629639    1.01999998    2.71000004
   16.04055595   84.50150299    1.01999998    2.71000004
   16.04166603   85.45050049    1.01999998    2.69000006
   16.04416656   83.70809937    1.00000000    2.69000006
   16.04749870   94.49379730    1.00000000    2.71000004
   16.05083275   89.37380219    0.98000002    2.71000004
   16.05666542   89.37380219    0.98000002    2.71000004
   16.06083298   92.22209930    0.98000002    2.69000006
   16.06416512   84.29750061    1.00000000    2.71000004
   16.06750107   84.25869751    1.00000000    2.71000004
   16.07055664   86.48909760    1.00000000    2.71000004
   16.07389069   87.29250336    0.98000002    2.71000004
   16.07500076   85.77200317    0.98000002    2.71000004
   16.07722282   87.61669922    0.98000002    2.69000006
   16.08055687   91.49469757    0.98000002    2.71000004
   16.08388901   84.22339630    0.98000002    2.69000006
   16.08694458   87.61949921    0.98000002    2.71000004
   16.09027863   88.45529938    0.98000002    2.71000004
   16.09333420   88.59950256    1.00000000    2.69000006
   16.09972191   88.59950256    0.98000002    2.71000004
   16.10388947   84.53919983    0.98000002    2.69000006
   16.10694504   83.83239746    0.98000002    2.69000006
   16.10833359   84.16929626    0.98000002    2.69000006
   16.11055565   96.77030182    0.92000002    2.71000004
   16.11388969   83.57230377    0.92000002    2.71000004
   16.11722183   83.63580322    0.92000002    2.69000006
   16.12027740   84.76740265    0.89999998    2.71000004
   16.12361145   83.15850067    0.89999998    2.71000004
   16.12666702   84.07520294    0.89999998    2.71000004
   16.13000107   85.02860260    0.89999998    2.71000004
   16.13333321   84.75009918    0.89999998    2.71000004
   16.13638878   85.10810089    0.92000002    2.71000004
   16.14249992   85.10810089    0.89999998    2.71000004
   16.14666748   86.25610352    0.92000002    2.71000004
   16.14972115   85.54319763    0.92000002    2.71000004
   16.15305519   89.84230042    0.92000002    2.71000004
   16.15638924   86.82430267    0.92000002    2.71000004
   16.15944481   90.53389740    0.94000000    2.71000004
   16.16277695   84.73789978    0.92000002    2.71000004
   16.16611099   89.81670380    0.92000002    2.69000006
   16.16916656   88.36399841    0.94000000    2.71000004
   16.17249870   82.70179749    0.94000000    2.71000004
   16.17499924   85.57319641    0.94000000    2.71000004
   16.17638779   85.79029846    0.94000000    2.71000004
   16.17944336   89.19129944    0.95999998    2.71000004
   16.18527603   89.19129944    0.98000002    2.71000004
   16.18944359   87.22200012    0.98000002    2.71000004
   16.19277763   82.76619720    0.98000002    2.71000004
   16.19583321   87.00509644    0.98000002    2.71000004
   16.19916534   86.61080170    1.00000000    2.71000004
   16.20222282   86.68229675    1.00000000    2.71000004
   16.20555687   84.30239868    1.00000000    2.69000006
   16.20833397   84.44349670    0.98000002    2.69000006
   16.20916748   80.29080200    0.98000002    2.69000006
   16.21250153   78.74700165    1.00000000    2.71000004
   16.21583366   84.70790100    1.00000000    2.69000006
   16.21888924   81.24479675    0.98000002    2.71000004
   16.22222328   89.73300171    0.98000002    2.69000006
   16.22805595   89.73300171    1.00000000    2.71000004
   16.23222351   90.90019989    0.98000002    2.71000004
   16.23555565   83.19570160    0.98000002    2.71000004
   16.23861122   88.94750214    0.95999998    2.71000004
   16.24166679   90.15319824    0.95999998    2.71000004
   16.24222183   83.86350250    0.95999998    2.71000004
   16.24555588   90.68720245    0.95999998    2.71000004
   16.24888992   84.65529633    0.95999998    2.71000004
   16.25194359   83.68560028    0.95999998    2.71000004
   16.25527763   87.00579834    0.95999998    2.71000004
   16.25861168   90.15869904    0.95999998    2.71000004
   16.26166725   92.40920258    0.95999998    2.71000004
   16.26499939   88.47949982    0.95999998    2.71000004
   16.27111053   88.47949982    0.95999998    2.71000004
   16.27499962   94.62689972    0.94000000    2.71000004
   16.27833366   81.39140320    0.94000000    2.71000004
   16.28166580   79.94699860    0.95999998    2.71000004
   16.28472137   85.74870300    0.95999998    2.71000004
   16.28805542   83.85910034    0.98000002    2.71000004
   16.29138756   86.72979736    0.98000002    2.71000004
   16.29444313   85.06790161    0.98000002    2.71000004
   16.29777718   85.38009644    1.00000000    2.71000004
   16.30083275   85.05639648    1.00000000    2.71000004
   16.30416679   80.60469818    1.00000000    2.71000004
   16.30749893   87.87719727    1.00000000    2.71000004
   16.30833244   83.55829620    0.98000002    2.71000004
   16.31388855   83.55829620    0.98000002    2.71000004
   16.31805611   80.05310059    0.98000002    2.71000004
   16.32111168   84.93470001    0.98000002    2.71000004
   16.32444572   88.33950043    1.00000000    2.71000004
   16.32777786   93.35500336    1.00000000    2.71000004
   16.33083344   85.69699860    1.01999998    2.71000004
   16.33416748   84.98329926    1.01999998    2.71000004
   16.33722305   92.79920197    1.01999998    2.71000004
   16.34055710   92.07869720    1.01999998    2.71000004
   16.34166718   92.03040314    1.01999998    2.71000004
   16.34416771   84.19339752    1.01999998    2.71000004
   16.34749985   86.63079834    1.01999998    2.69000006
   16.35083389   92.44499969    1.00000000    2.71000004
   16.35666656   92.44499969    1.00000000    2.73000002
   16.36083412   84.41030121    1.00000000    2.71000004
   16.36416626   84.70169830    1.01999998    2.71000004
   16.36722183   92.08910370    1.00000000    2.73000002
   16.37055588   84.18720245    1.00000000    2.71000004
   16.37388992   85.56349945    1.03999996    2.69000006
   16.37500000   87.99700165    1.03999996    2.69000006
   16.37722206   86.61479950    1.03999996    2.71000004
   16.38055611   82.93350220    1.03999996    2.71000004
   16.38388824   87.66989899    1.03999996    2.71000004
   16.38694382   85.00360107    0.98000002    2.71000004
   16.39027786   87.90609741    0.98000002    2.71000004
   16.39361191   86.27729797    0.95999998    2.71000004
   16.39944458   86.27729797    1.01999998    2.71000004
   16.40361023   87.63739777    1.00000000    2.71000004
   16.40694427   85.19170380    1.00000000    2.71000004
   16.40833282   85.08910370    1.00000000    2.71000004
   16.41027832   83.24749756    1.00000000    2.71000004
   16.41361046   84.07240295    0.98000002    2.71000004
   16.41694450   86.36229706    0.98000002    2.71000004
   16.42000008   87.48459625    0.98000002    2.71000004
   16.42333221   89.53399658    0.98000002    2.71000004
   16.42666626   90.17690277    0.98000002    2.71000004
   16.42972183   89.60119629    0.98000002    2.71000004
   16.43305397   88.71890259    0.98000002    2.71000004
   16.43638802   90.55300140    0.98000002    2.71000004
   16.44249916   90.55300140    1.00000000    2.71000004
   16.44638824   80.88739777    1.00000000    2.73000002
   16.44972038   81.21309662    1.00000000    2.71000004
   16.45305634   83.95520020    1.00000000    2.71000004
   16.45611191   88.51409912    1.01999998    2.71000004
   16.45944595   89.16359711    1.01999998    2.71000004
   16.46277809   82.78009796    1.03999996    2.71000004
   16.46583366   92.97460175    1.03999996    2.71000004
   16.46916771   88.21769714    1.05999994    2.71000004
   16.47249985   85.13480377    1.05999994    2.71000004
   16.47500038   87.34089661    1.05999994    2.69000006
   16.47583389   86.88120270    1.05999994    2.71000004
   16.47916794   94.95690155    1.07000005    2.71000004
   16.48527718   94.95690155    1.09000003    2.71000004
   16.48944473   82.22540283    1.09000003    2.71000004
   16.49250031   77.71949768    1.09000003    2.71000004
   16.49583435   86.68609619    1.09000003    2.71000004
   16.49916649   85.61720276    1.11000001    2.69000006
   16.50222206   86.96420288    1.11000001    2.71000004
   16.50555611   85.10230255    1.11000001    2.71000004
   16.50833321   85.38120270    1.11000001    2.71000004
   16.50888824   83.84269714    1.13000000    2.71000004
   16.51222229   84.36289978    1.13000000    2.71000004
   16.51555634   79.64369965    1.13000000    2.71000004
   16.51861000   85.63490295    1.13000000    2.71000004
   16.52194405   82.31189728    1.13000000    2.71000004
   16.52805519   82.31189728    1.13000000    2.71000004
   16.53222275   86.71630096    1.11000001    2.71000004
   16.53555489   85.22650146    1.11000001    2.69000006
   16.53861046   82.12899780    1.13000000    2.71000004
   16.54166603   82.53759766    1.13000000    2.71000004
   16.54222107   80.92510223    1.13000000    2.71000004
   16.54555511   83.12069702    1.13000000    2.71000004
   16.54888916   79.37249756    1.11000001    2.71000004
   16.55194283   83.31179810    1.09000003    2.71000004
   16.55527687   86.78749847    1.09000003    2.71000004
   16.55861092   83.62509918    1.09000003    2.71000004
   16.56166649   83.91089630    1.07000005    2.71000004
   16.56499863   90.12619781    1.07000005    2.71000004
   16.57083511   90.12619781    1.05999994    2.71000004
   16.57500076   85.84780121    1.05999994    2.71000004
   16.57833481   85.28700256    1.05999994    2.71000004
   16.58139038   84.99890137    1.05999994    2.71000004
   16.58472252   83.33219910    1.03999996    2.71000004
   16.58805656   83.35520172    1.03999996    2.71000004
   16.59111214   84.86889648    1.03999996    2.71000004
   16.59444427   83.45300293    1.03999996    2.71000004
   16.59777832   83.02459717    1.03999996    2.73000002
   16.60083389   84.80829620    1.03999996    2.73000002
   16.60416794   87.36289978    1.01999998    2.71000004
   16.60722351   84.60870361    1.03999996    2.71000004
   16.60833359   86.80449677    1.03999996    2.71000004
   16.62888908   86.80449677    1.03999996    2.71000004
   16.63305473   83.71520233    1.05999994    2.71000004
   16.63638878   82.66799927    1.07000005    2.71000004
   16.63972282   87.66590118    1.05999994    2.71000004
   16.64166641   86.77500153    1.05999994    2.71000004
   16.64333344   87.24569702    1.07000005    2.71000004
   16.64638901   88.22170258    1.07000005    2.71000004
   16.64972115   82.48979950    1.07000005    2.71000004
   16.65277672   74.73090363    1.09000003    2.69000006
   16.65611076   85.69080353    1.09000003    2.71000004
   16.65944481   82.31479645    1.11000001    2.69000006
   16.66250038   82.49739838    1.09000003    2.71000004
   16.66583252   82.82689667    1.11000001    2.71000004
   16.67166519   82.82689667    1.11000001    2.73000002
   16.67583275   85.02269745    1.11000001    2.71000004
   16.67916679   87.93450165    1.11000001    2.71000004
   16.68222237   85.78769684    1.13000000    2.71000004
   16.68555450   88.47109985    1.14999998    2.69000006
   16.68888855   87.12329865    1.13000000    2.71000004
   16.69194412   83.59169769    1.14999998    2.69000006
   16.69527626   86.63960266    1.14999998    2.71000004
   16.69861031   80.64749908    1.16999996    2.69000006
   16.70166779   83.06479645    1.16999996    2.71000004
   16.70499992   83.99320221    1.16999996    2.69000006
   16.70805550   83.85209656    1.16999996    2.71000004
   16.70861244   86.32540131    1.16999996    2.71000004
   16.71472359   86.32540131    1.19000006    2.71000004
   16.71888924   82.43000031    1.16999996    2.71000004
   16.72194481   83.13899994    1.19000006    2.71000004
   16.72527885   81.90390015    1.16999996    2.71000004
   16.72833443   88.56359863    1.19000006    2.71000004
   16.73166656   84.30950165    1.19000006    2.71000004
   16.73500061   81.59149933    1.16999996    2.71000004
   16.73805618   81.65950012    1.16999996    2.71000004
   16.74138832   90.06420135    1.16999996    2.71000004
   16.74194527   89.07849884    1.16999996    2.71000004
   16.74500084   82.18139648    1.16999996    2.71000004
   16.74833298   89.22119904    1.16999996    2.71000004
   16.75138855   85.83480072    1.16999996    2.71000004
   16.75749969   85.83480072    1.16999996    2.69000006
   16.76166725   88.40360260    1.19000006    2.71000004
   16.76472282   88.32969666    1.14999998    2.71000004
   16.76805496   84.26020050    1.14999998    2.71000004
   16.77138901   84.39450073    1.14999998    2.71000004
   16.77444458   84.65920258    1.13000000    2.71000004
   16.77527809   79.36209869    1.13000000    2.71000004
   16.77805519   82.87950134    1.13000000    2.71000004
   16.78138924   82.23079681    1.13000000    2.71000004
   16.78444481   88.63220215    1.13000000    2.71000004
   16.78777695   88.20829773    1.13000000    2.71000004
   16.79111099   93.83619690    1.13000000    2.71000004
   16.79416656   83.55110168    1.11000001    2.71000004
   16.80027771   83.55110168    1.13000000    2.71000004
   16.80444336   85.89550018    1.11000001    2.69000006
   16.80777740   83.17459869    1.11000001    2.71000004
   16.80861092   83.16230011    1.11000001    2.71000004
   16.81138802   89.00109863    1.13000000    2.71000004
   16.81472206   94.34519958    1.13000000    2.71000004
   16.81777954   87.07460022    1.14999998    2.71000004
   16.82111168   86.62629700    1.13000000    2.71000004
   16.82444572   85.10199738    1.14999998    2.71000004
   16.82750130   84.70210266    1.14999998    2.71000004
   16.83083344   85.73229980    1.16999996    2.71000004
   16.83388901   87.81549835    1.16999996    2.71000004
   16.83722305   83.58679962    1.16999996    2.71000004
   16.84305573   83.58679962    1.19000006    2.71000004
   16.84722328   80.80020142    1.21000004    2.71000004
   16.85055542   84.97280121    1.23000002    2.71000004
   16.85361099   84.87629700    1.23000002    2.71000004
   16.85694504   83.27359772    1.23000002    2.69000006
   16.86027908   83.28990173    1.25000000    2.69000006
   16.86333466   88.00389862    1.23000002    2.71000004
   16.86666679   85.07579803    1.21000004    2.69000006
   16.87000084   77.34159851    1.21000004    2.69000006
   16.87305641   81.14630127    1.21000004    2.69000006
   16.87527847   81.95490265    1.21000004    2.71000004
   16.87666702   79.39759827    1.21000004    2.71000004
   16.88000107   83.64050293    1.19000006    2.71000004
   16.88611031   83.64050293    1.19000006    2.71000004
   16.88999939   85.16829681    1.19000006    2.69000006
   16.89333344   84.31420135    1.16999996    2.69000006
   16.89666748   81.85990143    1.19000006    2.71000004
   16.89972115   83.92500305    1.19000006    2.71000004
   16.90305519   81.26899719    1.16999996    2.69000006
   16.90638924   80.49780273    1.16999996    2.71000004
   16.90888786   80.83300018    1.16999996    2.71000004
   16.90999985   82.24810028    1.16999996    2.71000004
   16.91333389   81.51069641    1.16999996    2.69000006
   16.91638756   80.50869751    1.16999996    2.71000004
   16.91972160   88.14720154    1.16999996    2.71000004
   16.92305565   82.01149750    1.19000006    2.69000006
   16.92888832   82.01149750    1.19000006    2.69000006
   16.93305397   87.94850159    1.19000006    2.71000004
   16.93610954   85.34169769    1.21000004    2.71000004
   16.93944359   91.75009918    1.21000004    2.69000006
   16.94194412   79.60169983    1.19000006    2.71000004
   16.94305420   84.80979919    1.19000006    2.71000004
   16.94638824   87.09249878    1.19000006    2.71000004
   16.94944382   83.44110107    1.19000006    2.71000004
   16.95277786   85.67539978    1.19000006    2.69000006
   16.95611191   83.70970154    1.19000006    2.69000006
   16.95916748   84.04769897    1.21000004    2.69000006
   16.96250153   89.42890167    1.23000002    2.69000006
   16.96583366   88.40149689    1.26999998    2.69000006
   16.97166634   88.40149689    1.26999998    2.69000006
   16.97583389   90.95429993    1.26999998    2.69000006
   16.97916794   86.10520172    1.25000000    2.69000006
   16.98222351   90.65850067    1.25000000    2.71000004
   16.98555565   86.96579742    1.25000000    2.71000004
   16.98861122   86.21730042    1.26999998    2.71000004
   16.99194527   86.51989746    1.26999998    2.71000004
   16.99527740   90.58529663    1.26999998    2.71000004
   16.99833298   86.87409973    1.26999998    2.71000004
   17.00166702   87.29900360    1.26999998    2.71000004
   17.00499916   86.85040283    1.26999998    2.71000004
   17.00805473   90.09410095    1.26999998    2.69000006
   17.00888824   91.38210297    1.26999998    2.69000006
   17.01444435   91.38210297    1.26999998    2.71000004
   17.01861000   90.41470337    1.28999996    2.71000004
   17.02194405   87.22170258    1.30999994    2.69000006
   17.02499962   86.54779816    1.30999994    2.69000006
   17.02833366   87.01959991    1.30999994    2.71000004
   17.03166580   83.60590363    1.30999994    2.69000006
   17.03472137   87.80770111    1.36000001    2.71000004
   17.03805542   81.47879791    1.36000001    2.69000006
   17.04111099   85.32219696    1.36000001    2.69000006
   17.04222107   86.15339661    1.36000001    2.69000006
   17.04472160   82.57119751    1.34000003    2.69000006
   17.04805565   87.15180206    1.33000004    2.71000004
   17.05138779   89.86440277    1.34000003    2.69000006
   17.05749893   89.86440277    1.44000006    2.69000006
   17.06138802   87.68340302    1.41999996    2.69000006
   17.06472206   83.91829681    1.38000000    2.69000006
   17.06805611   86.62059784    1.30999994    2.71000004
   17.07111168   89.19940186    1.26999998    2.73000002
   17.07444572   89.94390106    1.26999998    2.69000006
   17.07555580   86.22779846    1.26999998    2.69000006
   17.07805634   83.28350067    1.23000002    2.71000004
   17.08139038   83.61080170    1.21000004    2.71000004
   17.08444595   85.64790344    1.19000006    2.69000006
   17.08777809   78.36589813    1.19000006    2.71000004
   17.09111214   78.29239655    1.19000006    2.71000004
   17.09416771   83.85079956    1.16999996    2.69000006
   17.10027885   83.85079956    1.16999996    2.69000006
   17.10444450   84.49099731    1.16999996    2.69000006
   17.10750008   83.23010254    1.16999996    2.69000006
   17.10888863   81.80380249    1.16999996    2.69000006
   17.11111069   85.69869995    1.16999996    2.69000006
   17.11444473   85.49490356    1.13000000    2.69000006
   17.11750031   82.82279968    1.13000000    2.71000004
   17.12083435   79.03109741    1.14999998    2.71000004
   17.12416649   81.98419952    1.16999996    2.69000006
   17.12750053   84.27819824    1.19000006    2.71000004
   17.13055611   80.82409668    1.19000006    2.71000004
   17.13388824   82.07420349    1.19000006    2.71000004
   17.13694382   81.87020111    1.19000006    2.69000006
   17.14305496   81.87020111    1.19000006    2.69000006
   17.14722252   80.21160126    1.21000004    2.69000006
   17.15027809  120.18900299    1.23000002    2.69000006
   17.15361023  177.38699341    1.23000002    2.69000006
   17.15694427   82.91560364    1.25000000    2.71000004
   17.15999985   78.58760071    1.25000000    2.69000006
   17.16333389   78.46330261    1.25000000    2.71000004
   17.16666603   79.63330078    1.25000000    2.71000004
   17.16972160   80.99939728    1.25000000    2.71000004
   17.17305565   87.10729980    1.21000004    2.69000006
   17.17555428   87.65850067    1.21000004    2.71000004
   17.17666626   83.68800354    1.19000006    2.71000004
   17.18000031   80.41059875    1.19000006    2.71000004
   17.18583298   80.41059875    1.14999998    2.71000004
   17.18999863   83.32969666    1.14999998    2.69000006
   17.19333267   82.91680145    1.14999998    2.67000008
   17.19638824   78.83910370    1.14999998    2.69000006
   17.19972038   86.64510345    1.13000000    2.69000006
   17.20305634   -1.00000000    1.13000000    2.69000006
   17.20611191   87.95760345    1.14999998    2.69000006
   17.20888901   81.78250122    1.21000004    2.71000004
   17.20972252   85.06670380    1.21000004    2.71000004
   17.21305656   84.15470123    1.25000000    2.69000006
   17.21638870   85.10579681    1.26999998    2.69000006
   17.21944427   84.02320099    1.34000003    2.71000004
   17.22277832   85.56300354    1.34000003    2.69000006
   17.22861099   85.56300354    1.34000003    2.69000006
   17.23277855   84.47360229    1.34000003    2.69000006
   17.23611069   84.68759918    1.38000000    2.69000006
   17.23944473   84.16670227    1.50000000    2.69000006
   17.24222183   85.07929993    1.39999998    2.71000004
   17.24277878   85.01629639    1.39999998    2.71000004
   17.24611092   87.13110352    1.19000006    2.71000004
   17.24916649   81.61019897    1.13000000    2.69000006
   17.25250053   -1.00000000    1.14999998    2.69000006
   17.25583267   -1.00000000    1.14999998    2.69000006
   17.25888824   89.43109894    1.09000003    2.69000006
   17.26222229   88.12640381    1.07000005    2.69000006
   17.26555634   86.26979828    1.05999994    2.71000004
   17.27166557   86.26979828    1.05999994    2.69000006
   17.27583313   81.62640381    1.05999994    2.71000004
   17.27888870   77.92050171    1.11000001    2.71000004
   17.28222275   80.06289673    1.13000000    2.69000006
   17.28555489   81.15850067    1.28999996    2.69000006
   17.28861046   84.65039825    1.58000004    2.69000006
   17.29194450   82.21510315    1.64999998    2.69000006
   17.29500008   82.69899750    1.88000000    2.69000006
   17.29833221   85.28070068    2.59999990    2.67000008
   17.30166626   -1.00000000    3.51999998    2.67000008
   17.30472183   -1.00000000    4.36999989    2.66000009
   17.30805397   87.56079865    4.90999985    2.61999989
   17.30888748   85.19120026    4.90999985    2.61999989
   17.31444359   85.19120026    4.90999985    2.59999990
   17.31861115   92.18199921    4.90999985    2.51999998
   17.32166672   85.66660309    4.90999985    2.34999990
   17.32500076  110.50599670    4.90999985    2.48000002
   17.32833481   86.95549774    4.90999985    2.50000000
   17.33139038  104.42199707    4.90999985    2.48000002
   17.33472252  104.43299866    4.90999985    2.48000002
   17.33805656  174.78900146    4.90999985    2.34999990
   17.34111214  123.94999695    4.90999985    2.26999998
   17.34222221  167.20300293    4.90999985    2.26999998
   17.34472275  123.60800171    4.90999985    2.44000006
   17.34805679  149.62500000    4.90999985    2.42000008
   17.35138893   -1.00000000    4.90999985    2.50000000
   17.35722351   -1.00000000    4.90999985    2.53999996
   17.36138916  156.28500366    4.90999985    2.46000004
   17.36472321  180.29400635    4.90999985    2.42000008
   17.36777878  117.17700195    4.90999985    2.51999998
   17.37111092  129.25700378    4.90999985    2.46000004
   17.37444496  111.50800323    4.90999985    2.53999996
   17.37555504  136.60499573    4.90999985    2.53999996
   17.37777710  151.75599670    4.90999985    2.39000010
   17.38111115  119.80599976    4.90999985    2.51999998
   17.38444519  103.29299927    4.90999985    2.51999998
   17.38750076  103.42500305    4.90999985    2.55999994
   17.39083290  118.22899628    4.90999985    2.53999996
   17.39388847   88.40789795    4.90999985    2.53999996
   17.40416718   -1.00000000    4.90999985    2.64000010
   17.40749931   93.22810364    4.90999985    2.55999994
   17.40888786   93.36090088    4.90999985    2.55999994
   17.41083336  128.37199402    4.90999985    2.53999996
   17.41416550   96.67500305    4.90999985    2.53999996
   17.41749954  112.32399750    4.90999985    2.51999998
   17.42055511   92.47399902    4.90999985    2.48000002
   17.42388916   87.17379761    4.90999985    2.50000000
   17.42694473   87.50930023    4.90999985    2.53999996
   17.43027687  105.52700043    4.90999985    2.51999998
   17.43361092   90.18160248    4.90999985    2.48000002
   17.43666649   92.86289978    4.90999985    2.44000006
   17.44305420   92.86289978    4.90999985    2.40000010
   17.44722176  105.99299622    4.90999985    2.28999996
   17.45027924   -1.00000000    4.90999985    2.34999990
   17.45361137   -1.00000000    4.90999985    2.07999992
   17.45666695   -1.00000000   -1.00000000   -1.00000000
   17.46000099  162.11099243    4.90999985    2.19000006
   17.46333504  157.86799622    4.90999985    2.32999992
   17.46638870  143.92399597    4.90999985    2.00000000
   17.46972275  195.73899841    4.90999985    2.01999998
   17.47305679   -1.00000000    4.90999985    1.86000001
   17.47638893   -1.00000000    4.90999985    1.66999996
   17.47972298   -1.00000000    4.90999985    1.46000004
   17.48999977   -1.00000000    4.90999985    1.23000002
   17.49305534   -1.00000000    4.90999985    1.07000005
   17.49638939   -1.00000000    4.90999985    1.11000001
   17.49944496   -1.00000000    4.90999985    1.05999994
   17.50277710   -1.00000000    4.90999985    1.01999998
   17.50611115   -1.00000000    4.90999985    1.16999996
   17.50944519   -1.00000000    4.90999985    0.94000000
   17.51277733   -1.00000000    4.90999985    1.03999996
   17.51611137   -1.00000000    4.90999985    1.14999998
   17.51916695   -1.00000000    4.90999985    1.21000004
   17.52249908   -1.00000000    4.90999985    1.19000006
   17.53277779   -1.00000000    4.90999985    1.28999996
   17.53583336   -1.00000000    4.90999985    1.09000003
   17.53916550   -1.00000000    4.90999985    1.11000001
   17.54277802   -1.00000000    4.90999985    1.19000006
   17.54611015   -1.00000000    4.90999985    1.16999996
   17.54916573   -1.00000000    4.90999985    1.25000000
   17.55249977   -1.00000000    4.90999985    1.50000000
   17.55555534   -1.00000000    4.90999985    1.44000006
   17.55888748   -1.00000000    4.90999985    1.46000004
   17.56222153   -1.00000000    4.90999985    1.28999996
   17.56527710   -1.00000000    4.90999985    1.16999996
   17.57555580   -1.00000000    4.90999985    1.39999998
   17.57888985   -1.00000000    4.90999985    1.63000000
   17.58194542   -1.00000000    4.90999985    1.73000002
   17.58527756   -1.00000000    4.90999985    1.55999994
   17.58861160   -1.00000000    4.90999985    1.55999994
   17.59166718   -1.00000000    4.90999985    1.73000002
   17.59500122   -1.00000000    4.90999985    1.73000002
   17.59805679   -1.00000000    4.90999985    1.83000004
   17.60138893   -1.00000000    4.90999985    1.86000001
   17.60472298   -1.00000000    4.90999985    1.85000002
   17.60777855   -1.00000000    4.90999985    1.75000000
   17.61833382   -1.00000000    4.90999985    2.17000008
   17.62222290   -1.00000000    4.90999985    2.17000008
   17.62555504   -1.00000000    4.90999985    2.25000000
   17.64527702   -1.00000000    4.90999985    2.17000008
   17.64833260   -1.00000000    4.90999985    2.13000011
   17.65166664   -1.00000000    4.90999985    2.21000004
   17.66138840   -1.00000000    4.90999985    2.34999990
   17.66472244  143.10600281    4.90999985    2.25000000
   17.66805458  109.66699982    4.90999985    2.26999998
   17.67111015  131.42599487    4.90999985    2.21000004
   17.67444420  119.07299805    4.90999985    2.21000004
   17.67583275  103.62799835    4.90999985    2.25000000
   17.67777634  126.04399872    4.90999985    2.25000000
   17.68111038  162.47500610    4.90999985    2.21000004
   17.68444443  223.78399658    4.90999985    2.03999996
   17.68750000   36.68550110    4.90999985    1.89999998
   17.69083214   23.57019997    4.90999985    1.78999996
   17.69416618  142.93600464    4.90999985    1.88000000
   17.70027924  142.93600464    4.90999985    1.78999996
   17.70444489   -1.00000000    4.90999985    1.69000006
   17.70777893   -1.00000000    4.90999985    1.51999998
   17.71111107   -1.00000000    4.90999985    1.51999998
   17.71444511   -1.00000000    4.90999985    1.61000001
   17.71750069   -1.00000000    4.90999985    1.53999996
   17.72083473   -1.00000000    4.90999985    1.38000000
   17.72416687   -1.00000000    4.90999985    1.58000004
   17.72722244   -1.00000000    4.90999985    1.76999998
   17.73055649  176.16600037    4.90999985    1.80999994
   17.73388863   50.63629913    4.90999985    1.85000002
   17.73694420  185.00399780    4.90999985    1.86000001
   17.74305534  185.00399780    4.90999985    2.00000000
   17.74722290  115.80000305    4.90999985    2.15000010
   17.75055504  136.78500366    4.90999985    2.32999992
   17.75361061  105.27999878    4.90999985    2.05999994
   17.75694466   97.13629913    4.90999985    2.32999992
   17.76027870  105.86000061    4.90999985    2.46000004
   17.76333427   97.29219818    4.90999985    2.40000010
   17.76666641   90.15000153    4.90999985    2.48000002
   17.77000046   98.63610077    4.90999985    2.48000002
   17.77305603   94.27439880    4.90999985    2.51999998
   17.77583313  107.22100067    4.90999985    2.51999998
   17.77694511   92.35729980    4.90999985    2.48000002
   17.78000069   97.22219849    4.90999985    2.42000008
   17.78610992   97.22219849    4.90999985    2.50000000
   17.79027748   88.14140320    4.90999985    2.51999998
   17.79333305   89.19210052    4.90999985    2.57999992
   17.79666710   89.23529816    4.90999985    2.53999996
   17.79972076  107.51300049    4.90999985    2.50000000
   17.80305481  117.65399933    4.90999985    2.40000010
   17.80638885  124.38500214    4.90999985    2.11999989
   17.80916595  107.64099884    4.90999985    2.32999992
   17.80999947  108.20500183    4.90999985    2.40000010
   17.81305504   98.05650330    4.90999985    2.32999992
   17.81638718  116.89199829    4.90999985    2.30999994
   17.81944466  231.43600464    4.90999985    2.13000011
   17.82277870  164.32299805    4.90999985    1.89999998
   17.82888985  164.32299805    4.90999985    2.00000000
   17.83305550  163.17399597    4.90999985    1.94000006
   17.83611107  142.04299927    4.90999985    1.98000002
   17.83944511  129.26699829    4.90999985    2.03999996
   17.84250069  141.93099976    4.90999985    2.15000010
   17.84305573  120.38700104    4.90999985    2.15000010
   17.84611130  171.63400269    4.90999985    2.11999989
   17.84944534  145.27299500    4.90999985    2.01999998
   17.85250092  118.81800079    4.90999985    2.09999990
   17.85583305  127.40599823    4.90999985    2.09999990
   17.85916710  175.16000366    4.90999985    2.09999990
   17.86222267  161.64799500    4.90999985    2.09999990
   17.86555672  155.80099487    4.90999985    2.07999992
   17.87166595  155.80099487    4.90999985    2.03999996
   17.87583351  122.96900177    4.90999985    2.23000002
   17.87916756  114.86699677    4.90999985    2.17000008
   17.88222313  117.09400177    4.90999985    2.21000004
   17.88555527  112.39900208    4.90999985    2.17000008
   17.88861084  116.64499664    4.90999985    2.19000006
   17.89194489  126.86399841    4.90999985    2.17000008
   17.89527702  128.10499573    4.90999985    2.13000011
   17.89833260  163.42100525    4.90999985    2.09999990
   17.90166664  128.64799500    4.90999985    2.07999992
   17.90499878  153.72500610    4.90999985    2.09999990
   17.90805435  215.97700500    4.90999985    2.07999992
   17.90916634  243.36199951    4.90999985    2.07999992
   17.91444397  243.36199951    4.90999985    1.88000000
   17.91860962   -1.00000000    4.90999985    1.75000000
   17.92194366   -1.00000000    4.90999985    1.66999996
   17.92499924   -1.00000000    4.90999985    1.71000004
   17.92833328   -1.00000000    4.90999985    1.80999994
   17.93166542   -1.00000000    4.90999985    1.64999998
   17.93472099   -1.00000000    4.90999985    1.50000000
   17.93805504   -1.00000000    4.90999985    1.51999998
   17.94138718   -1.00000000    4.90999985    1.41999996
   17.94472122   -1.00000000    4.90999985    1.39999998
   17.94805527   -1.00000000    4.90999985    1.39999998
   17.95138931   -1.00000000    4.90999985    1.36000001
   17.96138954   -1.00000000    4.90999985    1.30999994
   17.96472359   -1.00000000    4.90999985    1.36000001
   17.96777916   -1.00000000    4.90999985    1.30999994
   17.97111130   -1.00000000    4.90999985    1.33000004
   17.97444534   -1.00000000    4.90999985    1.30999994
   17.97777748   -1.00000000    4.90999985    1.13000000
   17.98111153   -1.00000000    4.90999985    1.13000000
   17.98444557   -1.00000000    4.90999985    1.05999994
   17.98750114   -1.00000000    4.90999985    0.94000000
   17.99083328   -1.00000000    4.90999985    0.86000001
   17.99388885   -1.00000000    4.90999985    0.79000002
   18.00416756   -1.00000000    4.90999985    0.73000002
   18.00749969   -1.00000000    4.90999985    0.73000002
   18.01083374   -1.00000000    4.90999985    0.69000000
   18.01416588   -1.00000000    4.90999985    0.64999998
   18.01749992   -1.00000000    4.90999985    0.58999997
   18.02055550   -1.00000000    4.90999985    0.51999998
   18.02388954   -1.00000000    4.90999985    0.47999999
   18.02694511   -1.00000000    4.90999985    0.41999999
   18.03027725   -1.00000000    4.90999985    0.40000001
   18.03361130   -1.00000000    4.90999985    0.36000001
   18.03666687   -1.00000000    4.90999985    0.30000001
   18.04722214   -1.00000000    4.90999985    0.19000000
   18.05027771   -1.00000000    4.90999985    0.17000000
   18.05360985   -1.00000000    4.90999985    0.19000000
   18.05666542   -1.00000000    4.90999985    0.23000000
   18.05999947   -1.00000000    4.90999985    0.25000000
   18.06333351   -1.00000000    4.90999985    0.25000000
   18.06638718   -1.00000000    4.90999985    0.28000000
   18.06972313   -1.00000000    4.90999985    0.31999999
   18.07305717   -1.00000000    4.90999985    0.38000000
   18.07638931   -1.00000000    4.90999985    0.44000000
   18.07972336   -1.00000000    4.90999985    0.40000001
   18.09000015   -1.00000000    4.90999985    0.36000001
   18.09305573   -1.00000000    4.90999985    0.34000000
   18.09638977   -1.00000000    4.90999985    0.28000000
   18.09972191   -1.00000000    4.90999985    0.23000000
   18.10277748   -1.00000000    4.90999985    0.19000000
   18.10611153   -1.00000000    4.90999985    0.13000000
   18.10944557   -1.00000000    4.90999985    0.11000000
   18.11277771   -1.00000000    4.90999985    0.07000000
   18.11611176   -1.00000000    4.90999985    0.05000000
   18.11916733   -1.00000000    4.90999985    0.03000000
   18.12249947   -1.00000000    4.90999985    0.03000000
