    HOUR (UT)   FLARE FACTOR    SKY TESTER    SUN TESTER
   11.42500019   -1.00000000   -1.00000000   -1.00000000
   11.63500023   -1.00000000   -1.00000000   -1.00000000
   11.74583340   -1.00000000   -1.00000000   -1.00000000
   11.80027771  264.48999023    1.19000006    2.40000010
   11.80361176  236.27400208    1.16999996    2.40000010
   11.80722237  231.41299438    1.16999996    2.40000010
   11.81055546  250.83000183    1.16999996    2.40000010
   11.81361103  280.83200073    1.14999998    2.40000010
   11.82055569  280.83200073    1.13000000    2.40000010
   11.82444477  283.04299927    1.13000000    2.44000006
   11.82777786  311.70098877    1.11000001    2.42000008
   11.82972240  298.98098755    1.11000001    2.42000008
   11.83111095  308.59698486    1.11000001    2.42000008
   11.83249950  318.40200806    1.11000001    2.42000008
   11.83388901  283.03500366    1.11000001    2.42000008
   11.83527756  297.12701416    1.11000001    2.42000008
   11.83666611  325.37701416    1.11000001    2.42000008
   11.83805561  358.01599121    1.09000003    2.44000006
   11.83944416  299.60299683    1.09000003    2.42000008
   11.84083271  298.72799683    1.09000003    2.42000008
   11.84222221  313.94900513    1.09000003    2.42000008
   11.84361076  306.25201416    1.09000003    2.44000006
   11.84499931  296.23001099    1.09000003    2.44000006
   11.84638882  306.42498779    1.09000003    2.44000006
   11.84777737  316.57598877    1.09000003    2.44000006
   11.84916592  307.99600220    1.09000003    2.44000006
   11.85055637  294.65499878    1.09000003    2.44000006
   11.85194492  317.27999878    1.09000003    2.42000008
   11.85333347  336.30200195    1.09000003    2.42000008
   11.85472298  360.60598755    1.09000003    2.42000008
   11.85611153  306.36801147    1.09000003    2.44000006
   11.85750008  323.46600342    1.09000003    2.44000006
   11.85888958  318.41400146    1.09000003    2.44000006
   11.86027813  328.45599365    1.09000003    2.44000006
   11.86166668  268.81799316    1.09000003    2.44000006
   11.86305618  307.03900146    1.09000003    2.44000006
   11.86444473  326.91299438    1.09000003    2.44000006
   11.86583328  329.87100220    1.09000003    2.44000006
   11.86722279  310.07101440    1.09000003    2.44000006
   11.86861134  316.23599243    1.09000003    2.44000006
   11.86999989  305.48800659    1.09000003    2.44000006
   11.87138939  291.54800415    1.09000003    2.44000006
   11.87277794  313.11700439    1.11000001    2.42000008
   11.87416649  285.22500610    1.11000001    2.42000008
   11.87555599  309.12399292    1.11000001    2.42000008
   11.87694454  306.50100708    1.09000003    2.44000006
   11.87833309  291.46798706    1.09000003    2.44000006
   11.87972260  291.73901367    1.09000003    2.44000006
   11.88111115  302.70901489    1.09000003    2.44000006
   11.88249969  295.87899780    1.09000003    2.44000006
   11.88388920  313.77200317    1.09000003    2.44000006
   11.88527775  290.43399048    1.11000001    2.46000004
   11.88666630  307.31900024    1.11000001    2.46000004
   11.88805580  288.79400635    1.11000001    2.46000004
   11.88944435  306.92999268    1.11000001    2.46000004
   11.89083290  306.88699341    1.09000003    2.46000004
   11.89222240  292.59100342    1.11000001    2.46000004
   11.89361095  300.14199829    1.09000003    2.46000004
   11.89499950  313.92098999    1.09000003    2.46000004
   11.89638901  290.12399292    1.09000003    2.46000004
   11.89777756  289.85501099    1.09000003    2.46000004
   11.89916611  306.48498535    1.09000003    2.46000004
   11.90055561  292.78399658    1.09000003    2.46000004
   11.90194416  298.04998779    1.09000003    2.46000004
   11.90333271  275.63800049    1.09000003    2.46000004
   11.90472221  277.26501465    1.09000003    2.46000004
   11.90611076  293.91101074    1.09000003    2.46000004
   11.90749931  277.65798950    1.09000003    2.46000004
   11.90888882  277.09100342    1.09000003    2.46000004
   11.91027737  285.89999390    1.09000003    2.48000002
   11.91166592  282.16900635    1.09000003    2.48000002
   11.91305542  285.34600830    1.09000003    2.46000004
   11.91444397  273.69900513    1.09000003    2.46000004
   11.91583252  279.61999512    1.09000003    2.46000004
   11.91722298  291.04598999    1.09000003    2.46000004
   11.91861153  264.77700806    1.09000003    2.46000004
   11.92000008  290.34201050    1.09000003    2.46000004
   11.92138958  291.64599609    1.09000003    2.48000002
   11.92277813  293.36898804    1.09000003    2.46000004
   11.92416668  271.02200317    1.07000005    2.46000004
   11.92555618  290.14300537    1.07000005    2.48000002
   11.92694473  291.35101318    1.07000005    2.46000004
   11.92833328  282.10699463    1.07000005    2.48000002
   11.92972279  291.51599121    1.09000003    2.46000004
   11.93111134  274.20098877    1.07000005    2.46000004
   11.93249989  300.26699829    1.09000003    2.48000002
   11.93388939  280.26400757    1.09000003    2.48000002
   11.93527794  309.49798584    1.07000005    2.48000002
   11.93666649  272.20999146    1.07000005    2.48000002
   11.93805599  293.42999268    1.07000005    2.48000002
   11.93944454  294.63198853    1.07000005    2.48000002
   11.94083309  287.23699951    1.07000005    2.48000002
   11.94222260  294.78100586    1.09000003    2.48000002
   11.94361115  316.98999023    1.07000005    2.48000002
   11.94499969  303.83401489    1.07000005    2.48000002
   11.94638920  313.53201294    1.07000005    2.48000002
   11.94777775  307.04901123    1.07000005    2.48000002
   11.94916630  334.12399292    1.07000005    2.48000002
   11.95055580  308.47000122    1.07000005    2.48000002
   11.95194435  322.05801392    1.07000005    2.48000002
   11.95333290  308.96200562    1.07000005    2.48000002
   11.95472240  326.02999878    1.07000005    2.48000002
   11.95611095  337.65399170    1.09000003    2.48000002
   11.95749950  331.10800171    1.07000005    2.48000002
   11.95888901  311.13000488    1.09000003    2.48000002
   11.96027756  326.10000610    1.07000005    2.48000002
   11.96166611  301.70001221    1.07000005    2.48000002
   11.96305561  312.32299805    1.07000005    2.48000002
   11.96444416  310.15701294    1.07000005    2.48000002
   11.96583271  269.37799072    1.07000005    2.48000002
   11.96722221  305.94400024    1.07000005    2.48000002
   11.96861076  312.32400513    1.07000005    2.48000002
   11.96999931  303.98999023    1.07000005    2.48000002
   11.97138882  315.17599487    1.07000005    2.48000002
   11.97277737  311.62600708    1.07000005    2.48000002
   11.97416592  307.77398682    1.07000005    2.48000002
   11.97555542  298.78399658    1.07000005    2.48000002
   11.97694397  305.62100220    1.05999994    2.48000002
   11.97833252  315.37600708    1.05999994    2.48000002
   11.97916603  236.27400208    1.16999996    2.40000010
   11.97916603  231.41299438    1.16999996    2.40000010
   11.97916603  250.83000183    1.16999996    2.40000010
   11.97944355  280.83200073    1.14999998    2.40000010
   11.97944355  283.04299927    1.13000000    2.44000006
   11.97944355  311.70098877    1.11000001    2.42000008
   11.98777771  265.94900513    1.05999994    2.50000000
   11.99111176  348.47399902    1.05999994    2.50000000
   11.99444485  334.22698975    1.05999994    2.50000000
   11.99750042  334.50201416    1.03999996    2.50000000
   12.00083351  297.60299683    1.03999996    2.50000000
   12.00416660  280.78698730    1.03999996    2.50000000
   12.00833321  280.78698730    1.03999996    2.50000000
   12.01249981  274.37200928    1.03999996    2.50000000
   12.01555538  289.93399048    1.05999994    2.51999998
   12.01888847  320.84600830    1.03999996    2.51999998
   12.02111053  302.73901367    1.03999996    2.51999998
   12.02250004  299.06698608    1.03999996    2.51999998
   12.02583313  308.09500122    1.05999994    2.51999998
   12.02888870  322.82699585    1.05999994    2.51999998
   12.03222179  310.18499756    1.03999996    2.51999998
   12.03555584  330.89700317    1.03999996    2.51999998
   12.03861141  288.78201294    1.03999996    2.51999998
   12.04222298  337.56298828    1.05999994    2.51999998
   12.04555607  305.00500488    1.03999996    2.50000000
   12.05111122  305.00500488    1.05999994    2.51999998
   12.05527782  320.80300903    1.05999994    2.51999998
   12.05833340  308.08999634    1.05999994    2.53999996
   12.06166649  315.12399292    1.05999994    2.51999998
   12.06500053  324.48699951    1.07000005    2.53999996
   12.06805515  285.46301270    1.07000005    2.53999996
   12.07138920  307.22100830    1.07000005    2.53999996
   12.07472229  308.18798828    1.07000005    2.51999998
   12.07777786  303.50399780    1.05999994    2.53999996
   12.08111095  294.33599854    1.05999994    2.53999996
   12.08444405  317.67599487    1.05999994    2.53999996
   12.08749962  290.19100952    1.05999994    2.53999996
   12.08805561  312.95199585    1.05999994    2.53999996
   12.09388828  312.95199585    1.05999994    2.53999996
   12.09805489  279.80999756    1.05999994    2.53999996
   12.10138893  273.62100220    1.05999994    2.53999996
   12.10444450  286.25601196    1.05999994    2.53999996
   12.10777855  311.19198608    1.05999994    2.53999996
   12.11111164  303.53298950    1.05999994    2.53999996
   12.11416721  288.19900513    1.05999994    2.53999996
   12.11750031  291.00500488    1.05999994    2.53999996
   12.12055588  297.58599854    1.03999996    2.53999996
   12.12138939  289.90100098    1.03999996    2.53999996
   12.12444496  302.01599121    1.05999994    2.53999996
   12.12750053  299.19100952    1.05999994    2.53999996
   12.13083363  297.46701050    1.03999996    2.53999996
   12.13666630  297.46701050    1.05999994    2.55999994
   12.14083290  257.14898682    1.05999994    2.55999994
   12.14416695  288.19699097    1.05999994    2.55999994
   12.14750004  284.05499268    1.05999994    2.55999994
   12.15055561  283.53298950    1.05999994    2.55999994
   12.15388870  298.08499146    1.05999994    2.55999994
   12.15472221  308.34298706    1.03999996    2.55999994
   12.15749931  277.82101440    1.03999996    2.55999994
   12.16055489  287.83499146    1.03999996    2.55999994
   12.16388893  273.62200928    1.03999996    2.55999994
   12.16722298  295.58700562    1.03999996    2.55999994
   12.17027855  284.46600342    1.01999998    2.55999994
   12.17361164  277.43301392    1.01999998    2.55999994
   12.17972279  277.43301392    1.00000000    2.55999994
   12.18388939  280.53201294    1.00000000    2.57999992
   12.18694496  279.34399414    1.00000000    2.55999994
   12.18805599  276.52099609    1.00000000    2.55999994
   12.19055557  281.23699951    1.00000000    2.57999992
   12.19361115  273.23001099    1.00000000    2.57999992
   12.19694424  264.40600586    1.01999998    2.57999992
   12.20027733  265.63198853    1.00000000    2.57999992
   12.20333290  280.06201172    1.00000000    2.57999992
   12.20666695  255.88600159    1.01999998    2.57999992
   12.21000004  241.75999451    1.00000000    2.57999992
   12.21305561  259.49398804    1.00000000    2.57999992
   12.21638870  253.59399414    1.00000000    2.57999992
   12.22249985  253.59399414    1.00000000    2.57999992
   12.22666645  266.91699219    1.00000000    2.59999990
   12.22972202  249.88900757    1.00000000    2.59999990
   12.23305511  250.75500488    1.00000000    2.59999990
   12.23611164  255.54699707    1.00000000    2.57999992
   12.23944473  235.82299805    0.98000002    2.57999992
   12.24277782  258.94198608    0.98000002    2.57999992
   12.24611092  257.75201416    0.98000002    2.59999990
   12.24916649  251.94200134    0.98000002    2.59999990
   12.25249958  248.01600647    1.00000000    2.59999990
   12.25472260  258.95098877    1.00000000    2.57999992
   12.25611115  237.84800720    1.00000000    2.59999990
   12.25916672  245.77600098    1.00000000    2.59999990
   12.26527786  245.77600098    1.00000000    2.59999990
   12.26944447  248.90100098    1.00000000    2.59999990
   12.27250004  250.66099548    0.98000002    2.61999989
   12.27583313  229.28700256    0.98000002    2.59999990
   12.27916622  249.25799561    1.00000000    2.59999990
   12.28222179  253.72300720    0.98000002    2.59999990
   12.28555584  247.52000427    0.98000002    2.59999990
   12.28805637  249.37899780    0.98000002    2.59999990
   12.28916740  252.02799988    1.00000000    2.59999990
   12.29250050  251.29600525    1.00000000    2.59999990
   12.29555607  257.87298584    0.98000002    2.59999990
   12.29888916  246.71400452    0.98000002    2.59999990
   12.30194473  261.13500977    1.00000000    2.61999989
   12.30805588  261.13500977    1.00000000    2.61999989
   12.31222248  264.69601440    1.00000000    2.59999990
   12.31555557  257.22399902    1.00000000    2.59999990
   12.31861115  261.20001221    1.01999998    2.61999989
   12.32138920  275.85800171    1.01999998    2.61999989
   12.32250023  272.36599731    1.01999998    2.61999989
   12.32583332  272.01800537    1.01999998    2.61999989
   12.32888889  265.34799194    1.01999998    2.61999989
   12.33222198  247.08399963    1.01999998    2.59999990
   12.33527756  245.69400024    1.00000000    2.61999989
   12.33861065  246.05200195    1.00000000    2.61999989
   12.34194374  245.66400146    1.00000000    2.61999989
   12.34499931  235.36999512    0.98000002    2.61999989
   12.35111141  235.36999512    0.98000002    2.61999989
   12.35500050  246.60499573    0.98000002    2.61999989
   12.35833359  231.27600098    0.98000002    2.61999989
   12.36166668  254.12199402    0.98000002    2.61999989
   12.36472225  259.74099731    0.98000002    2.61999989
   12.36805534  219.94799805    0.98000002    2.61999989
   12.37111092  237.23800659    0.98000002    2.61999989
   12.37444496  243.10899353    0.95999998    2.61999989
   12.37777805  249.14900208    0.95999998    2.64000010
   12.38083363  234.02600098    0.98000002    2.64000010
   12.38416672  231.19000244    0.98000002    2.64000010
   12.38749981  229.76499939    1.00000000    2.64000010
   12.38805580  242.42500305    1.00000000    2.64000010
   12.39388847  242.42500305    1.01999998    2.64000010
   12.39805508  241.95100403    1.01999998    2.61999989
   12.40111065  239.51899719    1.01999998    2.64000010
   12.40444374  239.94000244    1.01999998    2.64000010
   12.40749931  255.96899414    1.01999998    2.64000010
   12.41083336  239.64599609    1.01999998    2.64000010
   12.41416645  249.14900208    1.01999998    2.64000010
   12.41722298  262.89599609    1.01999998    2.64000010
   12.42055607  233.87600708    1.01999998    2.64000010
   12.42138958  260.70800781    1.01999998    2.64000010
   12.42416668  238.50300598    1.01999998    2.64000010
   12.42722225  241.24499512    1.00000000    2.64000010
   12.43055630  275.54000854    1.00000000    2.64000010
   12.43666649  275.54000854    0.98000002    2.64000010
   12.44083309  242.76199341    0.95999998    2.64000010
   12.44416714  229.33399963    0.95999998    2.64000010
   12.44722271  245.01499939    0.95999998    2.64000010
   12.45055580  261.28201294    0.95999998    2.64000010
   12.45361137  290.68899536    0.94000000    2.66000009
   12.45472240  226.62199402    0.95999998    2.64000010
   12.45749950  222.29699707    0.95999998    2.64000010
   12.46055508  216.34500122    0.95999998    2.64000010
   12.46388912  221.04699707    0.95999998    2.66000009
   12.46722221  263.77999878    0.95999998    2.64000010
   12.47027779  242.59700012    0.95999998    2.66000009
   12.47361088  223.59599304    0.94000000    2.64000010
   12.47944355  223.59599304    0.94000000    2.66000009
   12.48361111  230.84500122    0.94000000    2.66000009
   12.48694515  235.53100586    0.94000000    2.66000009
   12.48805618  232.00100708    0.94000000    2.66000009
   12.49055576  216.58200073    0.94000000    2.66000009
   12.49388885  239.33299255    0.94000000    2.66000009
   12.49694443  199.78100586    0.95999998    2.66000009
   12.50027752  177.58599854    0.95999998    2.66000009
   12.50361156  219.04800415    0.94000000    2.66000009
   12.50666714  233.44299316    0.94000000    2.66000009
   12.51000023  226.42700195    0.94000000    2.66000009
   12.51333332  242.47000122    0.92000002    2.66000009
   12.51638889  238.18499756    0.92000002    2.66000009
   12.52222157  238.18499756    0.94000000    2.66000009
   12.52638817  209.84199524    0.94000000    2.67000008
   12.52972221  236.34700012    0.92000002    2.67000008
   12.53305531  251.60899353    0.92000002    2.66000009
   12.53611183  240.03700256    0.89999998    2.66000009
   12.53944492  209.57200623    0.89999998    2.67000008
   12.54250050  229.80799866    0.89999998    2.67000008
   12.54583359  221.95700073    0.89999998    2.67000008
   12.54916668  212.43800354    0.89999998    2.67000008
   12.55222225  240.92399597    0.88000000    2.67000008
   12.55472279  220.45399475    0.88000000    2.67000008
   12.55611134  219.35000610    0.88000000    2.67000008
   12.55944443  217.92199707    0.88000000    2.67000008
   12.56527805  217.92199707    0.86000001    2.67000008
   12.56944466  220.67900085    0.86000001    2.67000008
   12.57277775  225.95899963    0.86000001    2.67000008
   12.57583332  204.53399658    0.86000001    2.67000008
   12.57916641  203.40800476    0.86000001    2.69000006
   12.58222198  208.31900024    0.88000000    2.67000008
   12.58555508  213.19700623    0.89999998    2.67000008
   12.58805561  235.72700500    0.89999998    2.67000008
   12.58916664  226.14599609    0.89999998    2.67000008
   12.59249973  222.58999634    0.89999998    2.69000006
   12.59555531  252.63999939    0.89999998    2.67000008
   12.59888840  237.28300476    0.95999998    2.67000008
   12.60194492  225.72900391    0.98000002    2.67000008
   12.60805607  225.72900391    0.95999998    2.69000006
   12.61222267  214.82499695    1.01999998    2.69000006
   12.61527824  191.64100647    1.01999998    2.67000008
   12.61861134  208.53999329    0.95999998    2.69000006
   12.62138939  190.79200745    0.95999998    2.69000006
   12.62222195  199.46200562    0.95999998    2.69000006
   12.62555599  207.43800354    0.95999998    2.69000006
   12.62861156  180.40100098    0.89999998    2.69000006
   12.63194466  201.88400269    0.89999998    2.69000006
   12.63500023  214.74000549    0.88000000    2.69000006
   12.63833332  218.77900696    0.92000002    2.69000006
   12.64166641  201.14999390    0.92000002    2.69000006
   12.64472198  225.41000366    0.88000000    2.69000006
   12.65083313  225.41000366    0.88000000    2.69000006
   12.65499973  183.98399353    0.88000000    2.69000006
   12.65833282  222.55599976    0.86000001    2.69000006
   12.66138840  196.30900574    0.88000000    2.69000006
   12.66472149  227.73300171    0.86000001    2.69000006
   12.66805553  177.07899475    0.83999997    2.69000006
   12.67111111  201.09800720    0.81999999    2.69000006
   12.67444515  218.29200745    0.81999999    2.69000006
   12.67777824  219.11599731    0.81999999    2.69000006
   12.68083382  196.80700684    0.81999999    2.69000006
   12.68416691  209.72099304    0.81999999    2.69000006
   12.68722248  207.65600586    0.81999999    2.69000006
   12.68805599  212.48500061    0.81999999    2.69000006
   12.69361115  212.48500061    0.81999999    2.71000004
   12.69777775  202.55099487    0.81999999    2.69000006
   12.70111084  212.87399292    0.81999999    2.71000004
   12.70444393  208.61099243    0.83999997    2.69000006
   12.70749950  181.76199341    0.80000001    2.71000004
   12.71083355  223.25100708    0.80000001    2.71000004
   12.71416664  210.62100220    0.80000001    2.71000004
   12.71722221  230.58200073    0.80000001    2.69000006
   12.72055531  208.66200256    0.80000001    2.69000006
   12.72138882  221.23199463    0.80000001    2.71000004
   12.72416592  197.20899963    0.81999999    2.69000006
   12.72749996  196.74099731    0.80000001    2.69000006
   12.73055553  197.14799500    0.80000001    2.71000004
   12.73666668  197.14799500    0.81999999    2.71000004
   12.74083328  196.06799316    0.80000001    2.71000004
   12.74388885  209.70799255    0.80000001    2.71000004
   12.74722290  199.07699585    0.80000001    2.71000004
   12.75055599  218.97799683    0.80000001    2.71000004
   12.75361156  213.61199951    0.80000001    2.71000004
   12.75472260  197.46299744    0.80000001    2.71000004
   12.75722218  199.70300293    0.80000001    2.71000004
   12.76055527  204.91200256    0.80000001    2.71000004
   12.76361084  205.23599243    0.80000001    2.71000004
   12.76722240  186.58599854    0.80000001    2.71000004
   12.77027798  196.78500366    0.80000001    2.71000004
   12.77361107  191.93800354    0.80000001    2.71000004
   12.77944374  191.93800354    0.81999999    2.71000004
   12.78361130  192.79400635    0.80000001    2.71000004
   12.78666687  187.35800171    0.81999999    2.71000004
   12.78833389  193.70799255    0.81999999    2.71000004
   12.79027843  189.24600220    0.81999999    2.71000004
   12.79361153  206.39599609    0.81999999    2.71000004
   12.79666710  210.35899353    0.81999999    2.71000004
   12.80000019  188.30999756    0.81999999    2.71000004
   12.80333328  195.45300293    0.83999997    2.71000004
   12.80638885  203.13699341    0.81999999    2.73000002
   12.80972195  202.98599243    0.81999999    2.71000004
   12.81305599  201.82099915    0.81999999    2.73000002
   12.81611156  196.93899536    0.80000001    2.71000004
   12.82222176  196.93899536    0.79000002    2.71000004
   12.82638836  211.00100708    0.80000001    2.71000004
   12.82972240  215.63099670    0.80000001    2.73000002
   12.83277798  208.43800354    0.79000002    2.73000002
   12.83611107  197.59899902    0.80000001    2.73000002
   12.83916664  201.39799500    0.80000001    2.73000002
   12.84249973  205.69000244    0.80000001    2.73000002
   12.84583282  213.58799744    0.79000002    2.73000002
   12.84888840  225.36999512    0.80000001    2.73000002
   12.85222244  197.01699829    0.79000002    2.73000002
   12.85500050  193.77099609    0.80000001    2.73000002
   12.85583401  221.49600220    0.80000001    2.73000002
   12.85916710  210.37300110    0.80000001    2.73000002
   12.86500072  210.37300110    0.79000002    2.71000004
   12.86916637  184.04400635    0.80000001    2.73000002
   12.87250042  192.89799500    0.80000001    2.73000002
   12.87583351  182.93099976    0.80000001    2.73000002
   12.87888908  166.73100281    0.80000001    2.73000002
   12.88222218  199.06599426    0.80000001    2.73000002
   12.88527775  186.26899719    0.80000001    2.73000002
   12.88805580  184.94700623    0.80000001    2.73000002
   12.88916683  204.97500610    0.80000001    2.73000002
   12.89249992  199.72399902    0.79000002    2.73000002
   12.89555550  178.97399902    0.79000002    2.73000002
   12.89888859  176.08700562    0.80000001    2.73000002
   12.90222168  191.80400085    0.80000001    2.73000002
   12.90805531  191.80400085    0.81999999    2.73000002
   12.91194439  189.06700134    0.81999999    2.73000002
   12.91527748  192.64399719    0.81999999    2.73000002
   12.91861153  151.83500671    0.80000001    2.75000000
   12.92138958  179.34300232    0.80000001    2.75000000
   12.92222214  201.51199341    0.81999999    2.73000002
   12.92555618  222.42199707    0.81999999    2.73000002
   12.92861176  191.85699463    0.81999999    2.73000002
   12.93194485  152.99200439    0.80000001    2.73000002
   12.93527794  172.00599670    0.80000001    2.75000000
   12.93833351  185.54699707    0.80000001    2.75000000
   12.94166660  200.47999573    0.80000001    2.73000002
   12.94472218  171.98599243    0.80000001    2.75000000
   12.95083332  171.98599243    0.81999999    2.73000002
   12.95499992  192.40400696    0.81999999    2.73000002
   12.95805550  193.39500427    0.81999999    2.73000002
   12.96138859  163.91999817    0.80000001    2.73000002
   12.96472168  167.30000305    0.80000001    2.75000000
   12.96777725  163.46000671    0.81999999    2.75000000
   12.97111034  170.15899658    0.86000001    2.75000000
   12.97444439  168.05000305    0.86000001    2.75000000
   12.97749996  195.15899658    0.83999997    2.75000000
   12.98083305  174.19400024    0.81999999    2.75000000
   12.98388958  193.46800232    0.81999999    2.75000000
   12.98722267  183.21099854    0.81999999    2.75000000
   12.98833370  175.10499573    0.81999999    2.75000000
   13.00888920  175.10499573    0.76999998    2.76999998
   13.01305580  174.70799255    0.75000000    2.75000000
   13.01611137  166.91900635    0.75000000    2.75000000
   13.01944447  177.35000610    0.75000000    2.75000000
   13.02138901  163.56399536    0.75000000    2.75000000
   13.02305508  180.99299622    0.75000000    2.75000000
   13.02638817  190.59199524    0.73000002    2.75000000
   13.02972221  167.63200378    0.73000002    2.75000000
   13.03277779  195.66999817    0.73000002    2.76999998
   13.03611183  179.67599487    0.73000002    2.75000000
   13.03916740  181.86500549    0.73000002    2.75000000
   13.04250050  161.41799927    0.73000002    2.75000000
   13.04583359  184.31399536    0.73000002    2.76999998
   13.05166721  184.31399536    0.73000002    2.76999998
   13.05583382  177.52799988    0.75000000    2.75000000
   13.05888939  181.25399780    0.75000000    2.75000000
   13.06222248  166.53799438    0.75000000    2.75000000
   13.06527805  168.07600403    0.75000000    2.76999998
   13.06861115  149.46899414    0.75000000    2.76999998
   13.07194424  157.04699707    0.75000000    2.75000000
   13.07499981  170.12100220    0.75000000    2.76999998
   13.07833290  167.48800659    0.75000000    2.78999996
   13.08166695  158.38499451    0.75000000    2.75000000
   13.08472157  200.06700134    0.75000000    2.76999998
   13.08805561  184.80400085    0.75000000    2.76999998
   13.08861065  167.09700012    0.75000000    2.76999998
   13.09444427  167.09700012    0.75000000    2.76999998
   13.09861088  155.47999573    0.76999998    2.76999998
   13.10194492  148.34100342    0.75000000    2.76999998
   13.10500050  182.01499939    0.75000000    2.76999998
   13.10833359  164.99000549    0.75000000    2.76999998
   13.11138916  195.78799438    0.75000000    2.75000000
   13.11472225  176.12500000    0.75000000    2.76999998
   13.11805534  152.10499573    0.75000000    2.76999998
   13.12111092  180.46899414    0.76999998    2.78999996
   13.12194443  153.38000488    0.75000000    2.78999996
   13.12472248  151.87300110    0.75000000    2.76999998
   13.12805557  170.68600464    0.76999998    2.78999996
   13.13138866  168.20799255    0.76999998    2.76999998
   13.13722229  168.20799255    0.79000002    2.76999998
   13.14138889  168.68499756    0.79000002    2.76999998
   13.14472198  176.27400208    0.79000002    2.76999998
   13.14777756  175.40800476    0.80000001    2.78999996
   13.15111065  152.53300476    0.79000002    2.76999998
   13.15444374  165.16900635    0.80000001    2.76999998
   13.15527725  161.75000000    0.81999999    2.76999998
   13.15777779  167.87800598    0.81999999    2.78999996
   13.16111088  152.66900635    0.81999999    2.78999996
   13.16444397  144.01899719    0.83999997    2.76999998
   13.16750050  166.12300110    0.83999997    2.76999998
   13.17083359  163.21299744    0.83999997    2.76999998
   13.17416668  141.79200745    0.83999997    2.76999998
   13.18000031  141.79200745    0.83999997    2.76999998
   13.18416691  159.67500305    0.83999997    2.76999998
   13.18750000  152.12399292    0.86000001    2.78999996
   13.18861103  168.25199890    0.86000001    2.78999996
   13.19138908  154.66700745    0.86000001    2.76999998
   13.19444466  162.53500366    0.86000001    2.78999996
   13.19777775  172.17700195    0.86000001    2.78999996
   13.20111084  176.41099548    0.88000000    2.76999998
   13.20416641  169.53999329    0.89999998    2.76999998
   13.20749950  160.51800537    0.92000002    2.76999998
   13.21055508  165.74099731    0.89999998    2.78999996
   13.21388912  176.66600037    1.01999998    2.76999998
   13.21722221  158.27499390    0.89999998    2.78999996
   13.22305489  158.27499390    0.89999998    2.78999996
   13.22722149  156.83700562    0.89999998    2.78999996
   13.23027706  163.91499329    0.92000002    2.76999998
   13.23361111  174.66999817    0.92000002    2.78999996
   13.23666668  163.19500732    0.98000002    2.78999996
   13.24000072  168.33000183    0.98000002    2.78999996
   13.24333382  172.33900452    0.94000000    2.78999996
   13.24638939  174.33900452    0.95999998    2.78999996
   13.24972248  165.20700073    0.94000000    2.78999996
   13.25305557  184.56399536    0.94000000    2.78999996
   13.25527763  173.86500549    0.94000000    2.78999996
   13.25666714  176.38699341    0.94000000    2.78999996
   13.25972176  165.62199402    0.98000002    2.76999998
   13.26583290  165.62199402    0.98000002    2.78999996
   13.26999950  169.24800110    1.00000000    2.78999996
   13.27305508  158.77499390    0.98000002    2.78999996
   13.27638817  168.71299744    1.00000000    2.78999996
   13.27972221  173.19900513    1.00000000    2.78999996
   13.28277779  156.79800415    1.00000000    2.78999996
   13.28611183  156.31199646    1.00000000    2.78999996
   13.28861141  155.58999634    0.98000002    2.78999996
   13.29000092  141.49899292    0.95999998    2.78999996
   13.29305553  139.07000732    0.94000000    2.78999996
   13.29638958  157.42799377    0.94000000    2.78999996
   13.29972267  149.63600159    0.94000000    2.78999996
   13.30277824  179.95500183    0.92000002    2.78999996
   13.30861092  179.95500183    0.88000000    2.78999996
   13.31277752  175.14799500    0.81999999    2.78999996
   13.31611156  165.89999390    0.81999999    2.78999996
   13.31916618  174.05000305    0.80000001    2.78999996
   13.32194424  170.83099365    0.79000002    2.78999996
   13.32305527  162.25000000    0.79000002    2.78999996
   13.32611084  164.79699707    0.76999998    2.78999996
   13.32944393  153.93299866    0.79000002    2.78999996
   13.33249950  163.10499573    0.80000001    2.78999996
   13.33583260  179.47500610    0.80000001    2.78999996
   13.33916664  149.73800659    0.80000001    2.78999996
   13.34222221  162.54600525    0.81999999    2.80999994
   13.34555531  158.59800720    0.81999999    2.78999996
   13.35138893  158.59800720    0.79000002    2.78999996
   13.35555553  174.90499878    0.79000002    2.78999996
   13.35888958  161.15600586    0.79000002    2.78999996
   13.36222267  168.28999329    0.73000002    2.80999994
   13.36527824  158.85000610    0.75000000    2.78999996
   13.36861134  159.02400208    0.75000000    2.78999996
   13.37194443  155.63200378    0.75000000    2.78999996
   13.37500000  151.13499451    0.75000000    2.78999996
   13.37833309  137.82000732    0.75000000    2.80999994
   13.38138866  150.48699951    0.75000000    2.78999996
   13.38472176  163.61500549    0.73000002    2.78999996
   13.38805580  173.55599976    0.73000002    2.80999994
   13.38861084  151.38800049    0.73000002    2.80999994
   13.39444447  151.38800049    0.70999998    2.80999994
   13.39861107  155.71400452    0.70999998    2.78999996
   13.40166664  149.42700195    0.70999998    2.78999996
   13.40499973  148.68299866    0.70999998    2.80999994
   13.40833282  158.18200684    0.69000000    2.80999994
   13.41138840  161.61099243    0.69000000    2.82999992
   13.41472149  174.40100098    0.70999998    2.80999994
   13.41805553  160.71800232    0.69000000    2.80999994
   13.42111111  159.82499695    0.69000000    2.80999994
   13.42194462  161.55299377    0.69000000    2.80999994
   13.42500019  157.17399597    0.69000000    2.80999994
   13.42805576  160.76400757    0.69000000    2.80999994
   13.43138885  152.81700134    0.69000000    2.80999994
   13.43722248  152.81700134    0.69000000    2.80999994
   13.44138908  142.14799500    0.69000000    2.82999992
   13.44444466  137.06300354    0.67000002    2.82999992
   13.44777775  159.66600037    0.67000002    2.80999994
   13.45111084  138.74699402    0.67000002    2.80999994
   13.45416641  162.14799500    0.67000002    2.80999994
   13.45527744  156.06199646    0.67000002    2.80999994
   13.45805550  160.51899719    0.64999998    2.80999994
   13.46111107  150.51199341    0.67000002    2.80999994
   13.46444416  147.91700745    0.64999998    2.80999994
   13.46777725  143.45799255    0.64999998    2.80999994
   13.47083282  148.54899597    0.64999998    2.80999994
   13.47416592  165.69799805    0.64999998    2.80999994
   13.47999954  165.69799805    0.67000002    2.80999994
   13.48416710  157.19799805    0.67000002    2.80999994
   13.48750019  155.02499390    0.67000002    2.80999994
   13.48861122  154.01800537    0.67000002    2.80999994
   13.49111176  155.08200073    0.64999998    2.80999994
   13.49416733  152.94799805    0.67000002    2.82999992
   13.49750042  150.85299683    0.64999998    2.80999994
   13.50083351  168.51100159    0.64999998    2.80999994
   13.50388908  152.21099854    0.64999998    2.80999994
   13.50722218  159.86099243    0.64999998    2.80999994
   13.51055527  179.56399536    0.63000000    2.80999994
   13.51361084  167.32299805    0.63000000    2.80999994
   13.51694393  167.02799988    0.63000000    2.82999992
   13.52277756  167.02799988    0.63000000    2.82999992
   13.52694416  179.76600647    0.63000000    2.80999994
   13.53027725  172.18899536    0.61000001    2.80999994
   13.53361130  162.53300476    0.61000001    2.80999994
   13.53666687  163.83000183    0.61000001    2.80999994
   13.54000092  172.00599670    0.61000001    2.80999994
   13.54305553  173.92999268    0.61000001    2.80999994
   13.54638958  169.83500671    0.61000001    2.80999994
   13.54972267  166.74000549    0.58999997    2.82999992
   13.55277824  198.61700439    0.61000001    2.82999992
   13.55527782  145.07099915    0.61000001    2.82999992
   13.55666733  175.95500183    0.61000001    2.82999992
   13.55972195  177.58200073    0.61000001    2.82999992
   13.56583309  177.58200073    0.61000001    2.80999994
   13.56999969  161.96200562    0.58999997    2.82999992
   13.57305527  183.30999756    0.58999997    2.82999992
   13.57638836  173.70300293    0.58999997    2.80999994
   13.57944393  175.57499695    0.58999997    2.82999992
   13.58277798  162.53300476    0.61000001    2.82999992
   13.58611107  171.94500732    0.61000001    2.82999992
   13.58861065  164.82600403    0.61000001    2.82999992
   13.58972168  149.11399841    0.61000001    2.82999992
   13.59277725  155.36500549    0.61000001    2.80999994
   13.59611034  150.23800659    0.63000000    2.82999992
   13.59944439  163.32899475    0.63000000    2.82999992
   13.60249996  164.69000244    0.61000001    2.82999992
   13.60861111  164.69000244    0.61000001    2.82999992
   13.61277771  171.12100220    0.61000001    2.82999992
   13.61583328  159.56599426    0.61000001    2.82999992
   13.61916637  159.57000732    0.61000001    2.82999992
   13.62194443  144.29499817    0.61000001    2.82999992
   13.62277794  165.53199768    0.61000001    2.82999992
   13.62583351  162.61099243    0.61000001    2.82999992
   13.62916660  166.08799744    0.61000001    2.82999992
   13.63249969  156.04899597    0.61000001    2.82999992
   13.63555527  168.58700562    0.61000001    2.82999992
   13.63888836  156.83299255    0.63000000    2.84999990
   13.64222240  161.10400391    0.61000001    2.82999992
   13.64527798  174.28900146    0.61000001    2.82999992
   13.65138817  174.28900146    0.61000001    2.82999992
   13.65555477  157.39900208    0.61000001    2.82999992
   13.65888882  164.71299744    0.58999997    2.82999992
   13.66194439  163.65600586    0.58999997    2.82999992
   13.66527748  151.64100647    0.56999999    2.82999992
   13.66861153  150.63000488    0.56999999    2.82999992
   13.67166710  148.90600586    0.55000001    2.84999990
   13.67500019  146.49000549    0.52999997    2.82999992
   13.67805576  157.00999451    0.52999997    2.82999992
   13.68138885  154.08599854    0.51999998    2.82999992
   13.68472195  150.85600281    0.52999997    2.82999992
   13.68777752  147.95199585    0.51999998    2.82999992
   13.68861103  160.61300659    0.51999998    2.82999992
   13.69416714  160.61300659    0.51999998    2.84999990
   13.69833374  146.00500488    0.51999998    2.82999992
   13.70166683  147.30999756    0.51999998    2.84999990
   13.70499992  151.16700745    0.51999998    2.84999990
   13.70805550  144.22500610    0.52999997    2.82999992
   13.71138859  159.16400146    0.51999998    2.84999990
   13.71472168  146.58399963    0.51999998    2.82999992
   13.71777725  143.84599304    0.51999998    2.82999992
   13.72111034  157.30200195    0.51999998    2.84999990
   13.72194386  146.25799561    0.51999998    2.84999990
   13.72472191  151.10699463    0.52999997    2.84999990
   13.72777748  159.76400757    0.92000002    2.84999990
   13.73111057  151.83500671    0.55000001    2.84999990
   13.73722267  151.83500671    0.73000002    2.84999990
   13.74138927  143.17199707    0.56999999    2.84999990
   13.74444485  135.70700073    0.52999997    2.84999990
   13.74777794  143.13099670    0.55000001    2.84999990
   13.75083351  142.91099548    0.61000001    2.82999992
   13.75416660  143.53900146    0.56999999    2.84999990
   13.75527763  161.64399719    0.56999999    2.84999990
   13.75777817  136.72000122    0.63000000    2.84999990
   13.76111126  151.40699768    0.58999997    2.82999992
   13.76416683  140.74800110    0.58999997    2.82999992
   13.76749992  156.91000366    0.55000001    2.84999990
   13.77055550  148.67599487    0.51999998    2.84999990
   13.77388859  126.60600281    0.56999999    2.84999990
   13.77999973  126.60600281    0.58999997    2.84999990
   13.78416729  144.88699341    0.52999997    2.84999990
   13.78722286  141.22099304    0.52999997    2.84999990
   13.78861141  143.24299622    0.52999997    2.84999990
   13.79111195  148.35800171    0.51999998    2.84999990
   13.79416752  155.37199402    0.52999997    2.84999990
   13.79750061  145.44500732    0.67000002    2.84999990
   13.80083370  152.60099792    0.67000002    2.84999990
   13.80388927  149.69500732    0.58999997    2.86999989
   13.80722237  139.90499878    0.58999997    2.84999990
   13.81055546  141.96499634    0.55000001    2.84999990
   13.81361103  145.54299927    0.52999997    2.84999990
   13.81694412  152.91999817    0.51999998    2.84999990
   13.82277775  152.91999817    0.50000000    2.84999990
   13.82694435  139.94799805    0.50000000    2.84999990
   13.83027744  141.65800476    0.50000000    2.84999990
   13.83333302  144.92700195    0.47999999    2.86999989
   13.83666611  133.03100586    0.47999999    2.84999990
   13.84000015  138.50000000    0.47999999    2.86999989
   13.84305477  145.39399719    0.46000001    2.84999990
   13.84638882  147.83099365    0.47999999    2.86999989
   13.84972191  143.91900635    0.47999999    2.84999990
   13.85277843  138.82400513    0.47999999    2.84999990
   13.85527802  140.83700562    0.47999999    2.84999990
   13.85666752  141.74499512    0.47999999    2.84999990
   13.85972214  143.22900391    0.47999999    2.84999990
   13.86555576  143.22900391    0.50000000    2.84999990
   13.86972237  138.47599792    0.47999999    2.86999989
   13.87305546  133.35099792    0.47999999    2.86999989
   13.87638855  138.88999939    0.52999997    2.86999989
   13.87944412  155.27299500    0.50000000    2.84999990
   13.88277817  136.66499329    0.50000000    2.84999990
   13.88583279  145.36900330    0.51999998    2.84999990
   13.88861084  149.49299622    0.51999998    2.84999990
   13.88972187  138.19200134    0.51999998    2.84999990
   13.89305496  145.99800110    0.50000000    2.84999990
   13.89611053  149.33999634    0.50000000    2.84999990
   13.89944458  140.78100586    0.50000000    2.84999990
   13.90249920  151.39799500    0.47999999    2.86999989
   13.90861034  151.39799500    0.50000000    2.86999989
   13.91249943  144.73899841    0.50000000    2.84999990
   13.91583252  141.99499512    0.50000000    2.86999989
   13.91916656  148.60800171    0.50000000    2.84999990
   13.92194462  146.66400146    0.50000000    2.84999990
   13.92277813  124.12300110    0.50000000    2.84999990
   13.92583370  145.44599915    0.50000000    2.84999990
   13.92916679  142.53199768    0.50000000    2.84999990
   13.93249989  141.99200439    0.47999999    2.86999989
   13.93555546  136.95700073    0.50000000    2.86999989
   13.93916702  129.02799988    0.50000000    2.84999990
   13.94222260  138.72099304    0.50000000    2.86999989
   13.94555569  136.79800415    0.50000000    2.84999990
   13.95138836  136.79800415    0.50000000    2.84999990
   13.95555496  132.07699585    0.47999999    2.84999990
   13.95861053  138.19999695    0.50000000    2.86999989
   13.96194458  134.05999756    0.51999998    2.86999989
   13.96527767  142.71600342    0.52999997    2.86999989
   13.96833324  138.78199768    0.50000000    2.84999990
   13.97166634  129.31300354    0.50000000    2.86999989
   13.97499943  131.20300293    0.50000000    2.86999989
   13.97805500  136.48100281    0.47999999    2.86999989
   13.98138809  140.23300171    0.47999999    2.86999989
   13.98444462  131.24400330    0.47999999    2.86999989
   13.98777771  141.94200134    0.47999999    2.86999989
   13.98861122  136.27600098    0.47999999    2.86999989
   13.99416733  136.27600098    0.46000001    2.84999990
   13.99833393  138.23199463    0.46000001    2.84999990
   14.00166702  146.03900146    0.46000001    2.86999989
   14.00472260  135.15600586    0.46000001    2.86999989
   14.02222157  139.32000732    0.46000001    2.86999989
   14.02472210  139.16600037    0.46000001    2.86999989
   14.02805519  140.70100403    0.46000001    2.86999989
   14.03111076  129.03799438    0.47999999    2.86999989
   14.03722286  129.03799438    0.47999999    2.86999989
   14.04138947  138.28300476    0.47999999    2.86999989
   14.04472256  143.44099426    0.46000001    2.86999989
   14.04777813  138.91799927    0.46000001    2.86999989
   14.05111122  135.29299927    0.47999999    2.86999989
   14.05416679  140.67500305    0.47999999    2.86999989
   14.05555534  141.96800232    0.47999999    2.86999989
   14.05805588  133.66900635    0.47999999    2.86999989
   14.06138897  138.37300110    0.47999999    2.86999989
   14.06444454  139.10899353    0.47999999    2.86999989
   14.06777763  150.32899475    0.47999999    2.86999989
   14.07111073  143.68699646    0.47999999    2.86999989
   14.07416630  140.75599670    0.47999999    2.86999989
   14.07999992  140.75599670    0.47999999    2.86999989
   14.08416653  140.61900330    0.50000000    2.86999989
   14.08749962  146.81599426    0.50000000    2.84999990
   14.08888817  152.01400757    0.50000000    2.86999989
   14.09111118  141.37899780    0.50000000    2.86999989
   14.09416676  142.90800476    0.50000000    2.86999989
   14.09749985  138.81700134    0.50000000    2.86999989
   14.10083389  137.29200745    0.51999998    2.86999989
   14.10388947  148.51199341    0.52999997    2.86999989
   14.10722256  137.50999451    0.52999997    2.86999989
   14.11055565  137.89500427    0.55000001    2.86999989
   14.11361122  138.92999268    0.55000001    2.86999989
   14.11694431  146.95599365    0.55000001    2.86999989
   14.12305546  146.95599365    0.55000001    2.86999989
   14.12694454  132.57600403    0.52999997    2.86999989
   14.13027763  142.96699524    0.55000001    2.86999989
   14.13361073  135.29400635    0.52999997    2.86999989
   14.13666630  143.71899414    0.52999997    2.86999989
   14.14000034  133.07000732    0.52999997    2.89000010
   14.14333344  140.09500122    0.52999997    2.86999989
   14.14638901  148.03500366    0.52999997    2.86999989
   14.14972210  130.60600281    0.52999997    2.89000010
   14.15277767  141.32299805    0.52999997    2.86999989
   14.15555477  144.07200623    0.51999998    2.86999989
   14.15666676  138.13600159    0.52999997    2.86999989
   14.15972137  142.97200012    0.52999997    2.86999989
   14.16583252  142.97200012    0.55000001    2.89000010
   14.17000008  141.34300232    0.55000001    2.86999989
   14.17305565  157.71000671    0.55000001    2.86999989
   14.17638874  152.16499329    0.55000001    2.86999989
   14.17972279  139.18699646    0.55000001    2.86999989
   14.18277836  133.82200623    0.56999999    2.86999989
   14.18611145  145.28999329    0.56999999    2.86999989
   14.18888855  147.20399475    0.55000001    2.86999989
   14.18972206  147.14100647    0.55000001    2.86999989
   14.19277763  140.62199402    0.56999999    2.86999989
   14.19611073  143.15199280    0.56999999    2.86999989
   14.19944477  146.07299805    0.56999999    2.86999989
   14.20249939  153.30599976    0.58999997    2.86999989
   14.20861053  153.30599976    0.55000001    2.86999989
   14.21277714  137.03100586    0.55000001    2.86999989
   14.21611118  137.08099365    0.55000001    2.86999989
   14.21916580  146.46400452    0.56999999    2.89000010
   14.22222137  144.07899475    0.56999999    2.89000010
   14.22305489  142.83500671    0.55000001    2.89000010
   14.22611046  137.92500305    0.55000001    2.89000010
   14.22944355  140.72300720    0.55000001    2.86999989
   14.23277760  136.41999817    0.55000001    2.89000010
   14.23583317  138.16799927    0.55000001    2.86999989
   14.23916721  133.60899353    0.55000001    2.86999989
   14.24250031  151.77400208    0.56999999    2.86999989
   14.24555588  142.69099426    0.56999999    2.86999989
   14.25138855  142.69099426    0.58999997    2.89000010
   14.25555515  128.94500732    0.61000001    2.89000010
   14.25888920  133.73699951    0.61000001    2.89000010
   14.26194477  137.13499451    0.63000000    2.86999989
   14.26527786  141.32800293    0.63000000    2.89000010
   14.26861095  131.94900513    0.61000001    2.89000010
   14.27166653  139.18699646    0.61000001    2.89000010
   14.27499962  148.65699768    0.61000001    2.89000010
   14.27833271  136.92399597    0.61000001    2.89000010
   14.28138828  129.89300537    0.61000001    2.89000010
   14.28472233  138.55299377    0.61000001    2.86999989
   14.28777790  134.35899353    0.61000001    2.89000010
   14.28888893  137.64700317    0.61000001    2.86999989
   14.29444504  137.64700317    0.61000001    2.86999989
   14.29833412  143.54699707    0.61000001    2.86999989
   14.30166721  133.21000671    0.61000001    2.86999989
   14.30500031  126.83499908    0.61000001    2.86999989
   14.30805588  134.71099854    0.61000001    2.89000010
   14.31138897  125.96399689    0.61000001    2.89000010
   14.31472206  131.73100281    0.58999997    2.89000010
   14.31777763  134.94000244    0.61000001    2.89000010
   14.32111073  136.52400208    0.58999997    2.89000010
   14.32222176  135.78799438    0.58999997    2.89000010
   14.32472229  135.19700623    0.61000001    2.91000009
   14.32805538  139.32000732    0.58999997    2.86999989
   14.33111095  141.10499573    0.58999997    2.89000010
   14.33722210  141.10499573    0.61000001    2.89000010
   14.34138870  138.23300171    0.58999997    2.89000010
   14.34444427  141.97399902    0.58999997    2.89000010
   14.34777737  135.51400757    0.58999997    2.89000010
   14.35111141  131.10499573    0.61000001    2.89000010
   14.35444450  129.84800720    0.55000001    2.89000010
   14.35555553  138.78700256    0.55000001    2.89000010
   14.35805607  139.17999268    0.51999998    2.89000010
   14.36138916  147.88800049    0.51999998    2.89000010
   14.36444473  139.79899597    0.51999998    2.91000009
   14.36777782  138.60099792    0.50000000    2.89000010
   14.37083340  146.68800354    0.50000000    2.89000010
   14.37416649  136.91400146    0.51999998    2.89000010
   14.38000011  136.91400146    0.50000000    2.89000010
   14.38416672  145.36999512    0.50000000    2.89000010
   14.38749981  135.49899292    0.51999998    2.89000010
   14.38888836  133.47700500    0.51999998    2.89000010
   14.39111137  135.00100708    0.51999998    2.89000010
   14.39444447  139.13800049    0.51999998    2.89000010
   14.39750004  132.69599915    0.51999998    2.89000010
   14.40083313  131.58399963    0.51999998    2.89000010
   14.40416622  141.50399780    0.51999998    2.89000010
   14.40722179  124.73400116    0.51999998    2.89000010
   14.41055489  139.42500305    0.51999998    2.89000010
   14.41361046  126.64700317    0.52999997    2.89000010
   14.41694450  125.24299622    0.51999998    2.89000010
   14.42277813  125.24299622    0.51999998    2.89000010
   14.42694473  127.02999878    0.52999997    2.89000010
   14.43027782  128.78300476    0.52999997    2.89000010
   14.43333340  131.68200684    0.52999997    2.91000009
   14.43666649  131.44500732    0.52999997    2.89000010
   14.44000053  139.19000244    0.52999997    2.89000010
   14.44305515  130.28300476    0.51999998    2.89000010
   14.44638920  138.27400208    0.51999998    2.89000010
   14.44972229  133.73500061    0.51999998    2.89000010
   14.45277786  134.72500610    0.52999997    2.89000010
   14.45555496  128.47900391    0.52999997    2.89000010
   14.45638847  136.42300415    0.52999997    2.89000010
   14.45972157  133.08299255    0.52999997    2.89000010
   14.46583271  133.08299255    0.55000001    2.89000010
   14.46972179  131.56100464    0.55000001    2.89000010
   14.47305489  137.77699280    0.55000001    2.89000010
   14.47638798  128.92599487    0.55000001    2.91000009
   14.47944355  134.25799561    0.55000001    2.89000010
   14.48277760  139.21099854    0.55000001    2.89000010
   14.48611164  144.45599365    0.55000001    2.89000010
   14.48888874  144.32899475    0.56999999    2.89000010
   14.48972225  131.36399841    0.56999999    2.89000010
   14.49305534  140.57699585    0.55000001    2.89000010
   14.49611092  140.01300049    0.55000001    2.89000010
   14.49944496  137.43400574    0.55000001    2.89000010
   14.50277805  148.51699829    0.55000001    2.89000010
   14.50861073  148.51699829    0.55000001    2.89000010
   14.51277733  133.12300110    0.55000001    2.91000009
   14.51583290  142.06500244    0.56999999    2.91000009
   14.51916599  130.94599915    0.56999999    2.89000010
   14.52222157  147.74299622    0.56999999    2.89000010
   14.52277756  155.90100098    0.56999999    2.89000010
   14.52611065  146.34199524    0.56999999    2.91000009
   14.52916622  152.61700439    0.56999999    2.89000010
   14.53249931  144.88800049    0.56999999    2.89000010
   14.53583336  144.58200073    0.56999999    2.89000010
   14.53888893  142.89599609    0.55000001    2.91000009
   14.54222298  145.83399963    0.55000001    2.91000009
   14.54527855  160.74000549    0.55000001    2.89000010
   14.55138874  160.74000549    0.51999998    2.89000010
   14.55555534  142.69000244    0.55000001    2.89000010
   14.55611134  162.30499268    0.55000001    2.89000010
   14.55944443  151.19900513    0.52999997    2.89000010
   14.56250000  145.56500244    0.55000001    2.89000010
   14.56583309  150.43800354    0.52999997    2.91000009
   14.56916618  169.64500427    0.52999997    2.89000010
   14.57222176  161.98800659    0.52999997    2.89000010
   14.57555580  161.23100281    0.51999998    2.91000009
   14.57861137  146.91999817    0.51999998    2.91000009
   14.58194447  139.40699768    0.51999998    2.91000009
   14.58527756  145.70399475    0.52999997    2.91000009
   14.58833313  146.21499634    0.51999998    2.91000009
   14.58944416  147.71299744    0.51999998    2.91000009
   14.59416676  147.71299744    0.52999997    2.91000009
   14.59833336  149.66999817    0.51999998    2.89000010
   14.60166740  146.15299988    0.51999998    2.91000009
   14.60472298  147.07699585    0.51999998    2.89000010
   14.60805607  137.31700134    0.51999998    2.89000010
   14.61138916  140.08900452    0.51999998    2.91000009
   14.61444473  134.73399353    0.52999997    2.91000009
   14.61777782  142.89799500    0.51999998    2.91000009
   14.62111092  138.36599731    0.51999998    2.91000009
   14.62277794  134.91999817    0.51999998    2.89000010
   14.62472248  146.29800415    0.51999998    2.89000010
   14.62777805  140.90499878    0.51999998    2.91000009
   14.63111115  137.03300476    0.51999998    2.89000010
   14.63722229  137.03300476    0.51999998    2.91000009
   14.64111137  140.55299377    0.51999998    2.91000009
   14.64444447  140.64399719    0.51999998    2.91000009
   14.64777756  141.48100281    0.51999998    2.91000009
   14.65083313  144.45100403    0.50000000    2.91000009
   14.65416622  150.45199585    0.51999998    2.91000009
   14.65611076  145.14999390    0.51999998    2.91000009
   14.65777779  142.93699646    0.51999998    2.91000009
   14.66083336  144.39300537    0.50000000    2.91000009
   14.66416645  140.56500244    0.50000000    2.89000010
   14.66750050  129.67500305    0.50000000    2.89000010
   14.67055607  139.97700500    0.51999998    2.89000010
   14.67388916  145.42100525    0.51999998    2.91000009
   14.68000031  145.42100525    0.51999998    2.91000009
   14.68416691  144.81500244    0.51999998    2.91000009
   14.68722248  134.73699951    0.51999998    2.91000009
   14.68944454  139.88400269    0.51999998    2.91000009
   14.69111156  137.28300476    0.51999998    2.91000009
   14.69416714  144.39900208    0.51999998    2.89000010
   14.69750023  137.61900330    0.51999998    2.91000009
   14.70083332  136.84100342    0.55000001    2.91000009
   14.70388889  138.04299927    0.55000001    2.89000010
   14.70722198  136.20599365    0.55000001    2.91000009
   14.71027756  138.76600647    0.56999999    2.91000009
   14.71361065  135.26899719    0.58999997    2.91000009
   14.71694374  130.06399536    0.61000001    2.91000009
   14.72277737  130.06399536    0.61000001    2.93000007
   14.72694397  131.73599243    0.61000001    2.91000009
   14.72999954  128.88099670    0.63000000    2.91000009
   14.73333359  142.45799255    0.64999998    2.91000009
   14.73666668  144.90800476    0.67000002    2.91000009
   14.73972225  149.30499268    0.70999998    2.91000009
   14.74305534  136.25599670    0.70999998    2.91000009
   14.74638939  138.37699890    0.75000000    2.89000010
   14.74944496  140.19599915    0.75000000    2.91000009
   14.75277805  134.35200500    0.73000002    2.91000009
   14.75611115  137.57200623    0.73000002    2.91000009
   14.75666714  140.93800354    0.73000002    2.91000009
   14.75972176  144.79600525    0.73000002    2.91000009
   14.76555538  144.79600525    0.73000002    2.91000009
   14.76972198  138.39599609    0.70999998    2.91000009
   14.77305508  133.19700623    0.70999998    2.91000009
   14.77611065  139.12899780    0.69000000    2.89000010
   14.77944374  136.19799805    0.69000000    2.91000009
   14.78277779  142.22399902    0.67000002    2.91000009
   14.78583336  139.92900085    0.67000002    2.91000009
   14.78916740  138.51699829    0.67000002    2.91000009
   14.79000092  140.59199524    0.67000002    2.91000009
   14.79277802  138.71600342    0.67000002    2.91000009
   14.79611111  141.87800598    0.67000002    2.91000009
   14.79916668  129.65699768    0.69000000    2.91000009
   14.80249977  135.77200317    0.69000000    2.91000009
   14.80833340  135.77200317    0.70999998    2.91000009
   14.81250000  129.02000427    0.76999998    2.91000009
   14.81583309  138.05000305    0.80000001    2.91000009
   14.81916618  139.81900024    0.80000001    2.91000009
   14.82222176  141.50900269    0.81999999    2.91000009
   14.82333374  148.75999451    0.81999999    2.91000009
   14.82583332  139.50700378    0.80000001    2.91000009
   14.82916641  142.12199402    0.76999998    2.91000009
   14.83222198  142.47300720    0.75000000    2.91000009
   14.83555508  139.36599731    0.73000002    2.91000009
   14.83888817  139.57499695    0.69000000    2.91000009
   14.84194374  133.59500122    0.69000000    2.91000009
   14.84527779  128.72700500    0.69000000    2.91000009
   14.85138893  128.72700500    0.69000000    2.91000009
   14.85555553  137.03999329    0.73000002    2.91000009
   14.85666752  134.91799927    0.75000000    2.91000009
   14.85888958  138.42399597    0.76999998    2.91000009
   14.86222267  132.69799805    0.75000000    2.89000010
   14.86527824  134.26600647    0.73000002    2.91000009
   14.86861134  139.83700562    0.75000000    2.91000009
   14.87194443  141.48500061    0.69000000    2.91000009
   14.87500000  137.51899719    0.67000002    2.91000009
   14.87833309  130.02799988    0.69000000    2.91000009
   14.88166714  140.23800659    0.67000002    2.91000009
   14.88472176  140.81599426    0.64999998    2.93000007
   14.88805580  132.64199829    0.63000000    2.91000009
   14.89000034  141.55000305    0.63000000    2.91000009
   14.89416695  141.55000305    0.69000000    2.93000007
   14.89833355  129.48899841    0.70999998    2.91000009
   14.90166664  126.98999786    0.70999998    2.91000009
   14.90472221  141.01100159    0.67000002    2.91000009
   14.90805531  142.50999451    0.67000002    2.91000009
   14.91138840  138.13000488    0.63000000    2.91000009
   14.91444397  140.36300659    0.64999998    2.91000009
   14.91777802  136.90499878    0.64999998    2.91000009
   14.92111111  141.12500000    0.63000000    2.91000009
   14.92333412  128.61199951    0.63000000    2.91000009
   14.92472267  143.94200134    0.63000000    2.91000009
   14.92805576  131.12500000    0.63000000    2.91000009
   14.93138885  135.39199829    0.56999999    2.91000009
   14.93694496  135.39199829    0.56999999    2.91000009
   14.94111156  137.20899963    0.56999999    2.91000009
   14.94444466  131.81500244    0.56999999    2.91000009
   14.94750023  135.33000183    0.56999999    2.91000009
   14.95083332  131.72300720    0.55000001    2.91000009
   14.95416641  133.36000061    0.55000001    2.91000009
   14.95666695  128.32600403    0.55000001    2.91000009
   14.95777798  127.47799683    0.55000001    2.91000009
   14.96111107  129.57000732    0.55000001    2.91000009
   14.96444416  132.47799683    0.55000001    2.93000007
   14.96749973  137.79800415    0.55000001    2.91000009
   14.97083282  138.83599854    0.52999997    2.91000009
   14.97388840  143.12699890    0.52999997    2.91000009
   14.97999954  143.12699890    0.55000001    2.93000007
   14.98416710  140.94200134    0.52999997    2.91000009
   14.98722267  143.37399292    0.52999997    2.91000009
   14.99000072  134.20899963    0.52999997    2.91000009
   14.99083328  141.08000183    0.52999997    2.91000009
   14.99416733  127.91999817    0.55000001    2.91000009
   14.99750042  129.63999939    0.69000000    2.91000009
   15.00055599  135.90899658    0.69000000    2.91000009
   15.00388908  150.53799438    0.64999998    2.91000009
   15.00694466  136.60299683    0.58999997    2.91000009
   15.01027775  142.71800232    0.52999997    2.93000007
   15.01361084  133.70300293    0.55000001    2.91000009
   15.01666641  145.59300232    0.55000001    2.91000009
   15.02277756  145.59300232    0.56999999    2.91000009
   15.04111195  138.04899597    0.67000002    2.91000009
   15.04444504  138.19900513    0.67000002    2.91000009
   15.04750061  139.22099304    0.64999998    2.91000009
   15.05083370  133.07899475    0.64999998    2.91000009
   15.05416679  133.12199402    0.63000000    2.91000009
   15.05722237  142.54699707    0.64999998    2.91000009
   15.06055546  132.43400574    0.69000000    2.91000009
   15.06583309  132.43400574    0.67000002    2.91000009
   15.06999969  136.11300659    0.69000000    2.91000009
   15.17333412   -1.00000000   -1.00000000   -1.00000000
   15.27083302   -1.00000000   -1.00000000   -1.00000000
   15.37805557   -1.00000000   -1.00000000   -1.00000000
   15.47666645   -1.00000000   -1.00000000   -1.00000000
   15.57111073   -1.00000000   -1.00000000   -1.00000000
   15.68027782   -1.00000000   -1.00000000   -1.00000000
   15.76888847   -1.00000000   -1.00000000   -1.00000000
   15.79666710  127.68299866    0.79000002    2.93000007
   15.80055618  123.41799927    0.79000002    2.93000007
   15.80388927  130.44000244    0.76999998    2.91000009
   15.80722237  127.70400238    0.76999998    2.93000007
   15.81027794  143.13299561    0.76999998    2.93000007
   15.81694412  143.13299561    0.73000002    2.93000007
   15.82111073  124.85700226    0.75000000    2.93000007
   15.82416630  143.04899597    0.70999998    2.91000009
   15.82750034  122.88600159    0.70999998    2.94000006
   15.82999992  131.38600159    0.70999998    2.94000006
   15.83111095  126.12300110    0.70999998    2.93000007
   15.83444405  122.07900238    0.69000000    2.91000009
   15.83777714  118.63500214    0.70999998    2.93000007
   15.84083271  125.70400238    0.69000000    2.93000007
   15.84416676  127.24700165    0.70999998    2.94000006
   15.84722233  126.38899994    0.69000000    2.93000007
   15.85055637  121.97599792    0.69000000    2.93000007
   15.85388947  123.61599731    0.69000000    2.93000007
   15.85972214  123.61599731    0.67000002    2.93000007
   15.86388969  127.46399689    0.67000002    2.93000007
   15.86694431  126.99099731    0.67000002    2.93000007
   15.87027836  129.52600098    0.69000000    2.93000007
   15.87361145  130.44299316    0.67000002    2.93000007
   15.87694454  129.19500732    0.67000002    2.93000007
   15.88000011  127.83100128    0.67000002    2.94000006
   15.88333321  121.22299957    0.67000002    2.93000007
   15.88638878  139.94500732    0.69000000    2.93000007
   15.88972187  130.24699402    0.67000002    2.93000007
   15.89305496  130.70100403    0.67000002    2.93000007
   15.89611053  118.87200165    0.69000000    2.94000006
   15.89666653  117.18399811    0.67000002    2.94000006
   15.90249920  117.18399811    0.67000002    2.94000006
   15.90666676  125.71800232    0.67000002    2.94000006
   15.90999985  129.00799561    0.67000002    2.93000007
   15.91305542  124.98400116    0.64999998    2.93000007
   15.91638851  131.27600098    0.67000002    2.93000007
   15.91972256  131.82600403    0.69000000    2.94000006
   15.92277813  123.57099915    0.67000002    2.93000007
   15.92611122  132.68899536    0.69000000    2.93000007
   15.92944431  130.19900513    0.70999998    2.93000007
   15.93000031  125.44499969    0.70999998    2.93000007
   15.93305588  129.53199768    0.70999998    2.93000007
   15.93638897  131.61300659    0.70999998    2.93000007
   15.93944454  134.39799500    0.73000002    2.93000007
   15.94527817  134.39799500    0.80000001    2.93000007
   15.94944477  126.20999908    0.79000002    2.93000007
   15.95277786  132.08399963    0.79000002    2.93000007
   15.95611095  120.79199982    0.94000000    2.93000007
   15.95916653  123.44999695    0.94000000    2.94000006
   15.96249962  125.94300079    0.89999998    2.93000007
   15.96333313  131.83000183    0.89999998    2.91000009
   15.96611118  124.33399963    0.86000001    2.93000007
   15.96944427  125.96800232    0.86000001    2.94000006
   15.97249985  132.14500427    0.86000001    2.94000006
   15.97583294  127.70200348    0.73000002    2.93000007
   15.97916603  132.19000244    0.73000002    2.93000007
   15.98222160  123.84999847    0.75000000    2.93000007
   15.98833370  123.84999847    0.75000000    2.93000007
   15.99250031  133.86599731    0.76999998    2.93000007
   15.99555588  138.28500366    0.76999998    2.93000007
   15.99666691  121.87599945    0.76999998    2.93000007
   15.99916649  123.66100311    0.79000002    2.93000007
   16.00250053  136.12800598    0.79000002    2.93000007
   16.00555611  138.76400757    0.79000002    2.94000006
   16.00888824  128.11000061    0.76999998    2.93000007
   16.01222229  133.96800232    0.76999998    2.93000007
   16.01527786  138.65600586    0.75000000    2.93000007
   16.01861000  135.67700195    0.75000000    2.93000007
   16.02166557  128.80000305    0.76999998    2.93000007
   16.02499962  132.13499451    0.76999998    2.94000006
   16.03111076  132.13499451    0.75000000    2.93000007
   16.03527641  132.34500122    0.79000002    2.93000007
   16.03833199  131.28100586    0.79000002    2.93000007
   16.04166603  129.09599304    0.79000002    2.93000007
   16.04500008  142.62600708    0.75000000    2.93000007
   16.04805565  132.85000610    0.73000002    2.93000007
   16.05138779  134.94299316    0.75000000    2.93000007
   16.05472183  134.83299255    0.75000000    2.93000007
   16.05777740  137.84500122    0.75000000    2.93000007
   16.06110954  129.14100647    0.76999998    2.93000007
   16.06333351  129.11199951    0.76999998    2.93000007
   16.06472206  126.90499878    0.75000000    2.94000006
   16.06805611  120.57599640    0.75000000    2.93000007
   16.07389069  120.57599640    0.73000002    2.93000007
   16.07805634  137.15400696    0.73000002    2.94000006
   16.08139038  143.36000061    0.73000002    2.93000007
   16.08444595  145.45899963    0.73000002    2.93000007
   16.08777809  135.24899292    0.70999998    2.93000007
   16.09111214  135.35699463    0.70999998    2.93000007
   16.09416771  136.30400085    0.70999998    2.93000007
   16.09666824  129.33900452    0.70999998    2.93000007
   16.09777832  141.25900269    0.70999998    2.94000006
   16.10111237  142.02400208    0.70999998    2.91000009
   16.10416794  141.14100647    0.70999998    2.94000006
   16.10750008  128.80700684    0.73000002    2.93000007
   16.11083412  131.28300476    0.70999998    2.94000006
   16.11666679  131.28300476    0.70999998    2.93000007
   16.12083435  136.03900146    0.70999998    2.94000006
   16.12416649  133.99400330    0.70999998    2.94000006
   16.12750053  131.97900391    0.70999998    2.93000007
   16.13000107  135.54400635    0.73000002    2.94000006
   16.13111115  135.28500366    0.70999998    2.94000006
   16.13444519  130.66400146    0.73000002    2.93000007
   16.13750076  124.22399902    0.70999998    2.93000007
   16.14083290  119.68399811    0.73000002    2.93000007
   16.14416695  120.98600006    0.73000002    2.94000006
   16.14722252  124.52400208    0.75000000    2.94000006
   16.15055466  128.31599426    0.73000002    2.94000006
   16.15388870  128.06700134    0.75000000    2.94000006
   16.15972137  128.06700134    0.73000002    2.93000007
   16.16388893  129.99499512    0.70999998    2.93000007
   16.16694450  127.25499725    0.70999998    2.93000007
   16.17027664  133.09100342    0.70999998    2.93000007
   16.17361069  128.80299377    0.70999998    2.94000006
   16.17666626  125.05200195    0.70999998    2.94000006
   16.18000031  126.67299652    0.73000002    2.93000007
   16.18333244  121.22699738    0.73000002    2.94000006
   16.18638802  121.86000061    0.73000002    2.94000006
   16.18972206  127.65299988    0.75000000    2.94000006
   16.19277763  130.45300293    0.73000002    2.94000006
   16.19610977  130.52099609    0.73000002    2.93000007
   16.19694328  132.87300110    0.73000002    2.93000007
   16.20250130  132.87300110    0.73000002    2.93000007
   16.20666695  127.85399628    0.73000002    2.91000009
   16.21000099  128.45399475    0.73000002    2.93000007
   16.21305656  129.00199890    0.73000002    2.93000007
   16.21638870  132.80999756    0.70999998    2.93000007
   16.21972275  132.31100464    0.70999998    2.94000006
   16.22277832  137.20899963    0.70999998    2.94000006
   16.22611237  135.42700195    0.70999998    2.94000006
   16.22916794  121.20999908    0.70999998    2.93000007
   16.23027802  133.50799561    0.70999998    2.93000007
   16.23277855  131.28599548    0.70999998    2.93000007
   16.23611069  127.06400299    0.70999998    2.93000007
   16.23944473  122.92600250    0.73000002    2.93000007
   16.24527740  122.92600250    0.70999998    2.94000006
   16.24944496  120.12300110    0.70999998    2.94000006
   16.25277710  114.37599945    0.70999998    2.93000007
   16.25583267  123.80300140    0.69000000    2.94000006
   16.25916672  123.10500336    0.69000000    2.94000006
   16.26250076  119.83200073    0.69000000    2.94000006
   16.26361084  128.34500122    0.69000000    2.93000007
   16.26583290  122.17400360    0.69000000    2.93000007
   16.26916695  116.95200348    0.69000000    2.94000006
   16.27249908  127.86699677    0.69000000    2.94000006
   16.27555466  124.46499634    0.69000000    2.94000006
   16.27888870  126.06400299    0.69000000    2.93000007
   16.28194427  126.01399994    0.70999998    2.94000006
   16.28805542  126.01399994    0.73000002    2.93000007
   16.29222107  117.81300354    0.73000002    2.96000004
   16.29555511  113.71399689    0.73000002    2.96000004
   16.29694366  113.40899658    0.73000002    2.94000006
   16.29916573  120.80899811    0.76999998    2.94000006
   16.30249977  120.42199707    0.76999998    2.94000006
   16.30583191  131.14999390    0.79000002    2.94000006
   16.30888748  122.48500061    0.83999997    2.94000006
   16.31222153  128.40499878    0.80000001    2.93000007
   16.31527710  121.48400116    0.80000001    2.93000007
   16.31861115  118.30100250    0.79000002    2.93000007
   16.32194519  123.50299835    0.76999998    2.94000006
   16.32500076  123.31300354    0.79000002    2.94000006
   16.33111191  123.31300354    0.80000001    2.94000006
   16.33527756  116.90599823    0.79000002    2.94000006
   16.33833313  118.68900299    0.80000001    2.93000007
   16.34166718  119.13099670    0.76999998    2.93000007
   16.34500122  129.58799744    0.75000000    2.94000006
   16.34805679  122.28099823    0.75000000    2.93000007
   16.35138893  122.09799957    0.75000000    2.93000007
   16.35444450  119.71900177    0.75000000    2.93000007
   16.35777855  120.37300110    0.75000000    2.94000006
   16.36111069  120.56099701    0.75000000    2.93000007
   16.36361122  127.13899994    0.75000000    2.94000006
   16.36472321  117.12699890    0.75000000    2.94000006
   16.36805534  124.59700012    0.76999998    2.94000006
   16.37388992  124.59700012    0.75000000    2.93000007
   16.37805557  128.08799744    0.75000000    2.94000006
   16.38111115  128.49499512    0.73000002    2.94000006
   16.38444519  121.50099945    0.75000000    2.94000006
   16.38777733  124.36000061    0.75000000    2.94000006
   16.39083290  120.88800049    0.73000002    2.93000007
   16.39416695  123.91100311    0.75000000    2.93000007
   16.39694405  122.97299957    0.73000002    2.94000006
   16.39777756  125.80200195    0.75000000    2.94000006
   16.40111160  125.86699677    0.75000000    2.94000006
   16.40416718  123.74800110    0.73000002    2.94000006
   16.40749931  119.87000275    0.75000000    2.94000006
   16.41083336  125.01200104    0.75000000    2.94000006
   16.41666603  125.01200104    0.75000000    2.93000007
   16.42083359  145.00199890    0.75000000    2.94000006
   16.42416573  121.36900330    0.75000000    2.94000006
   16.42722130  116.58999634    0.75000000    2.94000006
   16.43027687  118.26799774    0.75000000    2.94000006
   16.43083191  122.28900146    0.75000000    2.94000006
   16.43416595  118.72799683    0.75000000    2.94000006
   16.43722153  122.44499969    0.75000000    2.93000007
   16.44055557  126.19499969    0.76999998    2.94000006
   16.44388771  118.27300262    0.76999998    2.94000006
   16.44694328  124.13700104    0.76999998    2.93000007
   16.45027924  117.55899811    0.76999998    2.94000006
   16.45361137  120.17900085    0.76999998    2.94000006
   16.45944595  120.17900085    0.76999998    2.93000007
   16.46361160  117.27700043    0.80000001    2.94000006
   16.46694565  112.18800354    0.83999997    2.94000006
   16.47000122  123.86100006    0.86000001    2.94000006
   16.47333336  126.52300262    0.81999999    2.94000006
   16.47666740  117.94000244    0.80000001    2.94000006
   16.47972298  122.38999939    0.81999999    2.94000006
   16.48305511  120.95300293    0.81999999    2.94000006
   16.48638916  124.21099854    0.83999997    2.93000007
   16.48944473  117.18800354    0.83999997    2.93000007
   16.49277878  122.29199982    0.83999997    2.93000007
   16.49583435  126.36799622    0.81999999    2.93000007
   16.49694443  134.82699585    0.81999999    2.93000007
   16.50250053  134.82699585    0.76999998    2.94000006
   16.50638962  133.37199402    0.76999998    2.94000006
   16.50972176  129.90100098    0.76999998    2.94000006
   16.51305580  121.79100037    0.76999998    2.93000007
   16.51611137  132.42999268    0.75000000    2.94000006
   16.51944351  133.13400269    0.75000000    2.93000007
   16.52277756  133.23300171    0.75000000    2.94000006
   16.52583313  132.78100586    0.75000000    2.93000007
   16.52916718  129.46499634    0.75000000    2.93000007
   16.53027725  129.68099976    0.75000000    2.93000007
   16.53277779  136.21400452    0.76999998    2.94000006
   16.53610992  133.22599792    0.76999998    2.93000007
   16.53916550  128.75500488    0.76999998    2.93000007
   16.54527664  128.75500488    0.76999998    2.94000006
   16.54944420  127.11799622    0.76999998    2.94000006
   16.55249977  127.31099701    0.76999998    2.94000006
   16.55583191  124.81199646    0.76999998    2.94000006
   16.55916595  121.73799896    0.79000002    2.93000007
   16.56250000  125.68900299    0.76999998    2.93000007
   16.56361008  125.12300110    0.76999998    2.93000007
   16.56583214  124.83200073    0.76999998    2.94000006
   16.56916809  127.49600220    0.76999998    2.93000007
   16.57250023  127.37300110    0.76999998    2.93000007
   16.57555580  132.29800415    0.76999998    2.93000007
   16.57888985  122.62400055    0.75000000    2.93000007
   16.58194542  134.39999390    0.76999998    2.93000007
   16.58805656  134.39999390    0.76999998    2.94000006
   16.59222221  120.08000183    0.76999998    2.94000006
   16.59555626  121.80100250    0.79000002    2.93000007
   16.59694481  132.04899597    0.79000002    2.93000007
   16.59889030  126.45800018    0.79000002    2.93000007
   16.60222244  128.99400330    0.76999998    2.94000006
   16.60555649  130.89100647    0.79000002    2.93000007
   16.60861206  126.69499969    0.79000002    2.93000007
   16.61194420  124.35600281    0.79000002    2.93000007
   16.61499977  120.57099915    0.79000002    2.93000007
   16.61833382  126.42600250    0.79000002    2.94000006
   16.62166595  131.14199829    0.80000001    2.94000006
   16.62472153  131.79499817    0.80000001    2.94000006
   16.63083267  131.79499817    0.80000001    2.94000006
   16.63500023  126.37500000    0.80000001    2.93000007
   16.63833237  129.12399292    0.79000002    2.93000007
   16.64166641  122.75599670    0.80000001    2.94000006
   16.64472198  118.11699677    0.80000001    2.94000006
   16.64805603  127.19499969    0.80000001    2.94000006
   16.65138817  127.73500061    0.80000001    2.94000006
   16.65444374  124.48200226    0.80000001    2.94000006
   16.65777779  124.05300140    0.80000001    2.94000006
   16.66110992  131.57400513    0.80000001    2.93000007
   16.66361046  130.21499634    0.80000001    2.93000007
   16.66472244  123.64600372    0.80000001    2.93000007
   16.66805458  130.18200684    0.81999999    2.93000007
   16.67388916  130.18200684    0.81999999    2.94000006
   16.67777634  131.91999817    0.81999999    2.94000006
   16.68111038  130.38600159    0.83999997    2.94000006
   16.68444443  136.25199890    0.83999997    2.94000006
   16.68750000  129.61099243    0.83999997    2.94000006
   16.69083214  126.35700226    0.81999999    2.93000007
   16.69416618  132.50700378    0.81999999    2.93000007
   16.69694328  136.43600464    0.81999999    2.94000006
   16.69749832  134.37500000    0.81999999    2.94000006
   16.70083427  132.37100220    0.81999999    2.94000006
   16.70416832  126.67600250    0.83999997    2.94000006
   16.70722389  127.17700195    0.81999999    2.94000006
   16.71055603  129.64300537    0.81999999    2.94000006
   16.71666718  129.64300537    0.81999999    2.94000006
   16.72083473  134.39900208    0.81999999    2.93000007
   16.72389030  125.12400055    0.83999997    2.94000006
   16.72722244  125.30400085    0.83999997    2.94000006
   16.73027802  134.04800415    0.81999999    2.93000007
   16.73083305  136.14999390    0.81999999    2.93000007
   16.73416710  116.20300293    0.81999999    2.93000007
   16.73750114  132.28599548    0.83999997    2.93000007
   16.74055672  126.79399872    0.86000001    2.93000007
   16.74388885  127.08000183    0.86000001    2.93000007
   16.74694443  132.26199341    0.86000001    2.94000006
   16.75027847  131.89199829    0.86000001    2.94000006
   16.75361061  133.17100525    0.86000001    2.93000007
   16.75944519  133.17100525    0.86000001    2.93000007
   16.76361084  128.97799683    0.88000000    2.93000007
   16.76694489  127.65299988    0.88000000    2.94000006
   16.77000046  133.75399780    0.88000000    2.94000006
   16.77333260  127.03800201    0.88000000    2.93000007
   16.77638817  126.05500031    0.88000000    2.94000006
   16.77972221  127.26399994    0.88000000    2.94000006
   16.78305435  128.08200073    0.88000000    2.93000007
   16.78610992  133.91999817    0.89999998    2.94000006
   16.78944397  133.89700317    0.89999998    2.94000006
   16.79277802  138.54200745    0.89999998    2.93000007
   16.79583359  130.65400696    0.92000002    2.94000006
   16.79694366  127.21199799    0.94000000    2.93000007
   16.81750107  127.21199799    0.89999998    2.93000007
   16.82166672  128.15100098    0.89999998    2.93000007
   16.82500076  132.45199585    0.89999998    2.93000007
   16.82805634  122.40399933    0.89999998    2.93000007
   16.83027840  130.77600098    0.89999998    2.93000007
   16.83166695  129.45799255    0.92000002    2.93000007
   16.83500099  132.07200623    0.92000002    2.94000006
   16.83833313  128.41099548    0.92000002    2.94000006
   16.84138870  138.17199707    0.89999998    2.94000006
   16.84472275  124.35800171    0.89999998    2.93000007
   16.84805679  126.16999817    0.92000002    2.93000007
   16.85111237  124.86499786    0.88000000    2.93000007
   16.85444450  131.31599426    0.88000000    2.93000007
   16.86027908  131.31599426    0.88000000    2.93000007
   16.86444473  132.72099304    0.89999998    2.94000006
   16.86777878  134.01400757    0.89999998    2.94000006
   16.87083435  139.10099792    0.92000002    2.93000007
   16.87416649  134.38299561    0.92000002    2.93000007
   16.87750053  132.30900574    0.92000002    2.93000007
   16.88055611  130.32000732    0.92000002    2.94000006
   16.88388824  130.29699707    0.94000000    2.93000007
   16.88694382  131.79499817    0.94000000    2.93000007
   16.89027786  132.16000366    0.94000000    2.93000007
   16.89361191  142.33500671    0.95999998    2.93000007
   16.89666748  130.26499939    0.95999998    2.94000006
   16.89722252  130.85400391    0.95999998    2.93000007
   16.90305519  130.85400391    0.95999998    2.94000006
   16.90722275  132.74699402    0.94000000    2.94000006
   16.91055489  134.26699829    0.94000000    2.93000007
   16.91361046  130.76499939    0.92000002    2.94000006
   16.91694450  132.54600525    0.94000000    2.94000006
   16.92027664  125.26000214    0.94000000    2.94000006
   16.92333221  131.96000671    0.94000000    2.93000007
   16.92666626  131.39799500    0.94000000    2.93000007
   16.93000031  134.93800354    0.94000000    2.93000007
   16.93055534  135.59899902    0.94000000    2.94000006
   16.93361092  129.22300720    0.94000000    2.94000006
   16.93694305  130.58500671    0.94000000    2.94000006
   16.93999863  130.41700745    0.95999998    2.94000006
   16.94610977  130.41700745    0.94000000    2.94000006
   16.95027924  139.54800415    0.94000000    2.94000006
   16.95333481  167.14799500    0.94000000    2.93000007
   16.95666695  123.20800018    0.94000000    2.93000007
   16.95972252  151.48300171    0.94000000    2.94000006
   16.96305656  160.34300232    0.95999998    2.93000007
   16.96389008  177.52099609    0.95999998    2.93000007
   16.96666718  140.75700378    0.98000002    2.94000006
   16.97000122  142.12699890    0.98000002    2.93000007
   16.97305679  151.18400574    0.98000002    2.93000007
   16.97638893  139.45799255    1.00000000    2.93000007
   16.97944450  155.36700439    0.98000002    2.94000006
   16.98277855  160.55599976    0.94000000    2.94000006
   16.98888969  160.55599976    0.94000000    2.93000007
   16.99305534  127.63800049    0.94000000    2.93000007
   16.99611092  121.19400024    0.89999998    2.93000007
   16.99722290  124.94100189    0.89999998    2.93000007
   17.00000000  131.35000610    0.89999998    2.93000007
   17.00333405  132.96899414    0.89999998    2.93000007
   17.00638962  130.96600342    0.89999998    2.94000006
   17.00972176  126.94300079    0.92000002    2.94000006
   17.01305580  138.82800293    0.92000002    2.94000006
   17.01611137  131.41200256    0.92000002    2.94000006
   17.01944351  129.09199524    0.92000002    2.94000006
   17.02249908  134.81599426    0.92000002    2.94000006
   17.02583313  130.56599426    0.94000000    2.93000007
   17.03166580  130.56599426    0.92000002    2.94000006
   17.03583336  133.58599854    0.92000002    2.94000006
   17.03916550  124.62000275    0.89999998    2.94000006
   17.04222107  141.33200073    0.88000000    2.94000006
   17.04555511  133.11399841    0.86000001    2.93000007
   17.04888916  136.56799316    0.86000001    2.94000006
   17.05194283  140.97000122    0.86000001    2.94000006
   17.05527687  135.54899597    0.86000001    2.94000006
   17.05861092  135.06300354    0.83999997    2.94000006
   17.06166649  126.63999939    0.83999997    2.94000006
   17.06388855  133.92300415    0.83999997    2.93000007
   17.06527710  139.95300293    0.83999997    2.93000007
   17.06861115  132.74299622    0.83999997    2.94000006
   17.07444572  132.74299622    0.83999997    2.93000007
   17.07861137  140.22399902    0.83999997    2.93000007
   17.08194542  134.23399353    0.83999997    2.94000006
   17.08500099  129.05200195    0.83999997    2.94000006
   17.08833313  132.23100281    0.81999999    2.94000006
   17.09166718  123.59899902    0.81999999    2.94000006
   17.09472275  141.47500610    0.83999997    2.94000006
   17.09722328  133.21800232    0.83999997    2.94000006
   17.09833336  128.98599243    0.83999997    2.94000006
   17.10166740  136.00199890    0.83999997    2.94000006
   17.10472298  150.79100037    0.81999999    2.94000006
   17.10805511  148.62600708    0.81999999    2.93000007
   17.11138916  174.31100464    0.81999999    2.94000006
   17.11750031  174.31100464    0.81999999    2.94000006
   17.12138939  199.50399780    0.83999997    2.94000006
   17.12472153  175.78999329    0.83999997    2.94000006
   17.12805557  193.06799316    0.83999997    2.94000006
   17.13055611  185.62800598    0.81999999    2.94000006
   17.13166618  202.14399719    0.81999999    2.94000006
   17.13500023  242.35800171    0.81999999    2.94000006
   17.13805580  223.58700562    0.81999999    2.94000006
   17.14138794  211.42700195    0.81999999    2.94000006
   17.14472198  239.90100098    0.81999999    2.94000006
   17.14777756  231.02400208    0.81999999    2.94000006
   17.15111160  222.82400513    0.81999999    2.94000006
   17.15444374  202.23100281    0.81999999    2.94000006
   17.16027832  202.23100281    0.81999999    2.93000007
   17.16444397  247.48300171    0.83999997    2.93000007
   17.16777802  210.80200195    0.86000001    2.93000007
   17.17111015  240.96499634    0.88000000    2.93000007
   17.17416573  219.71200562    0.86000001    2.94000006
   17.17749977  173.38400269    0.88000000    2.94000006
   17.18055534  234.84300232    0.88000000    2.94000006
   17.18388748  209.01300049    0.88000000    2.94000006
   17.18722153  237.77499390    0.88000000    2.94000006
   17.19027710  237.83900452    0.89999998    2.94000006
   17.19361115  206.00100708    0.89999998    2.94000006
   17.19694328  220.94500732    0.89999998    2.94000006
   17.19749832  198.36900330    0.89999998    2.94000006
   17.20305634  198.36900330    0.89999998    2.94000006
   17.20722389  193.42599487    0.88000000    2.94000006
   17.21055603  198.90899658    0.89999998    2.93000007
   17.21361160  185.25199890    0.89999998    2.93000007
   17.21694565  201.22900391    0.89999998    2.94000006
   17.22000122  197.33599854    0.92000002    2.93000007
   17.22333336  183.31700134    0.89999998    2.94000006
   17.22666740  182.11500549    0.89999998    2.94000006
   17.22972298  181.11999512    0.89999998    2.94000006
   17.23083305  209.01100159    0.92000002    2.94000006
   17.23333359  176.84899902    0.89999998    2.94000006
   17.23666763  196.94000244    0.89999998    2.94000006
   17.23999977  171.79100037    0.89999998    2.94000006
   17.24583435  171.79100037    0.89999998    2.94000006
   17.25000000  145.05200195    0.88000000    2.93000007
   17.25333405  199.29800415    0.88000000    2.94000006
   17.25638962  194.03300476    0.89999998    2.94000006
   17.25972176  197.22599792    0.88000000    2.93000007
   17.26305580  173.46800232    0.88000000    2.94000006
   17.26416588  197.01499939    0.88000000    2.94000006
   17.26666641  162.95599365    0.88000000    2.94000006
   17.27000046  176.13800049    0.88000000    2.94000006
   17.27333260  177.07099915    0.88000000    2.94000006
   17.27638817  180.27000427    0.88000000    2.94000006
   17.27972221  203.76899719    0.89999998    2.93000007
   17.28305435  175.69500732    0.88000000    2.94000006
   17.28888893  175.69500732    0.88000000    2.94000006
   17.29277802  184.11900330    0.88000000    2.93000007
   17.29611015  191.54899597    0.86000001    2.94000006
   17.29749870  198.33799744    0.86000001    2.94000006
   17.29972076  191.00500488    0.86000001    2.94000006
   17.30305481  181.54200745    0.86000001    2.94000006
   17.30638885  168.00300598    0.86000001    2.94000006
   17.30944443  170.10699463    0.88000000    2.93000007
   17.31277657  195.27900696    0.86000001    2.93000007
   17.31611061  160.25799561    0.86000001    2.94000006
   17.31916809  197.26499939    0.86000001    2.94000006
   17.32250023  202.67700195    0.86000001    2.93000007
   17.32583427  165.29899597    0.86000001    2.93000007
   17.33166695  165.29899597    0.86000001    2.94000006
   17.33583450  171.13699341    0.86000001    2.93000007
   17.33889008  172.35699463    0.86000001    2.94000006
   17.34222221  165.98800659    0.86000001    2.94000006
   17.34555626  174.99099731    0.86000001    2.93000007
   17.34861183  169.86500549    0.86000001    2.94000006
   17.35194397  160.79899597    0.86000001    2.93000007
   17.35527802  165.26100159    0.86000001    2.94000006
   17.35833359  156.88800049    0.86000001    2.94000006
   17.36166763  159.62300110    0.86000001    2.94000006
   17.36416626  140.41200256    0.86000001    2.94000006
   17.36527824  152.71200562    0.86000001    2.94000006
   17.36861038  160.16700745    0.83999997    2.94000006
   17.37444496  160.16700745    0.83999997    2.94000006
   17.37861061  153.13099670    0.83999997    2.94000006
   17.38194466  150.96400452    0.83999997    2.94000006
   17.38500023  149.13999939    0.83999997    2.94000006
   17.38833237  143.17500305    0.83999997    2.94000006
   17.39138794  154.25700378    0.81999999    2.93000007
   17.39472198  146.86000061    0.81999999    2.93000007
   17.39749908  145.96099854    0.81999999    2.93000007
   17.39833260  146.98800659    0.81999999    2.93000007
   17.40166664  145.83000183    0.83999997    2.94000006
   17.40499878  149.02099609    0.83999997    2.94000006
   17.40805435  155.78700256    0.83999997    2.93000007
   17.41138840  144.84800720    0.83999997    2.94000006
   17.41722107  144.84800720    0.83999997    2.93000007
   17.42138863  134.58799744    0.86000001    2.93000007
   17.42472076  135.17900085    0.81999999    2.93000007
   17.42777634  129.55700684    0.81999999    2.93000007
   17.43083191  154.14900208    0.81999999    2.93000007
   17.43138885  150.90400696    0.81999999    2.93000007
   17.43472099  131.77900696    0.81999999    2.93000007
   17.43805504  154.68499756    0.81999999    2.93000007
   17.44111061  126.51399994    0.80000001    2.94000006
   17.44444275  146.90499878    0.80000001    2.93000007
   17.44749832  153.52799988    0.80000001    2.94000006
   17.45083427  166.30799866    0.79000002    2.93000007
   17.45416832  167.06399536    0.79000002    2.94000006
   17.46027946  167.06399536    0.76999998    2.93000007
   17.46416664  139.06799316    0.79000002    2.94000006
   17.46750069  154.52400208    0.79000002    2.93000007
   17.47083473  153.11700439    0.79000002    2.93000007
   17.47389030  147.86999512    0.79000002    2.94000006
   17.47722244  140.74800110    0.79000002    2.94000006
   17.48055649  134.89500427    0.79000002    2.93000007
   17.48361206  160.98800659    0.79000002    2.93000007
   17.48694420  137.77900696    0.79000002    2.94000006
   17.49027824  135.40199280    0.79000002    2.94000006
   17.49333382  160.42100525    0.79000002    2.94000006
   17.49666786  136.61399841    0.79000002    2.93000007
   17.49749947  148.43200684    0.79000002    2.93000007
   17.50305557  148.43200684    0.76999998    2.93000007
   17.50722313  151.16999817    0.76999998    2.94000006
   17.51027870  151.38499451    0.76999998    2.93000007
   17.51361084  142.50700378    0.79000002    2.93000007
   17.51694489  158.78500366    0.79000002    2.93000007
   17.52000046  156.26600647    0.76999998    2.93000007
   17.52333260  148.31599426    0.76999998    2.93000007
   17.52666664  140.92100525    0.79000002    2.94000006
   17.52972221  135.03799438    0.76999998    2.93000007
   17.53083229  135.56700134    0.76999998    2.93000007
   17.53333282  151.09800720    0.76999998    2.93000007
   17.53666687  156.65600586    0.79000002    2.93000007
   17.53999901  141.04899597    0.79000002    2.94000006
   17.54583359  141.04899597    0.79000002    2.93000007
   17.54999924  145.23199463    0.79000002    2.93000007
   17.55333328  136.42500305    0.80000001    2.94000006
   17.55638885  134.92100525    0.80000001    2.94000006
   17.55972099  123.61799622    0.80000001    2.93000007
   17.56277657  150.33700562    0.80000001    2.93000007
   17.56416512  139.16600037    0.81999999    2.93000007
   17.56638718  120.46800232    0.81999999    2.94000006
   17.56972313  131.63400269    0.81999999    2.93000007
   17.57305717  134.81199646    0.81999999    2.93000007
   17.57611275  127.95500183    0.81999999    2.94000006
   17.57944489  139.08299255    0.81999999    2.93000007
   17.58277893  126.38400269    0.81999999    2.94000006
   17.58861160  126.38400269    0.81999999    2.94000006
   17.59277916  128.90100098    0.81999999    2.94000006
   17.59611130  135.82499695    0.81999999    2.93000007
   17.59749985  128.79299927    0.81999999    2.93000007
   17.59972191  128.65400696    0.81999999    2.93000007
   17.60305595  133.27499390    0.81999999    2.93000007
   17.60639000  139.33900452    0.81999999    2.93000007
   17.60944557  143.41999817    0.83999997    2.93000007
   17.61277771  130.61999512    0.83999997    2.93000007
   17.61611176  141.14999390    0.83999997    2.93000007
   17.61916733  141.55999756    0.83999997    2.93000007
   17.62249947  138.50399780    0.83999997    2.94000006
   17.62555504  129.47599792    0.86000001    2.94000006
   17.63166618  129.47599792    0.86000001    2.93000007
   17.63555527  135.51400757    0.86000001    2.94000006
   17.63888931  142.34300232    0.88000000    2.93000007
   17.64222145  133.71800232    0.88000000    2.93000007
   17.64527702  126.99700165    0.88000000    2.93000007
   17.64861107  119.18199921    0.88000000    2.93000007
   17.65194321  127.52899933    0.89999998    2.94000006
   17.65499878  122.86299896    0.89999998    2.93000007
   17.65833282  134.03300476    0.89999998    2.94000006
   17.66166687  131.78300476    0.89999998    2.93000007
   17.66416550  127.15599823    0.89999998    2.93000007
   17.66499901  126.11900330    0.89999998    2.93000007
   17.66833305  136.28700256    0.89999998    2.93000007
   17.67444420  136.28700256    0.89999998    2.94000006
   17.67860985  132.99899292    0.89999998    2.93000007
   17.68166542  128.49600220    0.89999998    2.93000007
   17.68499947  131.76600647    0.89999998    2.93000007
   17.68833160  130.44700623    0.89999998    2.93000007
   17.69138718  126.11299896    0.89999998    2.94000006
   17.69472122  132.65100098    0.89999998    2.94000006
   17.69749832  131.33599854    0.89999998    2.93000007
   17.69833183  130.03399658    0.92000002    2.93000007
   17.70166779  133.24499512    0.89999998    2.94000006
   17.70499992  121.21399689    0.89999998    2.94000006
   17.70805550  132.01499939    0.89999998    2.93000007
   17.71138954  131.23800659    0.88000000    2.93000007
   17.71722221  131.23800659    0.88000000    2.93000007
   17.72138977  127.95400238    0.89999998    2.93000007
   17.72472191  139.28700256    0.89999998    2.93000007
   17.72777748  130.25700378    0.88000000    2.93000007
   17.73083305  134.07600403    0.88000000    2.93000007
   17.73166656  125.93199921    0.88000000    2.93000007
   17.73472214  129.48100281    0.88000000    2.93000007
   17.73805618  129.87300110    0.88000000    2.93000007
   17.74138832  129.29699707    0.89999998    2.93000007
   17.74472237  128.31300354    0.89999998    2.93000007
   17.74777794  134.30900574    0.89999998    2.93000007
   17.75111198  126.30500031    0.89999998    2.93000007
   17.75444412  132.08200073    0.92000002    2.93000007
   17.76000023  132.08200073    0.94000000    2.93000007
   17.76416588  133.20100403    0.94000000    2.93000007
   17.76749992  131.82499695    0.94000000    2.93000007
   17.77055550  139.80999756    0.98000002    2.93000007
   17.77388954  138.71499634    1.00000000    2.93000007
   17.77722168  138.50999451    1.00000000    2.93000007
   17.78027725  133.58999634    0.98000002    2.93000007
   17.78361130  127.29399872    0.94000000    2.93000007
   17.78666687  143.44799805    0.94000000    2.93000007
   17.78999901  144.76499939    0.94000000    2.93000007
   17.79333305  154.82299805    0.95999998    2.93000007
   17.79638863  138.16000366    1.05999994    2.93000007
   17.79749870  135.42399597    1.05999994    2.93000007
   17.80277634  135.42399597    0.98000002    2.93000007
   17.80694389  142.32000732    0.95999998    2.93000007
   17.81027794  153.03399658    0.92000002    2.93000007
   17.81361008  143.57600403    0.92000002    2.93000007
   17.83111191  142.60699463    0.92000002    2.94000006
   17.83361244  132.09800720    0.92000002    2.94000006
   17.83694458  129.40499878    0.92000002    2.94000006
   17.84000015  136.52499390    0.94000000    2.93000007
   17.84583473  136.52499390    0.92000002    2.93000007
   17.85000038  149.34899902    0.92000002    2.93000007
   17.85333443  135.35200500    0.92000002    2.93000007
   17.85777855  128.92900085    0.92000002    2.93000007
   17.86111069  145.27000427    0.92000002    2.93000007
   17.86444473  152.36399841    0.92000002    2.93000007
   17.86472321  139.40199280    0.92000002    2.93000007
   17.86805534  136.39300537    0.92000002    2.93000007
   17.87138939  139.27400208    0.92000002    2.93000007
   17.87444496  136.10299683    0.92000002    2.93000007
   17.87777710  138.88900757    0.92000002    2.93000007
   17.88083267  130.62300110    0.92000002    2.93000007
   17.88416672  128.73300171    0.92000002    2.93000007
   17.88888931  128.73300171    0.92000002    2.93000007
   17.89305496  127.71099854    0.94000000    2.93000007
   17.89611053  121.70099640    0.94000000    2.93000007
   17.89777756  130.62300110    0.94000000    2.93000007
   17.89972115  133.61500549    0.94000000    2.93000007
   17.90305519  124.41799927    0.92000002    2.93000007
   17.90638924  128.89900208    0.92000002    2.93000007
   17.90944481  128.79499817    0.92000002    2.94000006
   17.91277695  133.04699707    0.92000002    2.93000007
   17.91611099  122.61000061    0.92000002    2.93000007
   17.91916656  128.96000671    0.92000002    2.93000007
   17.92249870  126.00399780    0.92000002    2.93000007
   17.92555428  149.74000549    0.89999998    2.93000007
   17.93166542  149.74000549    0.89999998    2.93000007
   17.93583298  132.31900024    0.89999998    2.94000006
   17.93888855  133.96000671    0.89999998    2.93000007
   17.94222069  130.04499817    0.89999998    2.93000007
   17.94555473  126.07499695    0.88000000    2.94000006
   17.94861031  119.41400146    0.88000000    2.93000007
   17.95194435  124.30899811    0.88000000    2.93000007
   17.95527840  125.16500092    0.88000000    2.93000007
   17.95833397  132.88200378    0.88000000    2.93000007
   17.96166801  131.97099304    0.88000000    2.93000007
   17.96444511  134.36799622    0.88000000    2.93000007
   17.96527863  131.89700317    0.86000001    2.93000007
   17.96861076  130.97900391    0.88000000    2.93000007
   17.97444534  130.97900391    0.88000000    2.93000007
   17.97861099  131.05999756    0.88000000    2.94000006
   17.98194504  122.14399719    0.88000000    2.93000007
   17.98500061  112.08599854    0.88000000    2.93000007
   17.98833275  127.66400146    0.88000000    2.93000007
   17.99166679  128.66600037    0.88000000    2.93000007
   17.99472237  134.06500244    0.88000000    2.94000006
   17.99777794  140.50700378    0.88000000    2.93000007
   17.99833298  135.07000732    0.88000000    2.93000007
   18.00166702  134.04200745    0.88000000    2.93000007
   18.00499916  129.67399597    0.88000000    2.94000006
   18.00805473  131.64700317    0.88000000    2.94000006
   18.01138878  128.24299622    0.88000000    2.93000007
   18.01722145  128.24299622    0.88000000    2.94000006
   18.02138901  135.51400757    0.88000000    2.94000006
   18.02472115  136.16000366    0.89999998    2.94000006
   18.02805519  121.25099945    0.88000000    2.93000007
   18.03111076  136.00300598    0.88000000    2.93000007
   18.03138924  132.45300293    0.88000000    2.93000007
   18.03472137  134.23899841    0.89999998    2.93000007
   18.03805542  127.25099945    0.88000000    2.93000007
   18.04111099  131.40699768    0.88000000    2.93000007
   18.04444313  130.73300171    0.88000000    2.93000007
   18.04777718  132.65400696    0.89999998    2.93000007
   18.05083275  129.64300537    0.89999998    2.93000007
   18.05416679  135.69799805    0.89999998    2.94000006
   18.06027794  135.69799805    0.88000000    2.93000007
   18.06444359  129.59899902    0.88000000    2.93000007
   18.06472206  123.43299866    0.88000000    2.93000007
   18.06805611  129.89900208    0.89999998    2.93000007
   18.07139015  125.38800049    0.88000000    2.93000007
   18.07444572  124.34200287    0.88000000    2.93000007
   18.07777786  129.50999451    0.88000000    2.93000007
   18.08111191  126.85199738    0.89999998    2.93000007
   18.08416748  131.83900452    0.89999998    2.93000007
   18.08750153  132.00199890    0.89999998    2.93000007
   18.09083366  126.76200104    0.88000000    2.93000007
   18.09388924  131.92900085    0.88000000    2.93000007
   18.09722328  135.64300537    0.88000000    2.93000007
   18.09777832  140.98100281    0.88000000    2.93000007
   18.10305595  140.98100281    0.88000000    2.93000007
   18.10722351  128.59199524    0.89999998    2.93000007
   18.11027908  131.56199646    0.88000000    2.93000007
   18.11361122  140.09300232    0.88000000    2.93000007
   18.11694527  136.00999451    0.88000000    2.93000007
   18.12000084  143.85899353    0.88000000    2.93000007
   18.12333298  139.18299866    0.88000000    2.93000007
   18.12666702  128.78700256    0.89999998    2.93000007
   18.12972260  129.39300537    0.89999998    2.93000007
   18.13111115  128.28999329    0.89999998    2.93000007
   18.13333321  124.48699951    0.89999998    2.93000007
   18.13666725  124.94300079    0.89999998    2.93000007
   18.13999939  122.99299622    0.89999998    2.93000007
   18.14583397  122.99299622    0.89999998    2.93000007
   18.14999962  126.17400360    0.89999998    2.93000007
   18.15333366  127.38099670    0.92000002    2.93000007
   18.15638924  127.17900085    0.92000002    2.93000007
   18.15972137  130.51300049    0.92000002    2.93000007
   18.16305542  124.04699707    0.92000002    2.93000007
   18.16444397  134.91900635    0.92000002    2.93000007
   18.16666603  133.49699402    0.92000002    2.93000007
   18.16972160  134.15899658    0.92000002    2.93000007
   18.17305565  135.25100708    0.92000002    2.93000007
   18.17638779  134.27900696    0.94000000    2.93000007
   18.17944336  122.76999664    0.94000000    2.93000007
   18.18277740  132.70199585    0.94000000    2.93000007
   18.18861008  132.70199585    0.94000000    2.93000007
   18.19277763  126.02400208    0.94000000    2.93000007
   18.19610977  126.72299957    0.94000000    2.93000007
   18.19777679  132.01100159    0.94000000    2.93000007
   18.19972038  133.16099548    0.94000000    2.93000007
   18.20277786  129.62699890    0.94000000    2.93000007
   18.20611191  126.91100311    0.94000000    2.93000007
   18.20944595  125.42199707    0.94000000    2.93000007
   18.21250153  126.15200043    0.94000000    2.93000007
   18.21583366  125.41300201    0.94000000    2.93000007
   18.21888924  130.74400330    0.95999998    2.91000009
   18.22222328  128.50000000    0.95999998    2.93000007
   18.22555542  126.36000061    0.95999998    2.93000007
   18.23166656  126.36000061    0.95999998    2.93000007
   18.23555565  127.13700104    0.98000002    2.93000007
   18.23888969  130.85499573    0.98000002    2.93000007
   18.24222183  126.53900146    0.95999998    2.93000007
   18.24527740  130.79899597    0.98000002    2.93000007
   18.24861145  128.79699707    1.00000000    2.93000007
   18.25194359  131.08000183    0.98000002    2.93000007
   18.25499916  129.97200012    1.00000000    2.93000007
   18.25833321  127.75700378    1.00000000    2.93000007
   18.26166725  138.32099915    0.98000002    2.93000007
   18.26444435  129.16000366    0.98000002    2.93000007
   18.26527786  128.50999451    0.98000002    2.93000007
   18.26833344  133.09800720    1.01999998    2.91000009
   18.27444458  133.09800720    1.00000000    2.93000007
   18.27861023  132.69500732    1.01999998    2.91000009
   18.28166580  123.19300079    1.01999998    2.89000010
   18.28499985  137.19099426    1.00000000    2.93000007
   18.28833199  131.99800110    1.00000000    2.93000007
   18.29138756  127.62100220    1.01999998    2.93000007
   18.29472160  127.91200256    1.03999996    2.91000009
   18.29777718  132.82600403    1.03999996    2.93000007
   18.29861069  128.16299438    1.03999996    2.93000007
   18.30166626  129.24299622    1.03999996    2.91000009
   18.30499840  129.03100586    1.05999994    2.91000009
   18.30805397  127.85299683    1.03999996    2.91000009
   18.31138802  126.64399719    1.03999996    2.93000007
   18.31722260  126.64399719    1.03999996    2.93000007
   18.32139015  127.68900299    1.03999996    2.93000007
   18.32472229  130.86199951    1.03999996    2.93000007
   18.32777786  126.52899933    1.01999998    2.93000007
   18.33111191  127.56600189    1.07000005    2.93000007
   18.33166695  127.56400299    1.07000005    2.93000007
   18.33472252  133.20500183    1.05999994    2.93000007
   18.33805656  124.98899841    1.13000000    2.91000009
   18.34111214  130.47500610    1.09000003    2.93000007
   18.34444427  129.09599304    1.09000003    2.93000007
   18.34777832  131.31500244    1.07000005    2.93000007
   18.35083389  127.36299896    1.07000005    2.91000009
   18.35416794  128.28300476    1.05999994    2.91000009
   18.36000061  128.28300476    1.07000005    2.93000007
   18.36416626  124.63999939    1.07000005    2.93000007
   18.36472321  127.16600037    1.09000003    2.93000007
   18.36805534  124.19200134    1.07000005    2.93000007
   18.37111092  125.55400085    1.05999994    2.93000007
   18.37444496  131.75599670    1.05999994    2.93000007
   18.37777710  128.85499573    1.05999994    2.93000007
   18.38083267  133.85099792    1.05999994    2.93000007
   18.38416672  128.25500488    1.03999996    2.91000009
   18.38750076  132.61900330    1.03999996    2.91000009
   18.39055634  125.97000122    1.03999996    2.93000007
   18.39388847  129.93899536    1.03999996    2.91000009
   18.39694405  129.70799255    1.03999996    2.91000009
   18.39805603  121.71399689    1.03999996    2.91000009
   18.40305519  121.71399689    1.03999996    2.91000009
   18.40694427  130.53999329    1.03999996    2.93000007
   18.41027832  126.12400055    1.03999996    2.93000007
   18.41361046  123.49400330    1.03999996    2.91000009
   18.41666603  131.55799866    1.05999994    2.91000009
   18.42000008  135.81399536    1.03999996    2.91000009
   18.42333221  126.65399933    1.03999996    2.91000009
   18.42666626  134.67900085    1.05999994    2.93000007
   18.42972183  117.91999817    1.05999994    2.91000009
   18.43138885  125.65599823    1.05999994    2.91000009
   18.43333244  128.35499573    1.03999996    2.91000009
   18.43666649  127.98600006    1.03999996    2.91000009
   18.43972206  123.58999634    1.05999994    2.93000007
   18.44583321  123.58999634    1.03999996    2.93000007
   18.45000076  128.72200012    1.03999996    2.93000007
   18.45305634  125.07900238    1.03999996    2.93000007
   18.45639038  132.67799377    1.05999994    2.91000009
   18.45972252  127.34100342    1.05999994    2.89000010
   18.46277809  127.98500061    1.07000005    2.93000007
   18.46472359  122.56199646    1.07000005    2.93000007
   18.46666718  120.85399628    1.07000005    2.93000007
   18.47000122  124.49500275    1.07000005    2.91000009
   18.47305679  127.62999725    1.07000005    2.93000007
   18.47638893  132.92599487    1.09000003    2.93000007
   18.47944450  140.02000427    1.09000003    2.93000007
   18.48277855  132.72599792    1.07000005    2.93000007
   18.48861122  132.72599792    1.07000005    2.91000009
   18.49277878  129.00199890    1.07000005    2.91000009
   18.49611092  136.08799744    1.07000005    2.91000009
   18.49805641  129.71600342    1.07000005    2.91000009
   18.49972153  129.18600464    1.07000005    2.91000009
   18.50305557  124.22399902    1.07000005    2.91000009
   18.50611115  118.26300049    1.07000005    2.91000009
   18.64472198  117.66899872    1.14999998    2.91000009
   18.79611015  120.05000305    1.39999998    2.89000010
   18.79944420  117.40899658    1.38000000    2.91000009
   18.80249977  115.87000275    1.38000000    2.89000010
   18.80583191  119.71199799    1.41999996    2.91000009
   18.80916595  122.08999634    1.41999996    2.89000010
   18.81222153  121.61599731    1.41999996    2.89000010
   18.81638718  121.61599731    1.41999996    2.91000009
   18.82055664  122.08499908    1.41999996    2.89000010
   18.82389069  118.96800232    1.41999996    2.89000010
   18.82694626  118.90699768    1.44000006    2.91000009
   18.82944489  121.57599640    1.44000006    2.89000010
   18.83083344  114.71600342    1.44000006    2.89000010
   18.83388901  129.29800415    1.44000006    2.91000009
   18.83722305  112.23100281    1.44000006    2.89000010
   18.84027863  129.45500183    1.44000006    2.91000009
   18.84361267  121.85700226    1.44000006    2.91000009
   18.84694481  116.49800110    1.44000006    2.89000010
   18.85000038  123.40799713    1.44000006    2.89000010
   18.85333443  124.14099884    1.44000006    2.89000010
   18.85916710  124.14099884    1.44000006    2.89000010
   18.86333466  122.93099976    1.46000004    2.89000010
   18.86666679  117.59600067    1.48000002    2.89000010
   18.87000084  114.25499725    1.46000004    2.91000009
   18.87305641  127.72299957    1.48000002    2.91000009
   18.87638855  136.82499695    1.48000002    2.91000009
   18.87972260  122.80300140    1.48000002    2.89000010
   18.88277817  121.08599854    1.48000002    2.89000010
   18.88611031  114.17400360    1.48000002    2.89000010
   18.88944435  130.47599792    1.48000002    2.89000010
   18.89249992  131.40499878    1.46000004    2.91000009
   18.89583397  134.81599426    1.44000006    2.89000010
   18.89638901  127.53900146    1.46000004    2.89000010
   18.90222168  127.53900146    1.46000004    2.89000010
   18.90638924  116.19100189    1.46000004    2.89000010
   18.90944481  117.13400269    1.46000004    2.89000010
   18.91277695  116.67400360    1.46000004    2.89000010
   18.91611099  113.31400299    1.46000004    2.89000010
   18.91916656  119.02700043    1.46000004    2.89000010
   18.92249870  125.24700165    1.64999998    2.89000010
   18.92555428  116.31199646    2.00000000    2.89000010
   18.92916679  117.94999695    1.75000000    2.89000010
   18.92972183  118.43699646    1.75000000    2.89000010
   18.93305397  131.65299988    1.51999998    2.89000010
   18.93610954  131.00199890    1.50000000    2.89000010
   18.93944359  117.24099731    1.50000000    2.89000010
   18.94499969  117.24099731    1.50000000    2.89000010
   18.94916534  124.26899719    1.48000002    2.89000010
   18.95222282  125.52899933    1.48000002    2.91000009
   18.95555687  128.37399292    1.48000002    2.89000010
   18.95888901  114.46800232    1.48000002    2.89000010
   18.96194458  132.33799744    1.48000002    2.89000010
   18.96305656  131.20399475    1.48000002    2.89000010
   18.96583366  126.03299713    1.48000002    2.89000010
   18.96888924  124.42700195    1.48000002    2.89000010
   18.97222328  128.75000000    1.48000002    2.89000010
   18.97555542  128.83299255    1.48000002    2.89000010
   18.97861099  131.89500427    1.50000000    2.91000009
   18.98194504  119.87000275    1.48000002    2.89000010
   18.98777771  119.87000275    1.48000002    2.89000010
   18.99194527  118.65599823    1.44000006    2.89000010
   18.99527740  124.70500183    1.44000006    2.89000010
   18.99638939  114.82499695    1.44000006    2.89000010
   18.99888992  119.13600159    1.44000006    2.89000010
   19.00194359  120.13999939    1.44000006    2.89000010
   19.00527763  118.09700012    1.44000006    2.91000009
   19.00861168  116.24400330    1.44000006    2.91000009
   19.01166725  124.67500305    1.41999996    2.89000010
   19.01499939  118.12300110    1.44000006    2.89000010
   19.01833344  113.62999725    1.46000004    2.89000010
   19.02138901  115.27200317    1.46000004    2.89000010
   19.02472115  115.34700012    1.46000004    2.89000010
   19.03055573  115.34700012    1.48000002    2.86999989
   19.03472137  114.84899902    1.50000000    2.89000010
   19.03805542  119.55599976    1.50000000    2.89000010
   19.04138756  122.83799744    1.50000000    2.89000010
   19.04444313  114.15399933    1.50000000    2.89000010
   19.04777718  121.04900360    1.50000000    2.89000010
   19.05083275  115.85900116    1.48000002    2.89000010
   19.05416679  111.06999969    1.46000004    2.89000010
   19.05749893  117.60700226    1.48000002    2.89000010
   19.06083298  111.04699707    1.48000002    2.89000010
   19.06305504  115.40799713    1.48000002    2.91000009
   19.06444359  114.71299744    1.48000002    2.91000009
   19.06750107  122.22399902    1.50000000    2.89000010
   19.07361221  122.22399902    1.50000000    2.89000010
   19.07777786  115.75700378    1.48000002    2.89000010
   19.08083344  111.57900238    1.48000002    2.89000010
   19.08416748  115.38899994    1.48000002    2.89000010
   19.08750153  115.71800232    1.50000000    2.89000010
   19.09055710  125.86799622    1.50000000    2.89000010
   19.09388924  123.69100189    1.50000000    2.86999989
   19.09638977  114.74099731    1.50000000    2.86999989
   19.09749985  120.70200348    1.50000000    2.91000009
   19.10055542  130.68099976    1.50000000    2.91000009
   19.10388947  119.43199921    1.51999998    2.89000010
   19.10722351  125.95500183    1.53999996    2.89000010
   19.11027908  125.23100281    1.55999994    2.89000010
   19.11638832  125.23100281    1.55999994    2.89000010
   19.12055588  118.62300110    1.55999994    2.86999989
   19.12388992  130.03399658    1.55999994    2.89000010
   19.12694550  111.92299652    1.55999994    2.89000010
   19.12972260  112.98500061    1.55999994    2.89000010
   19.13083267  119.25399780    1.55999994    2.89000010
   19.13388824  121.83100128    1.53999996    2.89000010
   19.13722229  117.20800018    1.55999994    2.89000010
   19.14055634  117.36699677    1.55999994    2.86999989
   19.14361191  118.03199768    1.55999994    2.86999989
   19.14694405  128.77499390    1.55999994    2.86999989
   19.15027809  117.70500183    1.55999994    2.89000010
   19.15333366  113.61100006    1.58000004    2.89000010
   19.15916634  113.61100006    1.58000004    2.89000010
   19.16333389  113.77300262    1.60000002    2.86999989
   19.16666603  107.74900055    1.60000002    2.86999989
   19.16972160  118.47599792    1.60000002    2.89000010
   19.17305565  122.68800354    1.61000001    2.86999989
   19.17638779  113.56199646    1.60000002    2.89000010
   19.17944336  110.62699890    1.60000002    2.89000010
   19.18277740  122.90699768    1.61000001    2.89000010
   19.18610954  116.75700378    1.64999998    2.86999989
   19.18916512  127.80200195    1.64999998    2.89000010
   19.19249916  130.18200684    1.63000000    2.86999989
   19.19555473  120.96399689    1.61000001    2.86999989
   19.19638824  117.82199860    1.61000001    2.86999989
   19.20194435  117.82199860    1.61000001    2.89000010
   19.20611191  123.19400024    1.61000001    2.86999989
   19.20944595  122.67600250    1.61000001    2.86999989
   19.21277809  118.00800323    1.61000001    2.86999989
   19.21583366  119.31500244    1.61000001    2.89000010
   19.21916771  119.41699982    1.61000001    2.89000010
   19.22249985  127.66699982    1.61000001    2.89000010
   19.22555542  113.62300110    1.61000001    2.89000010
   19.22888947  118.90100098    1.61000001    2.89000010
   19.22972298  122.51200104    1.61000001    2.89000010
   19.23250008  123.42400360    1.60000002    2.86999989
   19.23555565  127.57099915    1.61000001    2.89000010
   19.23888969  127.00099945    1.61000001    2.86999989
   19.24500084  127.00099945    1.63000000    2.86999989
   19.24916649  108.03600311    1.63000000    2.89000010
   19.25222206  119.54499817    1.63000000    2.86999989
   19.25555611  116.38800049    1.63000000    2.89000010
   19.25861168  112.41699982    1.64999998    2.86999989
   19.26194382  116.76499939    1.64999998    2.86999989
   19.26305580  119.05699921    1.64999998    2.86999989
   19.26555634  118.63800049    1.64999998    2.86999989
   19.26861000  119.40499878    1.69000006    2.86999989
   19.27194405  116.82099915    1.71000004    2.86999989
   19.27527809  118.92600250    1.71000004    2.86999989
   19.27833366  118.25099945    1.71000004    2.86999989
   19.28166580  121.45300293    1.75000000    2.86999989
   19.28777695  121.45300293    1.80999994    2.86999989
   19.29194450  127.94100189    1.83000004    2.86999989
   19.29500008  122.38099670    1.83000004    2.86999989
   19.29638863  128.75700378    1.83000004    2.86999989
   19.29888916  121.70400238    1.83000004    2.86999989
   19.30222130  121.47799683    1.83000004    2.86999989
   19.30527687  121.07900238    1.80999994    2.86999989
   19.30861092  119.78199768    1.80999994    2.86999989
   19.31194305  115.47000122    1.83000004    2.86999989
   19.31499863  117.89600372    1.83000004    2.86999989
   19.31833458  114.56999969    1.83000004    2.86999989
   19.32166672  108.93900299    1.83000004    2.86999989
   19.32472229  120.73799896    1.85000002    2.84999990
   19.33055687  120.73799896    1.85000002    2.89000010
   19.33472252  124.51599884    1.85000002    2.86999989
   19.33805656  116.11000061    1.85000002    2.86999989
   19.34111214  127.07700348    1.85000002    2.86999989
   19.34444427  124.83300018    1.85000002    2.86999989
   19.34777832  133.61399841    1.86000001    2.86999989
   19.35083389  123.95700073    1.86000001    2.86999989
   19.35416794  107.31199646    1.88000000    2.86999989
   19.35722351  119.05400085    1.88000000    2.86999989
   19.36055565  124.60800171    1.89999998    2.86999989
   19.36305618  123.00800323    1.89999998    2.86999989
   19.36444473  123.84600067    1.89999998    2.84999990
   19.36750031  124.30000305    1.89999998    2.84999990
   19.37333298  124.30000305    1.96000004    2.86999989
   19.37750053  123.97200012    1.96000004    2.86999989
   19.38083267  117.51899719    2.01999998    2.86999989
   19.38416672  116.18900299    2.03999996    2.86999989
   19.38722229  119.44699860    2.05999994    2.86999989
   19.39055634  113.65499878    2.05999994    2.84999990
   19.39361191  123.31999969    2.09999990    2.86999989
   19.39638901  117.39900208    2.11999989    2.84999990
   19.39749908  113.50499725    2.09999990    2.84999990
   19.40055466  115.36699677    2.11999989    2.84999990
   19.40388870  125.67900085    2.11999989    2.86999989
   19.40722275  123.45200348    2.11999989    2.84999990
   19.41027832  111.71800232    2.09999990    2.86999989
   19.41638756  111.71800232    2.07999992    2.86999989
   19.42055511  127.87000275    2.09999990    2.86999989
   19.42361069  125.92800140    2.09999990    2.84999990
   19.42694473  127.10099792    2.09999990    2.84999990
   19.42972183  128.97999573    2.11999989    2.84999990
   19.43055534  121.72699738    2.11999989    2.84999990
   19.43361092  120.59300232    2.09999990    2.86999989
   19.43694305  121.24400330    2.11999989    2.84999990
   19.44027710  124.89700317    2.13000011    2.84999990
   19.44333267  115.12899780    2.17000008    2.86999989
   19.44666672  127.27100372    2.21000004    2.84999990
   19.45000076  133.01899719    2.23000002    2.84999990
   19.45305634  125.91300201    2.21000004    2.84999990
   19.45916748  125.91300201    2.19000006    2.84999990
   19.46333504  124.73200226    2.15000010    2.84999990
   19.46638870  128.49800110    2.15000010    2.84999990
   19.46972275  126.54199982    2.15000010    2.84999990
   19.47305679  131.53199768    2.15000010    2.84999990
   19.47638893  128.07200623    2.15000010    2.84999990
   19.47944450  121.97899628    2.15000010    2.84999990
   19.48277855  121.70200348    2.17000008    2.84999990
   19.48583412  122.99400330    2.21000004    2.84999990
   19.48916626  122.88600159    2.23000002    2.84999990
   19.49250031  130.78199768    2.25000000    2.84999990
   19.49555588  122.15000153    2.25000000    2.84999990
   19.49638939  125.13400269    2.25000000    2.84999990
   19.50194359  125.13400269    2.21000004    2.84999990
   19.50611115  121.25700378    2.23000002    2.82999992
   19.50944519  127.99800110    2.25000000    2.84999990
   19.51250076  118.85299683    2.30999994    2.84999990
   19.51583290  127.38400269    2.34999990    2.84999990
   19.51916695  125.35800171    2.36999989    2.84999990
   19.52222252  124.93399811    2.39000010    2.86999989
   19.52555466  125.70600128    2.39000010    2.84999990
   19.52861023  123.72000122    2.39000010    2.84999990
   19.52972221  132.04800415    2.39000010    2.82999992
   19.53249931  123.48899841    2.39000010    2.84999990
   19.53583336  121.01699829    2.40000010    2.84999990
   19.53888893  136.18400574    2.44000006    2.84999990
   19.54472160  136.18400574    2.53999996    2.84999990
   19.54888916  133.08599854    2.59999990    2.82999992
   19.55222130  138.88099670    2.64000010    2.82999992
   19.55555534  132.15699768    2.69000006    2.84999990
   19.55861092  129.89999390    2.75000000    2.84999990
   19.56194305  136.03999329    2.78999996    2.84999990
   19.56305504  133.77200317    2.78999996    2.82999992
   19.56555557  131.18400574    2.80999994    2.84999990
   19.56888962  128.10400391    2.82999992    2.84999990
   19.57194519  126.01100159    2.89000010    2.82999992
   19.57527924  116.46099854    2.94000006    2.82999992
   19.57833481  122.51200104    2.96000004    2.82999992
   19.58166695  122.05799866    2.98000002    2.80999994
   19.58777809  122.05799866    3.00000000    2.82999992
   19.59194565  123.60700226    3.01999998    2.82999992
   19.59500122  124.30699921    3.01999998    2.82999992
   19.59638977  124.47699738    3.01999998    2.82999992
   19.59861183  122.82800293    3.01999998    2.82999992
   19.60194397  118.09799957    3.01999998    2.82999992
   19.60499954  129.70500183    3.05999994    2.82999992
   19.60833359  127.80699921    3.11999989    2.82999992
   19.61138916  128.39799500    3.16000009    2.80999994
   19.61472321  121.92500305    3.18000007    2.82999992
   19.61805534  123.16799927    3.20000005    2.82999992
   19.62111092  123.14399719    3.21000004    2.82999992
   19.62444496  131.76800537    3.21000004    2.82999992
   19.63055611  131.76800537    3.23000002    2.82999992
   19.63472176  124.67700195    3.21000004    2.80999994
   19.63777733  120.46199799    3.20000005    2.82999992
   19.64111137  125.40000153    3.14000010    2.82999992
   19.64444351  125.09700012    3.14000010    2.82999992
   19.64749908  147.02699280    3.09999990    2.82999992
   19.65083313  131.31500244    3.05999994    2.82999992
   19.65416718  138.04899597    3.03999996    2.82999992
   19.65722275  123.36000061    3.01999998    2.82999992
   19.66055489  121.90599823    3.00000000    2.82999992
   19.66305542  130.53900146    3.00000000    2.82999992
   19.66416550  141.30900574    3.00000000    2.82999992
   19.66749954  135.70399475    3.01999998    2.82999992
   19.67333221  135.70399475    3.00000000    2.82999992
   19.67749977  127.57599640    3.00000000    2.82999992
   19.68083191  126.99700165    3.01999998    2.80999994
   19.68388748  127.60700226    3.03999996    2.80999994
   19.68722153  128.14700317    3.05999994    2.82999992
   19.69027710  125.05699921    3.07999992    2.80999994
   19.69361115  138.83000183    3.09999990    2.82999992
   19.69638824  137.84800720    3.07999992    2.82999992
   19.69722176  127.35600281    3.05999994    2.82999992
   19.70055580  136.23699951    3.05999994    2.82999992
   19.70361137  139.03199768    3.03999996    2.80999994
   19.70694542  132.58000183    3.03999996    2.80999994
   19.71000099  140.04499817    3.03999996    2.82999992
   19.71611214  140.04499817    3.09999990    2.82999992
   19.72027779  122.87699890    3.16000009    2.82999992
   19.72361183  127.54699707    3.16000009    2.80999994
   19.72666740  133.16600037    3.20000005    2.80999994
   19.72972298  132.53399658    3.23000002    2.80999994
   19.73055649  132.89900208    3.25000000    2.82999992
   19.73388863  128.07299805    3.26999998    2.82999992
   19.73694420  126.54299927    3.28999996    2.82999992
   19.74027824  128.95399475    3.26999998    2.82999992
   19.74333382  133.69400024    3.26999998    2.82999992
   19.74666786  125.28199768    3.25000000    2.80999994
   19.75000000  133.43600464    3.21000004    2.82999992
   19.75305557  137.14599609    3.20000005    2.80999994
   19.75916672  137.14599609    3.16000009    2.80999994
   19.76333427  124.01100159    3.16000009    2.82999992
   19.76638794  137.67700195    3.14000010    2.82999992
   19.76972198  130.13299561    3.14000010    2.80999994
   19.77277756  127.09600067    3.16000009    2.82999992
   19.77611160  122.82700348    3.21000004    2.82999992
   19.77944374  122.67199707    3.21000004    2.80999994
   19.78249931  138.86599731    3.28999996    2.80999994
   19.78583336  125.69100189    3.32999992    2.80999994
   19.78916550  133.56399536    3.36999989    2.80999994
   19.79222107  122.33799744    3.41000009    2.80999994
   19.79555511  119.10900116    3.41000009    2.80999994
   19.79638863  123.57800293    3.41000009    2.80999994
   19.81722260  123.57800293    3.30999994    2.80999994
   19.82139015  151.67799377    3.30999994    2.80999994
   19.82444572  155.17599487    3.32999992    2.80999994
   19.82777786  159.55299377    3.34999990    2.80999994
   19.82972336  130.38999939    3.39000010    2.80999994
   19.83139038  135.41700745    3.39000010    2.82999992
   19.83472252  128.71000671    3.45000005    2.80999994
   19.83777809  124.44599915    3.46000004    2.80999994
   19.84111214  132.29100037    3.46000004    2.80999994
   19.84444427  140.46400452    3.48000002    2.78999996
   19.84749985  162.02900696    3.48000002    2.80999994
   19.85083389  152.89799500    3.46000004    2.80999994
   19.85388947  173.22399902    3.50000000    2.80999994
   19.86000061  173.22399902    3.55999994    2.78999996
   19.86416626  146.48500061    3.57999992    2.78999996
   19.86722183  144.85800171    3.57999992    2.80999994
   19.87055588  140.91799927    3.57999992    2.80999994
   19.87388992  157.50399780    3.57999992    2.80999994
   19.87694550  148.92700195    3.59999990    2.80999994
   19.88027763  138.20500183    3.59999990    2.80999994
   19.88333321  135.08799744    3.61999989    2.80999994
   19.88666725  154.61500549    3.64000010    2.78999996
   19.88999939  141.09399414    3.66000009    2.78999996
   19.89305496  128.93699646    3.68000007    2.78999996
   19.89638901  137.99400330    3.70000005    2.78999996
   19.89694405  133.79800415    3.72000003    2.78999996
   19.90277672  133.79800415    3.75000000    2.78999996
   19.90694427  130.63499451    3.78999996    2.78999996
   19.91027832  124.79199982    3.82999992    2.78999996
   19.91333389  116.75700378    3.86999989    2.78999996
   19.91666603  120.06800079    3.93000007    2.78999996
   19.91972160  135.92999268    3.97000003    2.80999994
   19.92305565  119.93599701    4.07999992    2.78999996
   19.92638779  131.63600159    4.09999990    2.78999996
   19.92944336  117.84500122    4.11999989    2.78999996
   19.93027687  120.15100098    4.11999989    2.78999996
   19.93305397  122.35700226    4.13999987    2.78999996
   19.93638802  132.14500427    4.15999985    2.78999996
   19.93972206  128.34599304    4.15999985    2.78999996
   19.94555473  128.34599304    4.19999981    2.78999996
   19.94972038  125.27400208    4.23999977    2.78999996
   19.95305634  132.05099487    4.26000023    2.78999996
   19.95611191  127.61599731    4.26999998    2.76999998
   19.95944595  126.42700195    4.28999996    2.78999996
   19.96277809  128.31199646    4.28999996    2.78999996
   19.96361160  123.14099884    4.28999996    2.78999996
   19.96638870  121.67299652    4.26000023    2.78999996
   19.96944427  120.04900360    4.23999977    2.76999998
   19.97277832  123.52799988    4.19999981    2.78999996
   19.97583389  121.40799713    4.17999983    2.76999998
   19.97916794  132.18600464    4.17999983    2.78999996
   19.98250008  124.51300049    4.15999985    2.78999996
   19.98833275  124.51300049    4.13999987    2.78999996
   19.99250031  128.90800476    4.13999987    2.78999996
   19.99583435  129.23199463    4.11999989    2.78999996
   19.99694443  121.58499908    4.11999989    2.78999996
   19.99972153  127.06400299    4.11999989    2.78999996
   20.00277710  134.03399658    4.09999990    2.78999996
   20.00611115  131.81100464    4.09999990    2.78999996
   20.00916672  128.33500671    4.07999992    2.76999998
   20.01250076  135.17100525    4.05999994    2.76999998
   20.01583290  139.79600525    4.05999994    2.78999996
   20.01888847  123.63300323    4.07999992    2.76999998
   20.02222252  134.69099426    4.07999992    2.78999996
   20.02555466  128.30200195    4.09999990    2.76999998
   20.03138924  128.30200195    4.07999992    2.78999996
   20.03555489  110.12400055    4.07999992    2.76999998
   20.03861046  112.61299896    4.05999994    2.76999998
   20.04194450  128.68299866    4.03999996    2.76999998
   20.04527664  114.52600098    4.03999996    2.76999998
   20.04833221  115.31500244    4.01999998    2.76999998
   20.05166626  123.67400360    4.01999998    2.76999998
   20.05472183  144.51600647    4.03999996    2.76999998
   20.05805397  130.50500488    4.05999994    2.76999998
   20.06138802  132.64599609    4.07999992    2.76999998
   20.06361008  127.38600159    4.09999990    2.78999996
   20.06499863  139.75700378    4.07999992    2.76999998
   20.06805611  139.96000671    4.07999992    2.76999998
   20.07416725  139.96000671    4.09999990    2.76999998
   20.07833481  148.03799438    4.05999994    2.76999998
   20.08139038  133.60200500    4.05999994    2.78999996
   20.08472252  147.82099915    4.03999996    2.76999998
   20.08805656  140.79100037    4.01999998    2.76999998
   20.09111214  146.78300476    4.00000000    2.76999998
   20.09444427  141.07800293    4.01999998    2.76999998
   20.09694481  145.26699829    4.01999998    2.76999998
   20.09833336  144.09500122    4.01999998    2.78999996
   20.10138893  148.24600220    4.01999998    2.76999998
   20.10472298  153.38200378    4.05999994    2.76999998
   20.10805511  149.62100220    4.07999992    2.76999998
   20.11111069  151.95399475    4.07999992    2.76999998
   20.11694527  151.95399475    4.03999996    2.76999998
   20.12111092  152.22200012    4.09999990    2.76999998
   20.12444496  143.99699402    4.09999990    2.76999998
   20.12750053  136.95399475    4.11999989    2.76999998
   20.13027763  132.25700378    4.11999989    2.76999998
   20.13138962  137.32499695    4.13999987    2.76999998
   20.13444519  140.12600708    4.13999987    2.76999998
   20.13777733  132.97399902    4.11999989    2.75000000
   20.14111137  130.24899292    4.09999990    2.76999998
   20.14416695  128.82400513    4.05999994    2.76999998
   20.14749908  131.67999268    4.05999994    2.75000000
   20.15083313  144.27400208    4.01999998    2.75000000
   20.15388870  137.87399292    4.05999994    2.76999998
   20.15972137  137.87399292    4.11999989    2.75000000
   20.16388893  130.08299255    4.09999990    2.75000000
   20.16722107  143.72200012    4.07999992    2.75000000
   20.17055511  147.42300415    4.05999994    2.76999998
   20.17361069  129.74299622    4.07999992    2.76999998
   20.17694473  139.60000610    4.09999990    2.76999998
   20.18027687  143.85800171    4.11999989    2.75000000
   20.18333244  140.58500671    4.11999989    2.75000000
   20.18666649  136.28900146    4.09999990    2.75000000
   20.18972206  126.16200256    4.07999992    2.75000000
   20.19305420  129.77000427    4.05999994    2.75000000
   20.19638824  127.14499664    4.03999996    2.75000000
   20.19694328  114.79699707    4.05999994    2.75000000
   20.20277786  114.79699707    4.05999994    2.76999998
   20.20694542  135.62699890    4.07999992    2.75000000
   20.21000099  130.22999573    4.05999994    2.75000000
   20.21333504  121.64900208    4.03999996    2.76999998
   20.21638870  147.40600586    4.01999998    2.75000000
   20.21972275  125.73400116    3.99000001    2.75000000
   20.22305679  125.13999939    3.97000003    2.75000000
   20.22611237  126.28900146    3.95000005    2.75000000
   20.22944450  128.84700012    3.93000007    2.75000000
   20.23027802  126.28199768    3.93000007    2.75000000
   20.23305511  123.44100189    3.89000010    2.75000000
   20.23611069  132.59199524    3.93000007    2.75000000
   20.23944473  122.03199768    3.91000009    2.75000000
   20.24555588  122.03199768    3.84999990    2.75000000
   20.24972153  126.20099640    3.82999992    2.75000000
   20.25277710  136.18499756    3.78999996    2.75000000
   20.25611115  139.65199280    3.76999998    2.75000000
   20.25944519  119.32399750    3.78999996    2.75000000
   20.26250076  131.52799988    3.78999996    2.75000000
   20.26361084  137.18400574    3.80999994    2.75000000
   20.26638794  133.47700500    3.80999994    2.75000000
   20.26944351  131.65600586    3.82999992    2.75000000
   20.27277756  121.49500275    3.82999992    2.75000000
   20.27583313  127.37699890    3.82999992    2.75000000
   20.27916718  132.98899841    3.82999992    2.75000000
   20.28249931  131.21000671    3.80999994    2.75000000
   20.28833199  131.21000671    3.82999992    2.75000000
   20.29249954  136.01800537    3.84999990    2.73000002
   20.29583359  132.80299377    3.82999992    2.73000002
   20.29694366  124.26499939    3.82999992    2.75000000
   20.29944420  132.72900391    3.82999992    2.73000002
   20.30249977  135.70700073    3.80999994    2.75000000
   20.30583191  122.94000244    3.82999992    2.75000000
   20.30916595  121.25700378    3.82999992    2.75000000
   20.31222153  132.30400085    3.80999994    2.75000000
   20.31555557  133.41799927    3.78999996    2.75000000
   20.31888962  122.89800262    3.76999998    2.73000002
   20.32194519  126.77799988    3.75000000    2.73000002
   20.32527924  134.25399780    3.72000003    2.73000002
   20.33111191  134.25399780    3.66000009    2.73000002
   20.33527756  127.45400238    3.64000010    2.75000000
   20.33861160  130.49099731    3.59999990    2.73000002
   20.34194565  133.18600464    3.57999992    2.75000000
   20.34500122  130.58099365    3.53999996    2.75000000
   20.34833336  131.13800049    3.50000000    2.75000000
   20.35138893  129.84399414    3.48000002    2.73000002
   20.35472298  126.25099945    3.45000005    2.75000000
   20.35805511  124.91799927    3.45000005    2.75000000
   20.36111069  123.90499878    3.46000004    2.75000000
   20.36361122  125.29499817    3.48000002    2.75000000
   20.36499977  129.54299927    3.48000002    2.75000000
   20.36805534  121.62000275    3.50000000    2.73000002
   20.37416649  121.62000275    3.55999994    2.73000002
   20.37805557  132.23800659    3.55999994    2.75000000
   20.38138962  125.30899811    3.55999994    2.73000002
   20.38472176  133.09800720    3.55999994    2.75000000
   20.38777733  129.47900391    3.53999996    2.73000002
   20.39111137  137.81700134    3.53999996    2.73000002
   20.39444351  128.70899963    3.53999996    2.73000002
   20.39694405  135.68800354    3.51999998    2.73000002
   20.39805603  138.43899536    3.51999998    2.73000002
   20.40138817  139.21499634    3.51999998    2.73000002
   20.40444374  131.77200317    3.50000000    2.75000000
   20.40777779  134.47799683    3.50000000    2.75000000
   20.41083336  125.43000031    3.50000000    2.73000002
   20.41694450  125.43000031    3.48000002    2.73000002
   20.42111015  121.37200165    3.50000000    2.75000000
   20.42416573  123.58899689    3.50000000    2.73000002
   20.42749977  119.37699890    3.50000000    2.73000002
   20.43027687  131.29600525    3.53999996    2.73000002
   20.43111038  134.22500610    3.53999996    2.73000002
   20.43416595  128.60899353    3.51999998    2.73000002
   20.43750000  126.73100281    3.53999996    2.73000002
   20.44083214  108.19400024    3.55999994    2.73000002
   20.44388771  113.30000305    3.59999990    2.73000002
   20.44722176  138.85600281    3.64000010    2.73000002
   20.45027924  127.71700287    3.64000010    2.73000002
   20.45361137  130.15600586    3.66000009    2.73000002
   20.45972252  130.15600586    3.70000005    2.71000004
   20.46389008  131.63099670    3.73000002    2.73000002
   20.46750069  123.77600098    3.75000000    2.71000004
   20.47055626  127.81300354    3.75000000    2.71000004
   20.47389030  127.21600342    3.78999996    2.71000004
   20.47722244  125.62000275    3.80999994    2.71000004
   20.48027802   98.37889862    3.82999992    2.71000004
   20.48361206   91.80909729    3.84999990    2.71000004
   20.48694420  122.13700104    3.86999989    2.71000004
   20.48999977  115.83799744    3.89000010    2.73000002
   20.49333382  125.44100189    3.89000010    2.73000002
   20.49666786  117.11900330    3.86999989    2.71000004
   20.49694443  122.87100220    3.86999989    2.71000004
   20.50250053  122.87100220    3.86999989    2.71000004
   20.50666618  138.46299744    3.86999989    2.71000004
   20.51000023  101.40699768    3.86999989    2.71000004
   20.51305580  123.69599915    3.84999990    2.71000004
   20.51638794  124.52400208    3.84999990    2.71000004
   20.51972198  120.42400360    3.84999990    2.71000004
   20.52277756  124.38600159    3.82999992    2.71000004
   20.52611160  123.66999817    3.82999992    2.71000004
   20.52944374  130.91799927    3.82999992    2.71000004
   20.53027725  108.18000031    3.82999992    2.71000004
   20.53305435  122.28600311    3.82999992    2.71000004
   20.53638840  130.30299377    3.80999994    2.71000004
   20.53944397  126.81300354    3.80999994    2.69000006
   20.54555511  126.81300354    3.82999992    2.71000004
   20.54972076  121.45099640    3.86999989    2.71000004
   20.55277634  124.53700256    3.97000003    2.71000004
   20.55611038  132.08099365    4.05999994    2.69000006
   20.55916595  125.58699799    4.03999996    2.69000006
   20.56250000  122.00000000    4.07999992    2.71000004
   20.56361008  125.90699768    4.05999994    2.71000004
   20.56611061  128.31300354    4.05999994    2.71000004
   20.56944466  132.31799316    4.05999994    2.69000006
   20.57277870  128.64599609    4.07999992    2.71000004
   20.57583427  125.74800110    4.11999989    2.71000004
   20.57916832  134.62500000    4.17999983    2.69000006
   20.58222389  124.61299896    4.23999977    2.69000006
   20.58833313  124.61299896    4.28999996    2.69000006
   20.59250069  128.02699280    4.34999990    2.69000006
   20.59555626  127.76699829    4.42999983    2.69000006
   20.59722328  121.52200317    4.40999985    2.69000006
   20.59916687  132.72099304    4.40999985    2.71000004
   20.60250092  127.75800323    4.42999983    2.69000006
   20.60555649  133.34700012    4.42999983    2.71000004
   20.60888863  130.44500732    4.44999981    2.69000006
   20.61222267  135.59300232    4.48999977    2.69000006
   20.61527824  139.55299377    4.46999979    2.69000006
   20.61861038  133.28199768    4.44999981    2.69000006
   20.62194443  140.75799561    4.40999985    2.69000006
   20.62500000  136.53100586    4.38999987    2.69000006
   20.63111115  136.53100586    4.38999987    2.69000006
   20.63527679  131.41700745    4.36999989    2.69000006
   20.63861084  128.49600220    4.38999987    2.69000006
   20.64166641  127.58200073    4.40999985    2.67000008
   20.64500046  134.45799255    4.40999985    2.69000006
   20.64805603  129.70799255    4.36999989    2.69000006
   20.65138817  132.82099915    4.36999989    2.67000008
   20.65472221  132.05000305    4.40999985    2.69000006
   20.65777779  127.32199860    4.40999985    2.67000008
   20.66110992  138.15499878    4.40999985    2.69000006
   20.66388893  131.18299866    4.40999985    2.69000006
   20.66472244  127.65200043    4.38999987    2.69000006
   20.66805458  130.49400330    4.36999989    2.67000008
   20.67388916  130.49400330    4.32999992    2.67000008
   20.67805481  123.85900116    4.28999996    2.69000006
   20.68138885  126.63500214    4.26000023    2.69000006
   20.68444443  130.33599854    4.21999979    2.69000006
   20.68777657  120.10700226    4.23999977    2.67000008
   20.69111061  126.80599976    4.28999996    2.67000008
   20.69416618  121.73699951    4.32999992    2.69000006
   20.69722176  120.92600250    4.34999990    2.67000008
   20.69777679  129.74800110    4.36999989    2.67000008
   20.70111275  133.88600159    4.36999989    2.67000008
   20.70416832  125.26200104    4.36999989    2.67000008
   20.70750046  128.05900574    4.36999989    2.67000008
   20.71083450  127.41999817    4.36999989    2.67000008
   20.71694565  127.41999817    4.34999990    2.67000008
   20.72083473  122.34899902    4.36999989    2.67000008
   20.72416687  129.07699585    4.36999989    2.67000008
   20.72750092  124.75000000    4.38999987    2.67000008
   20.73055649  126.34600067    4.40999985    2.67000008
   20.73111153  123.03700256    4.38999987    2.67000008
   20.73444557  131.80400085    4.38999987    2.67000008
   20.73777771  129.00900269    4.36999989    2.67000008
   20.74083328  127.01899719    4.36999989    2.67000008
   20.74416733  130.04400635    4.36999989    2.67000008
   20.74749947  127.29499817    4.38999987    2.67000008
   20.75055504  123.39099884    4.36999989    2.67000008
   20.75388908  128.74200439    4.34999990    2.67000008
   20.75972176  128.74200439    4.30999994    2.67000008
   20.76388931  125.39099884    4.32999992    2.67000008
   20.76694489  126.29299927    4.38999987    2.66000009
   20.77027702  126.77600098    4.40999985    2.66000009
   20.77361107  126.14800262    4.44999981    2.66000009
   20.77666664  124.26799774    4.44999981    2.67000008
   20.78000069  121.99400330    4.46999979    2.66000009
   20.78305435  124.10500336    4.44999981    2.67000008
   20.78638840  123.14199829    4.44999981    2.67000008
   20.78972244  134.38299561    4.42999983    2.66000009
   20.79277802  109.76200104    4.38999987    2.66000009
   20.79611015  131.15299988    4.36999989    2.66000009
   20.79722214  131.96899414    4.36999989    2.66000009
   20.80249977  131.96899414    4.34999990    2.66000009
   20.80666542  134.56399536    4.34999990    2.66000009
   20.80999947   98.95839691    4.36999989    2.66000009
   20.81305504  127.87899780    4.36999989    2.66000009
   20.83083344  130.09800720    4.34999990    2.66000009
   20.83305550  122.13800049    4.36999989    2.66000009
   20.83638954  126.70999908    4.34999990    2.64000010
   20.83972359  105.57199860    4.34999990    2.64000010
   20.84555626  105.57199860    4.32999992    2.64000010
   20.84972191  127.09200287    4.28999996    2.64000010
   20.85277748  133.35400391    4.28999996    2.64000010
   20.85611153  127.47000122    4.26000023    2.64000010
   20.85944557  125.70300293    4.23999977    2.66000009
   20.86250114  127.42600250    4.21999979    2.64000010
   20.86388969  129.33200073    4.23999977    2.64000010
   20.86638832  124.61299896    4.23999977    2.64000010
   20.86972237  127.67099762    4.19999981    2.64000010
   20.87277794  123.00900269    4.19999981    2.64000010
   20.87611198  127.57399750    4.15999985    2.64000010
   20.87916756  118.57399750    4.15999985    2.64000010
   20.88249969  126.08699799    4.13999987    2.64000010
   20.88833237  126.08699799    4.19999981    2.66000009
   20.89249992  123.18399811    4.17999983    2.64000010
   20.89583397  117.80899811    4.19999981    2.64000010
   20.89722252  120.36499786    4.17999983    2.64000010
   20.89944458  112.28299713    4.17999983    2.64000010
   20.90277672  124.39600372    4.17999983    2.64000010
   20.90583229  122.12400055    4.21999979    2.64000010
   20.90916634  131.31900024    4.21999979    2.64000010
   20.91222191  125.71199799    4.23999977    2.64000010
   20.91555595  130.61399841    4.26000023    2.64000010
   20.91888809  129.08000183    4.28999996    2.64000010
   20.92194366  128.77400208    4.30999994    2.64000010
   20.92527771  144.14599609    4.34999990    2.61999989
   20.93138885  144.14599609    4.40999985    2.64000010
   20.93527603  140.30999756    4.44999981    2.61999989
   20.93861008  132.98100281    4.48999977    2.61999989
   20.94194412  135.51400757    4.53000021    2.61999989
   20.94499969  147.07699585    4.53000021    2.61999989
   20.94833183  136.99000549    4.53000021    2.61999989
   20.95138931  141.68800354    4.53999996    2.61999989
   20.95472336  129.81199646    4.55999994    2.61999989
   20.95805550  127.17099762    4.57999992    2.61999989
   20.96111107  146.61599731    4.59999990    2.61999989
   20.96389008  133.14799500    4.59999990    2.61999989
   20.96500015  148.98399353    4.61999989    2.61999989
   20.96833420  140.18899536    4.63999987    2.61999989
   20.97416687  140.18899536    4.67999983    2.61999989
   20.97833443  144.39599609    4.67999983    2.61999989
   20.98139000  170.00599670    4.67999983    2.61999989
   20.98472214  131.20700073    4.67999983    2.61999989
   20.98805618  139.11099243    4.67999983    2.59999990
   20.99111176  135.30200195    4.67999983    2.61999989
   20.99444389  146.76499939    4.67999983    2.59999990
   20.99722290  138.82600403    4.65999985    2.61999989
   20.99805641  139.39799500    4.65999985    2.61999989
   21.00194359  144.31599426    4.65999985    2.61999989
   21.00527763  147.48199463    4.65999985    2.59999990
   21.00833321  141.92399597    4.63999987    2.59999990
   21.01166725  155.39300537    4.61999989    2.59999990
   21.01694489  155.39300537    4.59999990    2.59999990
   21.02111053  138.94799805    4.57999992    2.59999990
   21.02444458  136.99899292    4.55999994    2.59999990
   21.02805519  128.11999512    4.53999996    2.59999990
   21.03166580  126.16600037    4.53000021    2.61999989
   21.03333282  106.82199860    4.53000021    2.59999990
   21.03666687  111.14600372    4.51000023    2.61999989
   21.04111099  108.80200195    4.51000023    2.61999989
   21.04555511  118.00499725    4.48999977    2.59999990
   21.04888916  128.02699280    4.46999979    2.59999990
   21.05277634  137.09199524    4.44999981    2.59999990
   21.06055450  137.09199524    4.42999983    2.59999990
   21.06499863   -1.00000000    4.42999983    2.59999990
   21.06888962   -1.00000000    4.42999983    2.59999990
   21.07250023   -1.00000000    4.40999985    2.59999990
   21.07583427   -1.00000000    4.40999985    2.59999990
   21.07888985   -1.00000000    4.40999985    2.59999990
   21.08222389   -1.00000000    4.40999985    2.59999990
   21.08555603   -1.00000000    4.40999985    2.59999990
   21.08861160   -1.00000000    4.42999983    2.59999990
   21.09194565   -1.00000000    4.40999985    2.59999990
   21.09527779   -1.00000000    4.38999987    2.59999990
   21.09889030   -1.00000000    4.36999989    2.57999992
   21.10722351   -1.00000000    4.36999989    2.57999992
   21.11027908   -1.00000000    4.36999989    2.59999990
   21.11388969   -1.00000000    4.36999989    2.59999990
   21.11722183   -1.00000000    4.36999989    2.57999992
   21.12055588   -1.00000000    4.38999987    2.57999992
   21.12361145   -1.00000000    4.36999989    2.57999992
   21.12694550   -1.00000000    4.36999989    2.57999992
   21.13027763   -1.00000000    4.36999989    2.57999992
   21.13361168   -1.00000000    4.36999989    2.59999990
   21.13694382   -1.00000000    4.34999990    2.57999992
   21.14055634   -1.00000000    4.34999990    2.57999992
   21.15083313   -1.00000000    4.30999994    2.57999992
   21.15416718   -1.00000000    4.28999996    2.57999992
   21.15749931   -1.00000000    4.28999996    2.57999992
   21.16083336   -1.00000000    4.26999998    2.57999992
   21.16472244   -1.00000000    4.26000023    2.57999992
   21.16805458   -1.00000000    4.23999977    2.57999992
   21.17138863   -1.00000000    4.19999981    2.57999992
   21.17472076   -1.00000000    4.17999983    2.57999992
   21.17805481   -1.00000000    4.19999981    2.57999992
   21.18166542   -1.00000000    4.17999983    2.57999992
   21.18499947   -1.00000000    4.17999983    2.57999992
   21.19333267   -1.00000000    4.19999981    2.57999992
   21.19694328   -1.00000000    4.21999979    2.55999994
   21.20055580   -1.00000000    4.19999981    2.55999994
   21.20388985   -1.00000000    4.17999983    2.55999994
   21.20722389   -1.00000000    4.15999985    2.55999994
   21.21055603   -1.00000000    4.13999987    2.55999994
   21.21389008   -1.00000000    4.11999989    2.55999994
   21.21722221   -1.00000000    4.11999989    2.55999994
   21.22055626   -1.00000000    4.11999989    2.55999994
   21.22389030   -1.00000000    4.11999989    2.55999994
   21.22750092   -1.00000000    4.11999989    2.55999994
   21.23611069   -1.00000000    4.17999983    2.55999994
   21.23972321   -1.00000000    4.19999981    2.55999994
   21.24305534   -1.00000000    4.21999979    2.55999994
   21.24638939   -1.00000000    4.23999977    2.55999994
   21.24972153   -1.00000000    4.26000023    2.55999994
   21.25305557   -1.00000000    4.28999996    2.55999994
   21.25666618   -1.00000000    4.30999994    2.55999994
   21.26000023   -1.00000000    4.32999992    2.55999994
   21.26305580   -1.00000000    4.34999990    2.53999996
   21.26694489   -1.00000000    4.36999989    2.53999996
   21.27027702   -1.00000000    4.36999989    2.53999996
   21.27888870   -1.00000000    4.44999981    2.53999996
   21.28222275   -1.00000000    4.44999981    2.53999996
   21.28555489   -1.00000000    4.48999977    2.53999996
   21.28888893   -1.00000000    4.48999977    2.53999996
   21.29222107   -1.00000000    4.48999977    2.51999998
   21.29555511   -1.00000000    4.48999977    2.51999998
   21.29888916   -1.00000000    4.51000023    2.53999996
   21.30222130   -1.00000000    4.51000023    2.51999998
   21.30555534   -1.00000000    4.51000023    2.53999996
   21.30861092   -1.00000000    4.53000021    2.51999998
   21.31194305   -1.00000000    4.53000021    2.51999998
   21.32166672   -1.00000000    4.48999977    2.51999998
   21.32500076   -1.00000000    4.48999977    2.51999998
   21.32805634   -1.00000000    4.46999979    2.51999998
   21.33166695   -1.00000000    4.46999979    2.51999998
   21.33500099   -1.00000000    4.46999979    2.51999998
   21.33833313   -1.00000000    4.44999981    2.51999998
   21.34166718   -1.00000000    4.44999981    2.51999998
   21.34500122   -1.00000000    4.44999981    2.51999998
   21.34833336   -1.00000000    4.42999983    2.51999998
   21.35138893   -1.00000000    4.42999983    2.51999998
   21.35472298   -1.00000000    4.42999983    2.51999998
   21.36444473   -1.00000000    4.38999987    2.51999998
   21.36777878   -1.00000000    4.38999987    2.51999998
   21.37111092   -1.00000000    4.38999987    2.51999998
   21.37444496   -1.00000000    4.36999989    2.50000000
   21.37777710   -1.00000000    4.38999987    2.50000000
   21.38111115   -1.00000000    4.36999989    2.50000000
   21.38472176   -1.00000000    4.38999987    2.50000000
   21.38805580   -1.00000000    4.38999987    2.50000000
   21.39138794   -1.00000000    4.90999985    2.59999990
   21.39472198   -1.00000000    0.28000000    0.55000001
   21.39833260   -1.00000000    0.11000000    0.17000000
   21.40777779   -1.00000000    0.09000000    0.05000000
   21.41110992   -1.00000000    0.09000000    0.05000000
   21.41444397   -1.00000000    0.09000000    0.05000000
   21.41777802   -1.00000000    0.09000000    0.05000000
   21.42111015   -1.00000000    0.09000000    0.05000000
   21.42416573   -1.00000000    0.09000000    0.05000000
   21.42777634   -1.00000000    0.09000000    0.05000000
   21.43138885   -1.00000000    0.09000000    0.05000000
   21.43472099   -1.00000000    0.09000000    0.05000000
   21.43805504   -1.00000000    0.09000000    0.05000000
   21.44138718   -1.00000000    0.09000000    0.05000000
   21.45055580   -1.00000000    0.09000000    0.05000000
   21.45388985   -1.00000000    0.09000000    0.05000000
   21.45722389   -1.00000000    0.09000000    0.05000000
   21.46055603   -1.00000000    0.09000000    0.05000000
   21.46389008   -1.00000000    0.09000000    0.05000000
   21.46750069   -1.00000000    0.09000000    0.05000000
   21.47111130   -1.00000000    0.09000000    0.05000000
   21.47444534   -1.00000000    0.09000000    0.05000000
   21.47750092   -1.00000000    0.09000000    0.05000000
   21.48083305   -1.00000000    0.09000000    0.05000000
   21.48416710   -1.00000000    0.09000000    0.05000000
   21.49305534   -1.00000000    0.09000000    0.05000000
   21.49638939   -1.00000000    0.09000000    0.05000000
   21.50027847   -1.00000000    0.09000000    0.05000000
   21.50333405   -1.00000000    0.09000000    0.05000000
   21.50666618   -1.00000000    0.09000000    0.05000000
   21.50972176   -1.00000000    0.09000000    0.05000000
   21.51305580   -1.00000000    0.09000000    0.05000000
   21.51638794   -1.00000000    0.09000000    0.05000000
   21.51972198   -1.00000000    0.09000000    0.05000000
   21.52277756   -1.00000000    0.09000000    0.05000000
   21.52611160   -1.00000000    0.09000000    0.05000000
   21.53610992   -1.00000000    0.09000000    0.05000000
   21.53916550   -1.00000000    0.09000000    0.05000000
   21.54249954   -1.00000000    0.09000000    0.05000000
   21.54583359   -1.00000000    0.09000000    0.05000000
   21.54916573   -1.00000000    0.09000000    0.05000000
   21.55249977   -1.00000000    0.09000000    0.05000000
   21.55555534   -1.00000000    0.09000000    0.05000000
   21.55888748   -1.00000000    0.09000000    0.05000000
   21.56222153   -1.00000000    0.09000000    0.05000000
   21.56611061   -1.00000000    0.09000000    0.05000000
   21.56916809   -1.00000000    0.09000000    0.05000000
   21.57888985   -1.00000000    0.09000000    0.05000000
   21.58222389   -1.00000000    0.09000000    0.05000000
   21.58527756   -1.00000000    0.09000000    0.05000000
   21.58861160   -1.00000000    0.09000000    0.05000000
   21.59194565   -1.00000000    0.09000000    0.05000000
   21.59583473   -1.00000000    0.09000000    0.05000000
   21.60027885   -1.00000000    0.09000000    0.05000000
   21.60361099   -1.00000000    0.09000000    0.05000000
   21.60777855   -1.00000000    0.09000000    0.05000000
   21.61305618   -1.00000000    0.09000000    0.05000000
   21.62388992   -1.00000000    0.09000000    0.05000000
   21.62833405   -1.00000000    0.09000000    0.05000000
   21.63249969   -1.00000000    0.09000000    0.05000000
   21.63583374   -1.00000000    0.09000000    0.05000000
   21.63916588   -1.00000000    0.09000000    0.05000000
   21.64249992   -1.00000000    0.09000000    0.05000000
   21.64583397   -1.00000000    0.09000000    0.05000000
   21.64944458   -1.00000000    0.09000000    0.05000000
   21.65277672   -1.00000000    0.09000000    0.05000000
   21.65611076   -1.00000000    0.09000000    0.05000000
   21.66611099   -1.00000000    0.09000000    0.05000000
   21.66944313   -1.00000000    0.09000000    0.05000000
   21.67277718   -1.00000000    0.09000000    0.05000000
   21.67611122   -1.00000000    0.09000000    0.05000000
   21.67916679   -1.00000000    0.09000000    0.05000000
   21.68249893   -1.00000000    0.09000000    0.05000000
   21.68555450   -1.00000000    0.09000000    0.05000000
   21.68888855   -1.00000000    0.09000000    0.05000000
   21.69222069   -1.00000000    0.09000000    0.05000000
   21.69555473   -1.00000000    0.09000000    0.05000000
   21.69888878   -1.00000000    0.09000000    0.05000000
   21.70750046   -1.00000000    0.09000000    0.05000000
   21.71083450   -1.00000000    0.09000000    0.05000000
   21.71389008   -1.00000000    0.09000000    0.05000000
   21.71750069   -1.00000000    0.09000000    0.05000000
   21.72083473   -1.00000000    0.09000000    0.05000000
   21.72416687   -1.00000000    0.09000000    0.05000000
   21.72750092   -1.00000000    0.09000000    0.05000000
   21.73055649   -1.00000000    0.09000000    0.05000000
   21.73416710   -1.00000000    0.09000000    0.05000000
   21.73750114   -1.00000000    0.09000000    0.05000000
   21.74166679   -1.00000000    0.09000000    0.05000000
   21.75083351   -1.00000000    0.09000000    0.05000000
   21.75472260   -1.00000000    0.09000000    0.05000000
   21.75805473   -1.00000000    0.09000000    0.05000000
   21.76138878   -1.00000000    0.09000000    0.05000000
   21.76555634   -1.00000000    0.09000000    0.05000000
   21.76888847   -1.00000000    0.09000000    0.05000000
   21.77277756   -1.00000000    0.09000000    0.05000000
   21.77638817   -1.00000000    0.09000000    0.05000000
   21.78000069   -1.00000000    0.09000000    0.05000000
   21.78361130   -1.00000000    0.09000000    0.05000000
   21.79361153   -1.00000000    0.09000000    0.05000000
   21.79694366   -1.00000000    0.09000000    0.05000000
   21.80055428   -1.00000000    0.09000000    0.05000000
   21.80388832   -1.00000000    0.09000000    0.05000000
   21.80722237   -1.00000000    0.09000000    0.05000000
   21.81055450   -1.00000000    0.09000000    0.05000000
   21.81388855   -1.00000000    0.09000000    0.05000000
   21.81833458   -1.00000000    0.09000000    0.05000000
   21.82250023   -1.00000000    0.09000000    0.05000000
   21.82722282   -1.00000000    0.09000000    0.05000000
   21.85111237   -1.00000000    0.09000000    0.05000000
   21.85444450   -1.00000000    0.09000000    0.05000000
   21.85916710   -1.00000000    0.09000000    0.05000000
   21.86388969   -1.00000000    0.09000000    0.05000000
   21.87083435   -1.00000000    0.09000000    0.05000000
   21.88055611   -1.00000000    0.09000000    0.05000000
   21.88388824   -1.00000000    0.09000000    0.05000000
   21.88722229   -1.00000000    0.09000000    0.05000000
   21.89111137   -1.00000000    0.09000000    0.05000000
   21.89444351   -1.00000000    0.09000000    0.05000000
   21.89777756   -1.00000000    0.09000000    0.05000000
   21.90166664   -1.00000000    0.09000000    0.05000000
   21.90527725   -1.00000000    0.09000000    0.05000000
   21.90861130   -1.00000000    0.09000000    0.05000000
   21.91250038   -1.00000000    0.09000000    0.05000000
   21.92305565   -1.00000000    0.09000000    0.05000000
   21.92611122   -1.00000000    0.09000000    0.05000000
   21.92944336   -1.00000000    0.09000000    0.05000000
   21.93305397   -1.00000000    0.09000000    0.05000000
   21.93638802   -1.00000000    0.09000000    0.05000000
   21.93972206   -1.00000000    0.09000000    0.05000000
   21.94305420   -1.00000000    0.09000000    0.05000000
   21.94638824   -1.00000000    0.09000000    0.05000000
   21.94972038   -1.00000000    0.09000000    0.05000000
   21.95305634   -1.00000000    0.09000000    0.05000000
   21.95639038   -1.00000000    0.09000000    0.05000000
   21.96555710   -1.00000000    0.09000000    0.05000000
   21.96888924   -1.00000000    0.09000000    0.05000000
