    HOUR (UT)   FLARE FACTOR    SKY TESTER    SUN TESTER
   11.45249939   -1.00000000   -1.00000000   -1.00000000
   11.50277805   92.68789673    1.44000006    2.15000010
   11.50583363   90.87879944    1.44000006    2.15000010
   11.50916672   93.77220154    1.46000004    2.17000008
   11.51249981  100.65000153    1.44000006    2.15000010
   11.51555538   96.58570099    1.44000006    2.17000008
   11.51888847   92.80310059    1.44000006    2.17000008
   11.52305508   92.80310059    1.44000006    2.17000008
   11.52722168   92.64399719    1.44000006    2.17000008
   11.53027725   97.01509857    1.44000006    2.17000008
   11.53361130  105.82499695    1.41999996    2.17000008
   11.53583336  109.30999756    1.41999996    2.17000008
   11.53722286  104.65000153    1.41999996    2.17000008
   11.54055595  100.21399689    1.39999998    2.17000008
   11.54361153  106.24099731    1.39999998    2.19000006
   11.54694462  104.90000153    1.39999998    2.19000006
   11.55027771  103.64800262    1.39999998    2.19000006
   11.55333328  114.31099701    1.39999998    2.19000006
   11.55666733  106.48899841    1.38000000    2.21000004
   11.56000042  112.54799652    1.38000000    2.19000006
   11.56583309  112.54799652    1.36000001    2.21000004
   11.56999969  114.92900085    1.36000001    2.21000004
   11.57388878  110.25700378    1.36000001    2.21000004
   11.57722187  104.54599762    1.36000001    2.21000004
   11.58138847  107.26699829    1.36000001    2.21000004
   11.58472157  116.11900330    1.34000003    2.23000002
   11.58805561  113.16899872    1.34000003    2.23000002
   11.59111118  122.39700317    1.34000003    2.23000002
   11.59444427  117.02100372    1.33000004    2.23000002
   11.59749985  119.87699890    1.34000003    2.23000002
   11.60083389  122.22899628    1.33000004    2.23000002
   11.60277843  121.95899963    1.33000004    2.23000002
   11.60444450  120.45600128    1.33000004    2.23000002
   11.60861111  120.45600128    1.33000004    2.25000000
   11.61277771  116.80500031    1.33000004    2.25000000
   11.61611176  125.18800354    1.33000004    2.25000000
   11.61916637  119.66999817    1.30999994    2.25000000
   11.62250042  122.08499908    1.30999994    2.25000000
   11.62583351  117.69899750    1.30999994    2.25000000
   11.62888908  116.27700043    1.30999994    2.25000000
   11.63222218  113.48300171    1.30999994    2.25000000
   11.63555527  113.94499969    1.28999996    2.25000000
   11.63611126  116.62599945    1.28999996    2.25000000
   11.63888836  109.62799835    1.28999996    2.25000000
   11.64249992  119.59999847    1.28999996    2.25000000
   11.64583302  119.53199768    1.28999996    2.26999998
   11.65166664  119.53199768    1.26999998    2.26999998
   11.65555477  122.22799683    1.26999998    2.26999998
   11.65888882  118.64600372    1.26999998    2.26999998
   11.66222191  120.22000122    1.26999998    2.26999998
   11.66527748  125.63400269    1.26999998    2.26999998
   11.66861153  122.16100311    1.26999998    2.26999998
   11.66944504  120.47899628    1.26999998    2.26999998
   11.67222214  130.60499573    1.25000000    2.28999996
   11.67555618  126.69100189    1.25000000    2.28999996
   11.67861176  129.39999390    1.23000002    2.28999996
   11.68194485  120.86100006    1.23000002    2.28999996
   11.68527794  118.72899628    1.23000002    2.28999996
   11.68833351  114.50800323    1.23000002    2.28999996
   11.69444466  114.50800323    1.21000004    2.30999994
   11.69861126  129.41600037    1.21000004    2.30999994
   11.70166683  118.96099854    1.21000004    2.30999994
   11.70277786  128.25799561    1.21000004    2.30999994
   11.70527744  114.36499786    1.21000004    2.30999994
   11.70861053  118.39399719    1.21000004    2.30999994
   11.71166611  115.40299988    1.21000004    2.30999994
   11.71500015  119.30699921    1.19000006    2.30999994
   11.71833324  128.50399780    1.19000006    2.30999994
   11.72138882  120.83399963    1.19000006    2.30999994
   11.72472191  123.96900177    1.19000006    2.32999992
   11.72805500  115.95300293    1.19000006    2.32999992
   11.73111057  128.98699951    1.19000006    2.32999992
   11.73722267  128.98699951    1.19000006    2.30999994
   11.74138927  120.20899963    1.19000006    2.32999992
   11.74472237  120.87000275    1.19000006    2.32999992
   11.74777794  115.67400360    1.19000006    2.32999992
   11.75111103  116.94999695    1.19000006    2.32999992
   11.75416660  114.09400177    1.19000006    2.32999992
   11.75749969  119.74199677    1.16999996    2.32999992
   11.76083374  120.65200043    1.16999996    2.32999992
   11.76388931  121.05999756    1.16999996    2.34999990
   11.76722240  123.68000031    1.16999996    2.34999990
   11.76944447  114.69400024    1.16999996    2.34999990
   11.77083302  114.74500275    1.16999996    2.34999990
   11.77416611  114.08599854    1.16999996    2.34999990
   11.77999973  114.08599854    1.14999998    2.34999990
   11.78416729  114.44200134    1.14999998    2.34999990
   11.78750038  124.01699829    1.14999998    2.34999990
   11.79055595  121.06400299    1.13000000    2.34999990
   11.79388905  119.83200073    1.14999998    2.36999989
   11.79722309  112.12599945    1.13000000    2.36999989
   11.80027771  118.37500000    1.13000000    2.36999989
   11.80277824  114.57900238    1.11000001    2.36999989
   11.80388927  116.61000061    1.11000001    2.36999989
   11.80722237  118.04199982    1.11000001    2.36999989
   11.81055546  120.45099640    1.11000001    2.36999989
   11.81361103  118.96700287    1.11000001    2.36999989
   11.81694412  123.80400085    1.11000001    2.36999989
   11.82305527  123.80400085    1.11000001    2.39000010
   11.82694435  115.48600006    1.11000001    2.36999989
   11.83027744  119.29799652    1.11000001    2.36999989
   11.83361053  123.42500305    1.09000003    2.39000010
   11.83611107  118.70899963    1.09000003    2.36999989
   11.83722210  113.70300293    1.09000003    2.39000010
   11.84055519  126.58000183    1.09000003    2.39000010
   11.84388828  119.32900238    1.09000003    2.39000010
   11.84722233  119.96600342    1.09000003    2.39000010
   11.85027790  116.47599792    1.09000003    2.39000010
   11.85361195  119.08300018    1.09000003    2.40000010
   11.85666752  112.45600128    1.09000003    2.39000010
   11.86000061  114.50199890    1.09000003    2.40000010
   11.86583328  114.50199890    1.09000003    2.40000010
   11.86999989  119.08399963    1.09000003    2.40000010
   11.87305546  114.59799957    1.09000003    2.40000010
   11.87638855  112.91200256    1.09000003    2.40000010
   11.87972260  117.81199646    1.09000003    2.39000010
   11.88277817  113.78600311    1.09000003    2.40000010
   11.88611126  118.24199677    1.09000003    2.40000010
   11.88944435  115.27600098    1.09000003    2.40000010
   11.89249992  123.94000244    1.09000003    2.40000010
   11.89583302  113.85199738    1.07000005    2.40000010
   11.89888859  110.99400330    1.07000005    2.42000008
   11.90222168  116.14800262    1.07000005    2.42000008
   11.90277767  117.95700073    1.07000005    2.40000010
   11.90861034  117.95700073    1.05999994    2.42000008
   11.91277695  115.08899689    1.07000005    2.42000008
   11.91611099  115.87899780    1.05999994    2.42000008
   11.91916656  116.48400116    1.07000005    2.42000008
   11.92250061  114.83499908    1.07000005    2.42000008
   11.92583370  113.62200165    1.05999994    2.44000006
   11.92916679  118.44000244    1.05999994    2.42000008
   11.93249989  117.81199646    1.05999994    2.42000008
   11.93555546  117.25399780    1.07000005    2.42000008
   11.93611145  121.30300140    1.07000005    2.42000008
   11.93916702  119.31700134    1.07000005    2.42000008
   11.94222260  128.64799500    1.07000005    2.42000008
   11.94555569  125.12200165    1.07000005    2.42000008
   11.95138836  125.12200165    1.07000005    2.44000006
   11.95555496  119.68499756    1.07000005    2.42000008
   11.95916653  123.98200226    1.07000005    2.44000006
   11.96249962  118.10600281    1.05999994    2.44000006
   11.96555519  118.72899628    1.05999994    2.42000008
   11.96888828  118.22699738    1.05999994    2.44000006
   11.96944427  122.32099915    1.05999994    2.44000006
   11.97249985  120.92199707    1.05999994    2.44000006
   11.97555542  119.52200317    1.05999994    2.42000008
   11.97888851  130.64700317    1.03999996    2.44000006
   11.98222160  117.66500092    1.03999996    2.44000006
   11.98527813  117.83100128    1.03999996    2.44000006
   11.98861122  120.20400238    1.05999994    2.44000006
   11.99416733  120.20400238    1.03999996    2.46000004
   11.99833393  128.72000122    1.03999996    2.46000004
   12.00166702  126.13700104    1.05999994    2.46000004
   12.00277805  132.28300476    1.05999994    2.46000004
   12.00527763  126.36599731    1.03999996    2.46000004
   12.00861073  124.55699921    1.05999994    2.46000004
   12.01166630  119.62400055    1.05999994    2.46000004
   12.01500034  125.31400299    1.05999994    2.46000004
   12.01805496  115.70800018    1.05999994    2.46000004
   12.02138901  122.56099701    1.05999994    2.46000004
   12.02472210  117.53900146    1.03999996    2.46000004
   12.02777767  115.14700317    1.03999996    2.46000004
   12.03111076  115.71099854    1.03999996    2.46000004
   12.03722286  115.71099854    1.03999996    2.46000004
   12.04138947  119.05699921    1.03999996    2.46000004
   12.04444504  121.72899628    1.01999998    2.48000002
   12.04777813  122.74099731    1.01999998    2.46000004
   12.05083370  119.52500153    1.01999998    2.46000004
   12.05416679  123.41799927    1.01999998    2.48000002
   12.05749989  117.19400024    1.01999998    2.48000002
   12.06083393  119.43299866    1.01999998    2.48000002
   12.06416702  124.80300140    1.01999998    2.48000002
   12.06722260  122.43599701    1.00000000    2.48000002
   12.06944466  121.82099915    1.00000000    2.48000002
   12.07111073  118.21800232    1.00000000    2.48000002
   12.07444477  117.95099640    1.00000000    2.48000002
   12.07999992  117.95099640    1.00000000    2.48000002
   12.08416653  118.96199799    0.98000002    2.48000002
   12.08722210  116.38200378    0.98000002    2.48000002
   12.09055519  126.50800323    0.98000002    2.48000002
   12.09388828  129.30700684    1.00000000    2.50000000
   12.09694386  120.81999969    0.98000002    2.50000000
   12.10027790  121.76200104    0.98000002    2.50000000
   12.10277843  124.80500031    0.98000002    2.48000002
   12.10388947  126.77400208    0.95999998    2.50000000
   12.10722256  118.29599762    0.95999998    2.50000000
   12.11027813  123.77400208    0.95999998    2.50000000
   12.11361122  118.96700287    0.95999998    2.50000000
   12.11666679  124.06600189    0.94000000    2.50000000
   12.12277794  124.06600189    0.95999998    2.50000000
   12.12694454  122.11799622    0.94000000    2.50000000
   12.13027763  114.50499725    0.94000000    2.50000000
   12.13333321  115.01999664    0.94000000    2.50000000
   12.13611126  116.08799744    0.94000000    2.51999998
   12.13722229  116.71700287    0.94000000    2.51999998
   12.14055538  124.78700256    0.94000000    2.50000000
   12.14361095  113.41899872    0.94000000    2.50000000
   12.14694405  118.06600189    0.94000000    2.51999998
   12.15027714  125.80300140    0.94000000    2.51999998
   12.15333271  128.72500610    0.94000000    2.51999998
   12.15666676  128.32299805    0.94000000    2.51999998
   12.15972137  121.69599915    0.94000000    2.51999998
   12.16555500  121.69599915    0.94000000    2.51999998
   12.16972256  120.34500122    0.94000000    2.51999998
   12.17305565  133.25399780    0.92000002    2.51999998
   12.17638874  120.54100037    0.92000002    2.51999998
   12.17944431  121.46299744    0.92000002    2.51999998
   12.18277836  124.73999786    0.92000002    2.51999998
   12.18583298  118.42600250    0.92000002    2.51999998
   12.18916702  120.86599731    0.92000002    2.53999996
   12.19250011  121.24700165    0.92000002    2.53999996
   12.19555569  123.02799988    0.92000002    2.51999998
   12.19888878  125.75299835    0.89999998    2.53999996
   12.20222187  126.47399902    0.92000002    2.53999996
   12.20277786  120.46399689    0.89999998    2.53999996
   12.20861053  120.46399689    0.89999998    2.53999996
   12.21277714  117.10099792    0.89999998    2.53999996
   12.21583271  126.20899963    0.89999998    2.53999996
   12.21916580  124.23000336    0.89999998    2.53999996
   12.22222137  118.95200348    0.89999998    2.53999996
   12.22555542  119.47599792    0.89999998    2.53999996
   12.22888851  115.45800018    0.88000000    2.55999994
   12.23194408  115.76399994    0.88000000    2.53999996
   12.23527813  119.78600311    0.89999998    2.53999996
   12.23611164  115.63800049    0.88000000    2.53999996
   12.23888874  114.88099670    0.88000000    2.53999996
   12.24222279  118.69999695    0.88000000    2.55999994
   12.24527836  117.34999847    0.88000000    2.53999996
   12.25138855  117.34999847    0.88000000    2.53999996
   12.25555515  120.27400208    0.89999998    2.53999996
   12.25861073  118.31500244    0.88000000    2.55999994
   12.26194477  126.77100372    0.88000000    2.55999994
   12.26527786  124.96700287    0.88000000    2.55999994
   12.26833344  123.11399841    0.88000000    2.55999994
   12.26944447  123.75499725    0.88000000    2.55999994
   12.27194405  121.24099731    0.88000000    2.53999996
   12.27527714  123.32700348    0.88000000    2.55999994
   12.27833271  124.89700317    0.88000000    2.55999994
   12.28166676  123.06300354    0.88000000    2.55999994
   12.28500080  121.51000214    0.88000000    2.55999994
   12.28805637  118.68699646    0.86000001    2.55999994
   12.29416752  118.68699646    0.86000001    2.55999994
   12.29833412  117.58699799    0.86000001    2.55999994
   12.30166721  123.18900299    0.86000001    2.55999994
   12.30277824  117.68399811    0.86000001    2.55999994
   12.30527782  117.89499664    0.86000001    2.55999994
   12.30861092  116.80500031    0.83999997    2.55999994
   12.31166649  119.01699829    0.83999997    2.57999992
   12.31500053  117.35199738    0.86000001    2.57999992
   12.31833363  120.41400146    0.83999997    2.57999992
   12.32138920  109.74500275    0.86000001    2.57999992
   12.32472229  122.07299805    0.86000001    2.57999992
   12.32777786  117.57399750    0.83999997    2.57999992
   12.33111095  118.85800171    0.83999997    2.57999992
   12.33694458  118.85800171    0.81999999    2.57999992
   12.34111118  122.99500275    0.83999997    2.57999992
   12.34444427  117.96299744    0.83999997    2.57999992
   12.34777737  118.99299622    0.83999997    2.57999992
   12.35083389  119.68099976    0.83999997    2.57999992
   12.35416698  120.18699646    0.83999997    2.57999992
   12.35750008  124.60099792    0.83999997    2.59999990
   12.36055565  117.68900299    0.86000001    2.57999992
   12.36388969  115.59200287    0.83999997    2.57999992
   12.36694431  122.28199768    0.83999997    2.59999990
   12.36944485  117.45200348    0.83999997    2.59999990
   12.37083340  113.53700256    0.83999997    2.59999990
   12.37416649  115.11599731    0.83999997    2.57999992
   12.38000011  115.11599731    0.83999997    2.57999992
   12.38416672  113.76599884    0.83999997    2.57999992
   12.38722229  114.73899841    0.83999997    2.59999990
   12.39055538  119.39600372    0.81999999    2.57999992
   12.39388847  115.94799805    0.83999997    2.59999990
   12.39694405  116.94200134    0.83999997    2.59999990
   12.40027714  116.08499908    0.86000001    2.59999990
   12.40277767  114.48000336    0.86000001    2.59999990
   12.40388870  124.31600189    0.86000001    2.59999990
   12.40722179  125.09799957    0.86000001    2.59999990
   12.41027737  124.86499786    0.86000001    2.59999990
   12.41361046  122.44799805    0.86000001    2.59999990
   12.41694450  115.37200165    0.83999997    2.59999990
   12.42277813  115.37200165    0.83999997    2.59999990
   12.42694473  131.25700378    0.81999999    2.59999990
   12.43000031  130.51600647    0.83999997    2.59999990
   12.43333340  124.93099976    0.81999999    2.59999990
   12.43611145  124.77799988    0.83999997    2.61999989
   12.43694496  125.30699921    0.83999997    2.59999990
   12.44027805  133.72500610    0.81999999    2.59999990
   12.44333363  123.91000366    0.81999999    2.59999990
   12.44666672  121.14600372    0.81999999    2.59999990
   12.44999981  121.98899841    0.81999999    2.59999990
   12.45305538  120.03099823    0.81999999    2.59999990
   12.45638847  117.85299683    0.80000001    2.61999989
   12.45944405  120.92199707    0.80000001    2.61999989
   12.46555519  120.92199707    0.80000001    2.64000010
   12.46972179  118.79699707    0.80000001    2.61999989
   12.47305489  118.90299988    0.80000001    2.61999989
   12.47611046  117.97200012    0.80000001    2.61999989
   12.47944355  120.02700043    0.80000001    2.61999989
   12.48277760  126.61299896    0.79000002    2.61999989
   12.48583317  119.40499878    0.79000002    2.61999989
   12.48916721  120.19999695    0.79000002    2.61999989
   12.49222279  120.01300049    0.80000001    2.61999989
   12.49555588  120.00900269    0.80000001    2.64000010
   12.49888897  115.97499847    0.80000001    2.61999989
   12.50194454  112.98300171    0.80000001    2.61999989
   12.50277805  120.27600098    0.80000001    2.61999989
   12.52361107  120.27600098    0.80000001    2.61999989
   12.52777767  116.90399933    0.80000001    2.61999989
   12.53083324  119.10600281    0.80000001    2.64000010
   12.53416729  114.32499695    0.80000001    2.64000010
   12.53611183  120.56600189    0.80000001    2.61999989
   12.53777790  121.59100342    0.80000001    2.61999989
   12.54111195  120.11699677    0.80000001    2.64000010
   12.54416752  117.93000031    0.79000002    2.64000010
   12.54750061  114.82700348    0.79000002    2.64000010
   12.55083370  117.39399719    0.79000002    2.64000010
   12.55388927  111.47799683    0.80000001    2.64000010
   12.55722237  121.83200073    0.79000002    2.64000010
   12.56055546  126.04100037    0.79000002    2.64000010
   12.56638908  126.04100037    0.79000002    2.64000010
   12.57055569  114.36100006    0.79000002    2.64000010
   12.57361126  120.70899963    0.79000002    2.64000010
   12.57694435  122.30699921    0.79000002    2.64000010
   12.57999992  122.29299927    0.79000002    2.64000010
   12.58333302  126.16100311    0.79000002    2.64000010
   12.58666611  128.21899414    0.79000002    2.64000010
   12.58972168  127.12500000    0.79000002    2.64000010
   12.59305477  118.67199707    0.79000002    2.64000010
   12.59638882  115.19000244    0.79000002    2.64000010
   12.59944439  112.55400085    0.79000002    2.64000010
   12.60277843  113.85099792    0.76999998    2.64000010
   12.60333347  122.01599884    0.76999998    2.64000010
   12.60916710  122.01599884    0.75000000    2.66000009
   12.61333370  114.83699799    0.75000000    2.64000010
   12.61638927  115.75000000    0.76999998    2.66000009
   12.61972237  113.61599731    0.75000000    2.66000009
   12.62305546  112.26999664    0.75000000    2.66000009
   12.62611103  122.69100189    0.75000000    2.66000009
   12.62944412  111.73200226    0.75000000    2.66000009
   12.63277817  121.04499817    0.75000000    2.66000009
   12.63583279  119.70700073    0.75000000    2.66000009
   12.63666630  122.80300140    0.75000000    2.66000009
   12.63944435  117.95099640    0.75000000    2.66000009
   12.64277744  118.25299835    0.75000000    2.66000009
   12.64611053  113.12599945    0.75000000    2.66000009
   12.65194416  113.12599945    0.75000000    2.66000009
   12.65611076  113.17199707    0.75000000    2.67000008
   12.65944386  113.23200226    0.75000000    2.66000009
   12.66249943  109.99400330    0.75000000    2.66000009
   12.66583252  112.90799713    0.75000000    2.66000009
   12.66916656  116.20099640    0.75000000    2.66000009
   12.67000008  111.15799713    0.75000000    2.66000009
   12.67250061  111.08699799    0.75000000    2.66000009
   12.67583370  115.19999695    0.75000000    2.66000009
   12.67916679  116.90899658    0.75000000    2.67000008
   12.68222237  112.70200348    0.75000000    2.66000009
   12.68555546  115.48600006    0.75000000    2.67000008
   12.68888855  116.45400238    0.75000000    2.67000008
   12.69472218  116.45400238    0.76999998    2.66000009
   12.69888878  116.15200043    0.76999998    2.66000009
   12.70222187  121.16999817    0.76999998    2.66000009
   12.70333290  117.33799744    0.75000000    2.67000008
   12.70611095  112.63700104    0.75000000    2.67000008
   12.70916653  117.67400360    0.75000000    2.67000008
   12.71249962  117.83899689    0.75000000    2.66000009
   12.71555519  116.97100067    0.76999998    2.67000008
   12.71888828  117.84799957    0.76999998    2.67000008
   12.72222137  112.12200165    0.75000000    2.66000009
   12.72527695  113.32599640    0.76999998    2.67000008
   12.72861099  114.84999847    0.76999998    2.67000008
   12.73194408  110.54599762    0.75000000    2.67000008
   12.73777771  110.54599762    0.73000002    2.67000008
   12.74194431  108.91500092    0.73000002    2.67000008
   12.74499989  114.29299927    0.73000002    2.67000008
   12.74833393  111.47499847    0.73000002    2.67000008
   12.75138855  108.80100250    0.73000002    2.67000008
   12.75472260  111.39299774    0.73000002    2.67000008
   12.75805569  114.08699799    0.73000002    2.67000008
   12.76111126  119.02100372    0.73000002    2.67000008
   12.76444435  114.84899902    0.73000002    2.67000008
   12.76777744  110.59700012    0.73000002    2.67000008
   12.76999950  111.61100006    0.73000002    2.67000008
   12.77138901  117.14299774    0.73000002    2.67000008
   12.77444458  106.38500214    0.73000002    2.67000008
   12.78055573  106.38500214    0.73000002    2.69000006
   12.78472233  110.99400330    0.70999998    2.67000008
   12.78777790  112.46199799    0.70999998    2.69000006
   12.79111195  114.00599670    0.70999998    2.69000006
   12.79444504  122.49700165    0.73000002    2.69000006
   12.79750061  119.53299713    0.73000002    2.69000006
   12.80083370  121.77300262    0.73000002    2.69000006
   12.80333328  124.07099915    0.70999998    2.69000006
   12.80472279  124.73699951    0.70999998    2.69000006
   12.80777836  133.42500305    0.70999998    2.69000006
   12.81111145  131.41200256    0.70999998    2.69000006
   12.81416702  137.48500061    0.70999998    2.69000006
   12.81750011  147.12100220    0.70999998    2.69000006
   12.82333374  147.12100220    0.69000000    2.69000006
   12.82750034  150.54800415    0.70999998    2.69000006
   12.83083344  156.11199951    0.70999998    2.69000006
   12.83388901  162.03700256    0.70999998    2.69000006
   12.83666611  144.03900146    0.70999998    2.69000006
   12.83777714  148.52900696    0.70999998    2.69000006
   12.84083271  146.36000061    0.70999998    2.69000006
   12.84416676  160.18499756    0.70999998    2.69000006
   12.84722233  149.79499817    0.70999998    2.69000006
   12.85055637  153.94000244    0.70999998    2.69000006
   12.85388947  145.24099731    0.70999998    2.69000006
   12.85694504  153.56599426    0.70999998    2.69000006
   12.86027813  146.31700134    0.70999998    2.69000006
   12.86611176  146.31700134    0.70999998    2.71000004
   12.87027836  155.40199280    0.70999998    2.69000006
   12.87361145  151.02600098    0.70999998    2.69000006
   12.87694454  146.68400574    0.70999998    2.71000004
   12.88000011  147.91099548    0.73000002    2.69000006
   12.88333321  136.53100586    0.70999998    2.69000006
   12.88666630  154.42199707    0.70999998    2.69000006
   12.88972187  143.46600342    0.70999998    2.71000004
   12.89305496  150.23899841    0.70999998    2.71000004
   12.89611053  152.75799561    0.70999998    2.69000006
   12.89944458  160.17599487    0.70999998    2.71000004
   12.90277767  154.52600098    0.70999998    2.71000004
   12.90333271  150.64399719    0.70999998    2.71000004
   12.90916634  150.64399719    0.70999998    2.71000004
   12.91333294  145.14500427    0.69000000    2.71000004
   12.91638851  142.49099731    0.69000000    2.71000004
   12.91972256  135.76899719    0.69000000    2.71000004
   12.92305565  141.20700073    0.69000000    2.71000004
   12.92611122  152.07400513    0.67000002    2.71000004
   12.92944431  147.50100708    0.67000002    2.71000004
   12.93249989  154.08700562    0.67000002    2.71000004
   12.93583298  140.77999878    0.67000002    2.71000004
   12.93666649  144.02299500    0.67000002    2.71000004
   12.93972206  145.06900024    0.67000002    2.71000004
   12.94277763  146.71499634    0.69000000    2.71000004
   12.94611073  146.61199951    0.69000000    2.71000004
   12.95194435  146.61199951    0.69000000    2.71000004
   12.95611095  135.05400085    0.69000000    2.71000004
   12.95916653  137.62300110    0.69000000    2.71000004
   12.96249962  144.66700745    0.69000000    2.71000004
   12.96583271  151.53399658    0.69000000    2.71000004
   12.96888828  139.20700073    0.69000000    2.71000004
   12.96999931  154.23899841    0.70999998    2.71000004
   12.97277737  144.22500610    0.70999998    2.71000004
   12.97583294  133.69099426    0.69000000    2.71000004
   12.97916603  149.74499512    0.69000000    2.71000004
   12.98249912  140.83299255    0.70999998    2.71000004
   12.98555565  145.38900757    0.70999998    2.71000004
   12.98888874  141.01300049    0.69000000    2.71000004
   12.99472237  141.01300049    0.69000000    2.71000004
   12.99888897  136.21699524    0.69000000    2.73000002
   13.00222206  135.65600586    0.69000000    2.73000002
   13.00333309  127.63500214    0.69000000    2.73000002
   13.00583363  135.52999878    0.69000000    2.73000002
   13.00888920  144.58999634    0.69000000    2.73000002
   13.01222229  133.06900024    0.69000000    2.73000002
   13.01555538  138.42700195    0.69000000    2.71000004
   13.01861095  131.83099365    0.69000000    2.73000002
   13.02194405  139.12699890    0.69000000    2.73000002
   13.02527714  129.05400085    0.69000000    2.71000004
   13.02833271  128.76300049    0.69000000    2.73000002
   13.03166676  130.27400208    0.67000002    2.73000002
   13.03750038  130.27400208    0.67000002    2.73000002
   13.04166698  122.47899628    0.69000000    2.73000002
   13.04500008  124.42900085    0.70999998    2.73000002
   13.04805565  122.99700165    0.67000002    2.73000002
   13.05138874  127.11799622    0.69000000    2.73000002
   13.05472279  134.40600586    0.69000000    2.73000002
   13.05777836  129.44200134    0.67000002    2.73000002
   13.06111145  123.75499725    0.69000000    2.73000002
   13.06444454  119.01699829    0.70999998    2.73000002
   13.06750011  120.32099915    0.73000002    2.75000000
   13.06999969  136.84100342    0.73000002    2.75000000
   13.07138920  144.97000122    0.70999998    2.73000002
   13.07444477  114.24299622    0.73000002    2.73000002
   13.08055592  114.24299622    0.73000002    2.73000002
   13.08444405  128.53100586    0.73000002    2.73000002
   13.08777714  129.48199463    0.73000002    2.73000002
   13.09111118  124.72799683    0.73000002    2.73000002
   13.09416676  129.05799866    0.70999998    2.73000002
   13.09749985  136.35299683    0.70999998    2.73000002
   13.10083389  115.01599884    0.70999998    2.73000002
   13.10333347  132.86900330    0.70999998    2.73000002
   13.10444450  124.24299622    0.70999998    2.75000000
   13.10750008  122.21600342    0.70999998    2.73000002
   13.11083412  124.09999847    0.70999998    2.75000000
   13.11416721  125.27300262    0.69000000    2.75000000
   13.11722279  124.08300018    0.67000002    2.73000002
   13.12333393  124.08300018    0.69000000    2.75000000
   13.12750053  116.35199738    0.69000000    2.75000000
   13.13055611  115.27200317    0.67000002    2.73000002
   13.13388920  120.27200317    0.67000002    2.73000002
   13.13666630  122.22100067    0.67000002    2.75000000
   13.13749981  118.41100311    0.67000002    2.75000000
   13.14055538  120.18900299    0.67000002    2.73000002
   13.14388847  129.34199524    0.67000002    2.73000002
   13.14722252  115.60800171    0.67000002    2.75000000
   13.15027714  125.62799835    0.67000002    2.75000000
   13.15361118  119.83000183    0.67000002    2.75000000
   13.15666676  115.95400238    0.67000002    2.73000002
   13.15999985  112.47299957    0.69000000    2.73000002
   13.16611099  112.47299957    0.67000002    2.75000000
   13.17027855  117.68599701    0.67000002    2.75000000
   13.17361164  124.76200104    0.67000002    2.75000000
   13.17666721  115.93000031    0.69000000    2.75000000
   13.18000031  112.76499939    0.67000002    2.75000000
   13.18333340  116.18499756    0.69000000    2.75000000
   13.18638897  116.70800018    0.67000002    2.75000000
   13.18972206  116.08799744    0.67000002    2.75000000
   13.19277763  114.83999634    0.67000002    2.75000000
   13.19611073  119.55599976    0.67000002    2.75000000
   13.19944477  117.02899933    0.67000002    2.75000000
   13.20249939  116.21700287    0.67000002    2.75000000
   13.20333290  112.14600372    0.67000002    2.75000000
   13.20888901  112.14600372    0.67000002    2.75000000
   13.21305561  108.85500336    0.67000002    2.75000000
   13.21638870  110.76100159    0.64999998    2.75000000
   13.21944427  121.27400208    0.64999998    2.75000000
   13.22277737  109.93699646    0.64999998    2.75000000
   13.22611046  109.76599884    0.64999998    2.75000000
   13.22916603  113.83000183    0.64999998    2.75000000
   13.23249912  115.30899811    0.64999998    2.75000000
   13.23583317  116.92099762    0.64999998    2.75000000
   13.23666668  110.47100067    0.64999998    2.75000000
   13.23944473  113.08799744    0.64999998    2.75000000
   13.24250031  111.75700378    0.64999998    2.75000000
   13.24583340  107.93599701    0.64999998    2.75000000
   13.25194454  107.93599701    0.64999998    2.75000000
   13.25583363  111.25199890    0.64999998    2.75000000
   13.25916672  111.27700043    0.64999998    2.75000000
   13.26249981  106.87899780    0.67000002    2.75000000
   13.26555538  112.01399994    0.64999998    2.76999998
   13.26888847  109.24199677    0.64999998    2.75000000
   13.26999950  114.49299622    0.64999998    2.76999998
   13.27250004  113.63800049    0.63000000    2.75000000
   13.27555561  112.97599792    0.64999998    2.75000000
   13.27888870  116.91600037    0.64999998    2.76999998
   13.28222179  121.05400085    0.64999998    2.75000000
   13.28527832  118.51000214    0.64999998    2.75000000
   13.28861141  118.26499939    0.64999998    2.75000000
   13.29472256  118.26499939    0.64999998    2.76999998
   13.29888916  112.76899719    0.64999998    2.75000000
   13.30194473  117.70800018    0.64999998    2.75000000
   13.30333328  114.83799744    0.64999998    2.75000000
   13.30583382  111.59300232    0.64999998    2.75000000
   13.30888939  109.81999969    0.67000002    2.76999998
   13.31222248  111.15100098    0.64999998    2.76999998
   13.31555557  105.89499664    0.64999998    2.76999998
   13.31861115  118.67199707    0.64999998    2.76999998
   13.32194424  106.67500305    0.64999998    2.76999998
   13.32527733  109.76599884    0.64999998    2.76999998
   13.32833290  113.23600006    0.64999998    2.76999998
   13.33166695  106.66000366    0.64999998    2.76999998
   13.33749962  106.66000366    0.64999998    2.76999998
   13.34166622  111.68599701    0.64999998    2.76999998
   13.34499931  107.30400085    0.64999998    2.76999998
   13.34805489  113.18199921    0.64999998    2.76999998
   13.35138893  109.79299927    0.64999998    2.76999998
   13.35444450  110.19200134    0.64999998    2.76999998
   13.35777855  110.21800232    0.64999998    2.76999998
   13.36111164  113.92299652    0.64999998    2.76999998
   13.36416721  110.32599640    0.64999998    2.76999998
   13.36750031  112.97899628    0.64999998    2.76999998
   13.36999989  119.23899841    0.64999998    2.78999996
   13.37111092  111.55699921    0.64999998    2.78999996
   13.37416649  109.61799622    0.64999998    2.76999998
   13.38027763  109.61799622    0.63000000    2.76999998
   13.38444424  112.21399689    0.64999998    2.76999998
   13.38777733  117.40599823    0.64999998    2.76999998
   13.39083290  112.50099945    0.64999998    2.76999998
   13.39416695  112.82399750    0.64999998    2.76999998
   13.39750004  107.46900177    0.64999998    2.76999998
   13.40055561  114.87599945    0.67000002    2.78999996
   13.40333271  110.15299988    0.64999998    2.78999996
   13.40444374  110.82099915    0.64999998    2.78999996
   13.40777779  105.71700287    0.64999998    2.78999996
   13.41083336  111.26300049    0.64999998    2.76999998
   13.41416645  110.43199921    0.64999998    2.76999998
   13.41722298  106.32299805    0.63000000    2.76999998
   13.42333412  106.32299805    0.63000000    2.78999996
   13.42722225  103.09600067    0.63000000    2.76999998
   13.43055630  109.11000061    0.63000000    2.76999998
   13.43388939  111.48699951    0.64999998    2.76999998
   13.43666649  108.39199829    0.64999998    2.78999996
   13.43750000  109.97000122    0.64999998    2.78999996
   13.44083309  108.76599884    0.64999998    2.78999996
   13.44388866  111.27500153    0.64999998    2.76999998
   13.44722271  104.85600281    0.64999998    2.78999996
   13.45027733  109.18399811    0.63000000    2.78999996
   13.45361137  110.32499695    0.63000000    2.76999998
   13.45694447  113.44200134    0.64999998    2.78999996
   13.46000004  107.54299927    0.64999998    2.78999996
   13.46611118  107.54299927    0.63000000    2.78999996
   13.47027779  112.59600067    0.63000000    2.76999998
   13.47333336  110.95400238    0.63000000    2.78999996
   13.47666645  107.67600250    0.63000000    2.78999996
   13.47999954  107.87400055    0.61000001    2.78999996
   13.48305511  111.37200165    0.61000001    2.78999996
   13.48638916  109.46700287    0.63000000    2.76999998
   13.48944473  113.28600311    0.61000001    2.78999996
   13.49277782  110.13300323    0.63000000    2.76999998
   13.49611092  109.59999847    0.63000000    2.76999998
   13.49916649  111.25000000    0.63000000    2.78999996
   13.50249958  114.67700195    0.63000000    2.78999996
   13.50333309  110.31600189    0.64999998    2.78999996
   13.50888920  110.31600189    0.64999998    2.78999996
   13.51305580  112.47899628    0.64999998    2.78999996
   13.51611137  112.63200378    0.64999998    2.78999996
   13.51944447  110.25299835    0.63000000    2.76999998
   13.53722286  112.39299774    0.64999998    2.78999996
   13.53944492  109.91400146    0.64999998    2.78999996
   13.54277802  115.19000244    0.64999998    2.78999996
   13.54611111  113.19999695    0.67000002    2.78999996
   13.55194473  113.19999695    0.64999998    2.78999996
   13.55611134  114.26399994    0.64999998    2.78999996
   13.56055546  111.28700256    0.64999998    2.78999996
   13.56361103  112.38400269    0.64999998    2.78999996
   13.56694412  111.93900299    0.63000000    2.78999996
   13.57027817  112.18299866    0.63000000    2.78999996
   13.57083321  114.52100372    0.63000000    2.78999996
   13.57388878  114.66799927    0.63000000    2.78999996
   13.57722187  109.86699677    0.63000000    2.78999996
   13.58027744  114.26399994    0.63000000    2.78999996
   13.58361053  112.11299896    0.64999998    2.78999996
   13.58694458  114.27100372    0.64999998    2.78999996
   13.59027767  110.07199860    0.64999998    2.78999996
   13.59472179  110.07199860    0.64999998    2.78999996
   13.59888840  117.64099884    0.64999998    2.78999996
   13.60222244  103.65899658    0.64999998    2.78999996
   13.60416698  108.82299805    0.64999998    2.78999996
   13.60583401  108.98699951    0.64999998    2.78999996
   13.60916710  109.58599854    0.64999998    2.80999994
   13.61222267  105.74700165    0.64999998    2.78999996
   13.62194443  105.62500000    0.67000002    2.78999996
   13.62527752  114.25000000    0.67000002    2.78999996
   13.62833309  104.66799927    0.67000002    2.78999996
   13.63166714  111.33000183    0.67000002    2.78999996
   13.63749981  111.33000183    0.67000002    2.78999996
   13.64166641  107.40899658    0.67000002    2.78999996
   13.64499950  109.46299744    0.67000002    2.80999994
   13.64833355  103.52100372    0.64999998    2.80999994
   13.65138817  105.31700134    0.64999998    2.78999996
   13.65472221  101.85199738    0.63000000    2.78999996
   13.65777779  106.53800201    0.64999998    2.80999994
   13.66111088  108.55999756    0.63000000    2.78999996
   13.66444397  102.04299927    0.63000000    2.80999994
   13.66750050  106.68299866    0.63000000    2.80999994
   13.67083359  106.02400208    0.63000000    2.80999994
   13.67111111  104.62300110    0.63000000    2.80999994
   13.67444515  112.70200348    0.63000000    2.80999994
   13.68055630  112.70200348    0.63000000    2.78999996
   13.68472195  107.09200287    0.63000000    2.80999994
   13.68777752  107.27300262    0.63000000    2.80999994
   13.69111156  110.19300079    0.63000000    2.80999994
   13.69444466  109.15599823    0.63000000    2.80999994
   13.69750023  117.80500031    0.63000000    2.80999994
   13.70083332  115.49700165    0.63000000    2.80999994
   13.70416641  112.71800232    0.63000000    2.80999994
   13.70444393  114.00700378    0.63000000    2.80999994
   13.70777798  113.71299744    0.63000000    2.80999994
   13.71111107  109.91100311    0.63000000    2.80999994
   13.71416664  113.44599915    0.63000000    2.80999994
   13.71749973  113.92800140    0.63000000    2.80999994
   13.72333336  113.92800140    0.61000001    2.80999994
   13.72749996  108.34200287    0.58999997    2.80999994
   13.73055553  110.59999847    0.58999997    2.80999994
   13.73388958  109.76200104    0.58999997    2.80999994
   13.73722267  106.66500092    0.58999997    2.80999994
   13.73777771  104.57099915    0.58999997    2.80999994
   13.74083328  106.08799744    0.58999997    2.80999994
   13.74416733  108.81500244    0.61000001    2.80999994
   13.74750042  113.67299652    0.58999997    2.80999994
   13.75055599  114.76599884    0.58999997    2.82999992
   13.75388908  108.55999756    0.61000001    2.80999994
   13.75722218  113.84899902    0.61000001    2.80999994
   13.76027775  107.51399994    0.63000000    2.80999994
   13.76611137  107.51399994    0.64999998    2.80999994
   13.77027798  117.74199677    0.67000002    2.80999994
   13.77111053  107.33100128    0.64999998    2.82999992
   13.77388859  111.70700073    0.67000002    2.80999994
   13.77722168  111.51300049    0.67000002    2.80999994
   13.78055573  109.21700287    0.67000002    2.80999994
   13.78361130  116.41100311    0.67000002    2.80999994
   13.78694534  110.42099762    0.67000002    2.80999994
   13.79027843  110.50099945    0.67000002    2.80999994
   13.79333401  114.44599915    0.67000002    2.82999992
   13.79666710  108.87000275    0.67000002    2.80999994
   13.80000019  112.15200043    0.69000000    2.80999994
   13.80333328  108.79199982    0.69000000    2.80999994
   13.80444431  107.84100342    0.69000000    2.80999994
   13.80888939  107.84100342    0.67000002    2.80999994
   13.81305599  110.48300171    0.67000002    2.80999994
   13.81638908  110.64199829    0.67000002    2.80999994
   13.81972218  110.42800140    0.67000002    2.80999994
   13.82277775  107.40299988    0.64999998    2.80999994
   13.82611084  108.46800232    0.64999998    2.82999992
   13.82916641  112.67700195    0.63000000    2.80999994
   13.83249950  112.39900208    0.63000000    2.80999994
   13.83583260  113.53500366    0.64999998    2.82999992
   13.83777714  109.52200317    0.64999998    2.80999994
   13.83916664  103.99400330    0.64999998    2.82999992
   13.84249973  108.66899872    0.64999998    2.80999994
   13.84583282  110.05999756    0.64999998    2.80999994
   13.85194492  110.05999756    0.64999998    2.80999994
   13.85611153  118.42099762    0.64999998    2.80999994
   13.85916710  111.55799866    0.64999998    2.80999994
   13.86250019  114.89800262    0.64999998    2.80999994
   13.86555576  118.00099945    0.64999998    2.80999994
   13.86888885  112.95500183    0.64999998    2.80999994
   13.87111092  117.44400024    0.64999998    2.80999994
   13.87250042  109.36299896    0.64999998    2.80999994
   13.87583351  112.23600006    0.64999998    2.80999994
   13.87916660  114.02799988    0.64999998    2.80999994
   13.88222218  114.43299866    0.64999998    2.80999994
   13.88555527  112.59300232    0.64999998    2.80999994
   13.88888836  110.56300354    0.64999998    2.80999994
   13.89472198  110.56300354    0.64999998    2.82999992
   13.89888859  107.80599976    0.64999998    2.80999994
   13.90194416  104.06099701    0.64999998    2.80999994
   13.90444374  105.23600006    0.64999998    2.80999994
   13.90555477  105.48999786    0.64999998    2.80999994
   13.90888882  109.35600281    4.90999985    0.69000000
   13.91222191  101.33799744    0.67000002    2.80999994
   13.91527748  103.46199799    0.64999998    2.82999992
   13.91861153  110.82599640    0.69000000    2.82999992
   13.92194462  103.04199982    0.67000002    2.82999992
   13.92500019  107.64499664    0.67000002    2.82999992
   13.92833328  103.20700073    0.69000000    2.82999992
   13.93138885  107.12000275    0.05000000    2.82999992
   13.93750000  107.12000275    0.67000002    2.82999992
   13.94166660  107.96099854    0.69000000    2.82999992
   13.94499969  116.68399811    0.73000002    2.82999992
   13.94805527  112.62300110    0.01000000    2.82999992
   13.95138836  113.49099731    0.01000000    2.82999992
   13.95472240  115.40200043    0.01000000    2.82999992
   13.95777798  113.93499756    0.03000000    2.82999992
   13.96111107  110.15100098    0.34000000    2.82999992
   13.96444416  114.13999939    0.03000000    2.82999992
   13.96749973  108.51699829    0.30000001    2.82999992
   13.97083282  111.74900055    0.70999998    2.82999992
   13.97249985  110.16899872    0.70999998    2.82999992
   13.97444439  112.93299866    0.70999998    2.82999992
   13.98027706  112.93299866    0.70999998    2.82999992
   13.98444462  107.49800110    0.70999998    2.82999992
   13.98777771  115.82499695    0.70999998    2.82999992
   13.99111176  114.87000275    0.70999998    2.82999992
   13.99416733  108.70600128    0.75000000    2.82999992
   13.99750042  103.88700104    4.65999985    2.84999990
   14.00055599  105.04499817    4.90999985    2.84999990
   14.00388908  104.52600098    4.55999994    2.84999990
   14.00583363  106.18199921    4.42999983    2.84999990
   14.00749969  108.47000122    4.42999983    2.84999990
   14.01083374  106.82099915    4.30999994    2.84999990
   14.01388931  100.81800079    4.36999989    2.82999992
   14.01722240  102.23899841    4.46999979    2.84999990
   14.02333355  102.23899841    4.55999994    2.84999990
   14.02750015  107.91699982    4.40999985    2.84999990
   14.03055573  110.20899963    4.48999977    2.84999990
   14.03388977  108.12699890    4.40999985    2.84999990
   14.03694534  105.19599915    4.44999981    2.84999990
   14.03944492  106.06600189    4.36999989    2.84999990
   14.04083347  109.52500153    4.44999981    2.84999990
   14.04388905  107.18599701    4.48999977    2.86999989
   14.04722309  107.32900238    4.53000021    2.84999990
   14.05055618  102.66699982    4.51000023    2.84999990
   14.05361176  109.04599762    4.53999996    2.84999990
   14.05694485  106.74800110    4.57999992    2.84999990
   14.06027794  105.71600342    4.53999996    2.84999990
   14.06611156  105.71600342    4.53000021    2.84999990
   14.07027817  112.84999847    4.65999985    2.86999989
   14.07277775  107.50800323    4.53999996    2.86999989
   14.07388878  105.94100189    4.59999990    2.86999989
   14.07694435  106.70700073    4.59999990    2.86999989
   14.08027744  110.21399689    4.67999983    2.84999990
   14.08361053  106.09300232    4.65999985    2.84999990
   14.08666611  109.85399628    4.59999990    2.84999990
   14.09000015  102.93599701    4.67999983    2.84999990
   14.09333324   97.73130035    4.61999989    2.84999990
   14.09638882  101.69100189    4.63999987    2.84999990
   14.09972191   99.60929871    4.63999987    2.82999992
   14.10277843  103.36299896    4.63999987    2.84999990
   14.10888958  103.36299896    4.63999987    2.86999989
   14.11305618  103.52200317    4.63999987    2.86999989
   14.11638927  106.31999969    4.69999981    2.86999989
   14.11944485  105.60700226    4.63999987    2.86999989
   14.12277794  105.49099731    4.63999987    2.84999990
   14.12611103  105.30999756    4.61999989    2.84999990
   14.12916660  101.72499847    4.65999985    2.84999990
   14.13249969  103.97000122    4.65999985    2.86999989
   14.13555527  104.46700287    4.78000021    2.86999989
   14.13888836  104.88899994    4.73999977    2.86999989
   14.13972187  110.50399780    4.73999977    2.86999989
   14.14249992  108.66200256    4.80000019    2.86999989
   14.14583302  116.20300293    4.76000023    2.86999989
   14.15166664  116.20300293    4.80000019    2.86999989
   14.15583324  111.15000153    4.73999977    2.84999990
   14.15916634  109.93000031    4.78000021    2.86999989
   14.16249943  112.54499817    4.90999985    2.84999990
   14.16555500  113.70200348    4.86999989    2.86999989
   14.16888905   98.11329651    4.90999985    2.86999989
   14.17194462  103.48100281    4.90999985    2.86999989
   14.17305565  104.08200073    4.90999985    2.84999990
   14.17583370  107.26100159    4.90999985    2.86999989
   14.17916679  106.93499756    4.90999985    2.86999989
   14.18222237  111.82299805    4.90999985    2.86999989
   14.18555546  101.62300110    4.90999985    2.86999989
   14.18888855  111.69300079    4.90999985    2.86999989
   14.19472218  111.69300079    4.90999985    2.86999989
   14.19888878  102.57900238    4.90999985    2.86999989
   14.20194435  103.06900024    4.90999985    2.86999989
   14.20527744  106.65899658    4.90999985    2.86999989
   14.20666695  112.51399994    4.90999985    2.86999989
   14.20888901  110.23300171    4.90999985    2.86999989
   14.21194458  109.84999847    4.90999985    2.86999989
   14.21527767  110.47499847    4.88999987    2.86999989
   14.21861076  106.18499756    4.90999985    2.86999989
   14.22166634  115.30599976    4.90999985    2.86999989
   14.22555542  121.68699646    4.90999985    2.89000010
   14.22888851  112.31199646    4.90999985    2.86999989
   14.23305511  112.45600128    4.90999985    2.84999990
   14.23750019  112.45600128    4.90999985    2.84999990
   14.24166679  113.00099945    0.64999998    2.84999990
   14.24472237  103.75800323    0.58999997    2.86999989
   14.24833393  105.52899933    0.56999999    2.86999989
   14.25138855  106.82299805    0.56999999    2.86999989
   14.25472260  108.29399872    0.56999999    2.86999989
   14.25805569  109.04499817    0.56999999    2.84999990
   14.26111126  102.80899811    0.56999999    2.86999989
   14.26444435  107.01399994    0.55000001    2.86999989
   14.26749992  106.44499969    0.55000001    2.86999989
   14.27111053  102.10900116    0.55000001    2.86999989
   14.27333355  102.50499725    0.52999997    2.86999989
   14.27472210   99.69180298    0.52999997    2.86999989
   14.28027725   99.69180298    0.55000001    2.86999989
   14.28472233  110.86199951    0.55000001    2.86999989
   14.28777790  108.30500031    0.55000001    2.86999989
   14.29111195  114.20300293    0.52999997    2.86999989
   14.29444504  103.38899994    0.55000001    2.84999990
   14.29750061  100.42900085    0.52999997    2.86999989
   14.30083370  111.47000122    0.52999997    2.86999989
   14.30416679  101.81199646    0.55000001    2.86999989
   14.30666733  106.70500183    0.55000001    2.89000010
   14.30777836  107.88200378    0.55000001    2.86999989
   14.31083393  103.20600128    0.55000001    2.86999989
   14.31416702  105.09400177    0.55000001    2.86999989
   14.31750011  100.92900085    0.55000001    2.86999989
   14.32333374  100.92900085    0.55000001    2.86999989
   14.32750034  110.73300171    0.56999999    2.86999989
   14.33055592  108.00700378    0.56999999    2.86999989
   14.33388901   97.01789856    0.58999997    2.86999989
   14.33722210  108.28099823    0.58999997    2.86999989
   14.34000015  103.71199799    0.58999997    2.86999989
   14.34083271  109.01899719    0.58999997    2.86999989
   14.34416676  106.73000336    0.58999997    2.86999989
   14.34722233  113.27999878    0.58999997    2.86999989
   14.35055637  106.47899628    0.58999997    2.86999989
   14.35388947  111.55000305    0.61000001    2.86999989
   14.35694504  111.07199860    0.61000001    2.89000010
   14.36027813  113.05599976    0.61000001    2.86999989
   14.36611176  113.05599976    0.61000001    2.86999989
   14.37027836  109.66600037    0.61000001    2.86999989
   14.37333393  104.57700348    0.63000000    2.86999989
   14.37388897  102.36900330    0.63000000    2.86999989
   14.37722206  105.69699860    0.63000000    2.86999989
   14.38055611  102.27400208    0.61000001    2.86999989
   14.38388920  103.43599701    0.61000001    2.89000010
   14.38694477  101.32099915    0.61000001    2.86999989
   14.39027786  104.19599915    0.61000001    2.89000010
   14.39361095  100.54399872    0.61000001    2.86999989
   14.39666653  104.48000336    0.61000001    2.86999989
   14.39999962  102.34100342    0.61000001    2.86999989
   14.40305519  107.05599976    0.63000000    2.84999990
   14.40888882  107.05599976    0.61000001    2.86999989
   14.41305542  102.10700226    0.61000001    2.86999989
   14.41638851  103.44899750    0.61000001    2.86999989
   14.41944504  109.01999664    0.61000001    2.86999989
   14.42277813  106.30100250    0.61000001    2.86999989
   14.42611122  104.62599945    0.61000001    2.89000010
   14.42916679  103.59400177    0.61000001    2.86999989
   14.43249989  103.58300018    0.61000001    2.86999989
   14.43555546  107.34200287    0.61000001    2.86999989
   14.43888855  106.81400299    0.63000000    2.86999989
   14.44000053  106.13600159    0.63000000    2.86999989
   14.44250011   98.75659943    0.61000001    2.86999989
   14.44583321  106.03399658    0.61000001    2.86999989
   14.45166683  106.03399658    0.63000000    2.86999989
   14.45583344  103.69100189    0.63000000    2.86999989
   14.45916653  101.31400299    0.61000001    2.86999989
   14.46249962   98.14440155    0.63000000    2.86999989
   14.46555519  108.87799835    0.63000000    2.86999989
   14.46888828  101.52600098    0.61000001    2.86999989
   14.47194386  106.35700226    0.63000000    2.86999989
   14.47333336  108.77700043    0.63000000    2.86999989
   14.47555542  108.16699982    0.61000001    2.86999989
   14.47888851  100.23999786    0.63000000    2.86999989
   14.48194408  103.65699768    0.63000000    2.86999989
   14.48527813  104.05999756    0.63000000    2.86999989
   14.48861122  104.66999817    0.63000000    2.86999989
   14.49472237  104.66999817    0.63000000    2.86999989
   14.49888897  104.04599762    0.63000000    2.86999989
   14.50194454  107.25700378    0.64999998    2.86999989
   14.50527763  103.29299927    0.64999998    2.86999989
   14.50694466  103.49800110    0.64999998    2.89000010
   14.50888920  108.12899780    0.64999998    2.86999989
   14.51222229  102.69999695    0.64999998    2.86999989
   14.51527786  104.12699890    0.63000000    2.86999989
   14.51861095  109.15699768    0.64999998    2.89000010
   14.52194405  102.85900116    0.63000000    2.86999989
   14.52499962  107.21800232    0.63000000    2.89000010
   14.52833271  108.10600281    0.63000000    2.86999989
   14.53138828  104.73500061    0.63000000    2.86999989
   14.53750038  104.73500061    0.61000001    2.89000010
   14.55583382  103.52300262    0.61000001    2.89000010
   14.55916691  100.58999634    0.61000001    2.89000010
   14.56222248  106.11799622    0.61000001    2.86999989
   14.56555557  101.01399994    0.61000001    2.89000010
   14.56888866  105.31600189    0.61000001    2.89000010
   14.57194424  103.68199921    0.61000001    2.89000010
   14.57527733  101.22299957    0.63000000    2.89000010
   14.58055592  101.22299957    0.63000000    2.89000010
   14.58472157  137.45399475    0.61000001    2.89000010
   14.58805561  133.11500549    0.61000001    2.86999989
   14.58888817  168.03700256    0.61000001    2.89000010
   14.59166622  143.00199890    0.63000000    2.89000010
   14.59472179  129.47300720    0.61000001    2.86999989
   14.59805489  134.59800720    0.61000001    2.89000010
   14.60138893  139.83799744    0.63000000    2.89000010
   14.60444450  145.43400574    0.63000000    2.89000010
   14.60777855  119.27700043    0.63000000    2.86999989
   14.61111164  127.61599731    0.63000000    2.89000010
   14.61416721  106.39199829    0.63000000    2.89000010
   14.61750031  112.20600128    0.63000000    2.89000010
   14.62333393  112.20600128    0.61000001    2.89000010
   14.62750053  106.71700287    0.61000001    2.86999989
   14.63083363  123.95600128    0.63000000    2.89000010
   14.63416672  139.80099487    0.61000001    2.86999989
   14.63722229  101.06400299    0.61000001    2.89000010
   14.64055538  115.83999634    0.63000000    2.89000010
   14.64388847  111.92400360    0.61000001    2.89000010
   14.64694405   98.38990021    0.61000001    2.89000010
   14.65027714  102.36000061    0.61000001    2.89000010
   14.65361118  106.48100281    0.63000000    2.86999989
   14.65555477  103.02799988    0.63000000    2.89000010
   14.65722179  102.88300323    0.63000000    2.86999989
   14.66055489   99.97720337    0.63000000    2.86999989
   14.66638851   99.97720337    0.61000001    2.89000010
   14.67055607   98.99150085    0.61000001    2.89000010
   14.67361164  103.85900116    0.61000001    2.91000009
   14.67694473  103.23999786    0.63000000    2.89000010
   14.68000031  102.50599670    0.63000000    2.89000010
   14.68333340  102.94300079    0.63000000    2.89000010
   14.68666649  105.26599884    0.63000000    2.89000010
   14.68888855  106.02500153    0.63000000    2.89000010
   14.69027805  102.62300110    0.63000000    2.89000010
   14.69361115  101.00199890    0.61000001    2.89000010
   14.69666672  101.86699677    0.63000000    2.89000010
   14.69999981  107.33200073    0.61000001    2.89000010
   14.70305538  100.23300171    0.61000001    2.89000010
   14.70916653  100.23300171    0.61000001    2.89000010
   14.71333313  111.36299896    0.58999997    2.89000010
   14.71666622  100.30300140    0.58999997    2.89000010
   14.71972179  107.32499695    0.56999999    2.91000009
   14.72222137  104.31099701    0.58999997    2.89000010
   14.72333336  105.55000305    0.58999997    2.89000010
   14.72666645  104.08699799    0.58999997    2.89000010
   14.72972202  106.87899780    0.58999997    2.86999989
   14.73305511   99.93569946    0.58999997    2.89000010
   14.73611164  107.66100311    0.58999997    2.89000010
   14.73944473   97.45379639    0.58999997    2.89000010
   14.74277782  104.59500122    0.58999997    2.89000010
   14.74583340  101.27500153    0.61000001    2.89000010
   14.75194454  101.27500153    0.61000001    2.89000010
   14.75611115   96.48439789    0.61000001    2.91000009
   14.75944424  109.38800049    0.61000001    2.89000010
   14.76249981  102.64099884    0.61000001    2.89000010
   14.76583290  107.72499847    0.61000001    2.89000010
   14.76916599  106.84999847    0.61000001    2.89000010
   14.77222157  102.60099792    0.61000001    2.89000010
   14.77555561  105.41999817    0.61000001    2.89000010
   14.77861118  103.81999969    0.58999997    2.89000010
   14.78194427  103.96600342    0.61000001    2.91000009
   14.78527832  103.88800049    0.58999997    2.91000009
   14.78833389  107.79499817    0.58999997    2.91000009
   14.78888893  109.62699890    0.58999997    2.91000009
   14.79472256  109.62699890    0.58999997    2.91000009
   14.79888916  105.22599792    0.58999997    2.89000010
   14.80222225  105.15599823    0.58999997    2.89000010
   14.80555534   98.81990051    0.58999997    2.89000010
   14.80861092  104.56800079    0.58999997    2.89000010
   14.81194496  102.14499664    0.58999997    2.89000010
   14.81527805  100.29900360    0.61000001    2.89000010
   14.81833363   96.85399628    0.58999997    2.91000009
   14.82166672  106.93900299    0.61000001    2.91000009
   14.82222176   99.69689941    0.58999997    2.89000010
   14.82527733   99.52179718    0.58999997    2.91000009
   14.82861137  100.98600006    0.61000001    2.89000010
   14.83166695  104.06900024    0.61000001    2.89000010
   14.83777714  104.06900024    0.58999997    2.89000010
   14.84166622  103.79900360    0.61000001    2.89000010
   14.84499931  106.19400024    0.58999997    2.89000010
   14.84833336  103.01799774    0.58999997    2.89000010
   14.85138893  100.69799805    0.61000001    2.91000009
   14.85472298   97.84559631    0.58999997    2.89000010
   14.85555553   97.24569702    0.58999997    2.89000010
   14.85833359  105.80799866    0.58999997    2.89000010
   14.86166668  104.01699829    0.61000001    2.91000009
   14.86472225  109.16999817    0.58999997    2.86999989
   14.86805534  111.91100311    0.58999997    2.89000010
   14.87138939  103.85099792    0.58999997    2.89000010
   14.87472248  100.57499695    0.58999997    2.91000009
   14.88055611  100.57499695    0.58999997    2.91000009
   14.88472176   96.42710114    0.56999999    2.91000009
   14.88777733  103.52100372    0.56999999    2.89000010
   14.88888836  102.89800262    0.58999997    2.89000010
   14.89138889   99.21759796    0.58999997    2.91000009
   14.89472198  106.48699951    0.56999999    2.91000009
   14.89777756   98.34159851    0.56999999    2.91000009
   14.90111065  100.13500214    0.56999999    2.91000009
   14.90444374  105.58499908    0.56999999    2.89000010
   14.90749931  103.91899872    0.56999999    2.89000010
   14.91083336   96.92870331    0.56999999    2.91000009
   14.91416645  106.94400024    0.56999999    2.91000009
   14.91722298   98.35720062    0.56999999    2.89000010
   14.92333412   98.35720062    0.58999997    2.91000009
   14.92750072  107.22399902    0.56999999    2.91000009
   14.93083382  107.03800201    0.56999999    2.91000009
   14.93388939  100.47799683    0.58999997    2.89000010
   14.93722248   96.40989685    0.58999997    2.91000009
   14.94027805  102.08699799    0.56999999    2.91000009
   14.94361115  105.00700378    0.56999999    2.91000009
   14.94694424  103.99299622    0.56999999    2.86999989
   14.94999981  100.29299927    0.56999999    2.91000009
   14.95333290  105.27200317    0.56999999    2.91000009
   14.95555496   99.36209869    0.56999999    2.91000009
   14.95694447  100.88500214    0.56999999    2.91000009
   14.96027756  109.95099640    0.56999999    2.89000010
   14.96611118  109.95099640    0.56999999    2.91000009
   14.97027779  104.00700378    0.56999999    2.91000009
   14.97361088  109.89600372    0.56999999    2.91000009
   14.97666645  102.14199829    0.55000001    2.91000009
   14.97999954  105.71399689    0.56999999    2.91000009
   14.98333359   99.21109772    0.56999999    2.91000009
   14.98638916  107.23799896    0.56999999    2.91000009
   14.98916721  108.99500275    0.55000001    2.91000009
   14.99000072  109.27700043    0.55000001    2.91000009
   14.99333382  100.29900360    0.55000001    2.91000009
   14.99666691  105.68199921    0.55000001    2.91000009
   14.99972248   99.58920288    0.56999999    2.89000010
   15.00305557  101.31099701    0.55000001    2.89000010
   15.00916672  101.31099701    0.55000001    2.91000009
   15.01305580   98.05139923    0.55000001    2.91000009
   15.01638889   97.58249664    0.56999999    2.91000009
   15.01972198   97.61139679    0.55000001    2.91000009
   15.02250004   93.93070221    0.55000001    2.91000009
   15.02333355   99.18849945    0.55000001    2.91000009
   15.02666664   99.83630371    0.55000001    2.89000010
   15.02972221  100.50299835    0.55000001    2.93000007
   15.03305531  101.25800323    0.55000001    2.91000009
   15.03638935   98.06909943    0.55000001    2.91000009
   15.03944492  102.50399780    0.56999999    2.91000009
   15.04277802   98.92430115    0.56999999    2.91000009
   15.04611111  100.26999664    0.56999999    2.91000009
   15.05194473  100.26999664    0.56999999    2.91000009
   15.05611134  105.42700195    0.56999999    2.91000009
   15.05916691  104.21800232    0.55000001    2.91000009
   15.06250000  101.34600067    0.55000001    2.93000007
   15.06583309  100.98899841    0.55000001    2.93000007
   15.06888866  101.09300232    0.55000001    2.91000009
   15.07222176  105.08799744    0.52999997    2.93000007
   15.07555580   97.99019623    0.52999997    2.91000009
   15.07861137  105.71800232    0.52999997    2.91000009
   15.08194447  104.66100311    0.55000001    2.91000009
   15.08527756  109.81500244    0.55000001    2.91000009
   15.08833313   99.05950165    0.55000001    2.91000009
   15.08916664   90.42220306    0.55000001    2.91000009
   15.09472179   90.42220306    0.55000001    2.91000009
   15.09888840  106.05000305    0.55000001    2.93000007
   15.10194492  100.21099854    0.55000001    2.91000009
   15.10527802  104.15799713    0.55000001    2.91000009
   15.10861111  102.22299957    0.55000001    2.91000009
   15.11166668  102.93599701    0.55000001    2.91000009
   15.11500072  105.11100006    0.55000001    2.93000007
   15.11833382  109.74500275    0.55000001    2.91000009
   15.12138939  104.89399719    0.55000001    2.93000007
   15.12250042  104.86799622    0.55000001    2.91000009
   15.12500000  102.56800079    0.55000001    2.91000009
   15.12833309   97.91670227    0.55000001    2.91000009
   15.13138866   98.41739655    0.52999997    2.91000009
   15.13749981   98.41739655    0.55000001    2.91000009
   15.14166641  102.94499969    0.52999997    2.91000009
   15.14499950  102.33000183    0.55000001    2.91000009
   15.14805508  102.44000244    0.55000001    2.91000009
   15.15138817  105.16300201    0.55000001    2.91000009
   15.15472221  101.89499664    0.55000001    2.91000009
   15.15583324  102.92299652    0.56999999    2.91000009
   15.15833282  108.51599884    0.56999999    2.91000009
   15.16166592  105.18099976    0.56999999    2.91000009
   15.16472149  107.70999908    0.58999997    2.91000009
   15.16805553  101.64800262    0.58999997    2.93000007
   15.17138958   99.70120239    0.58999997    2.91000009
   15.17444515  102.61000061    0.58999997    2.91000009
   15.18027782  102.61000061    0.58999997    2.91000009
   15.18444443  104.26100159    0.56999999    2.91000009
   15.18777752  102.36799622    0.56999999    2.91000009
   15.18916702   95.77310181    0.58999997    2.91000009
   15.19138908   98.88710022    0.58999997    2.91000009
   15.19472218  102.93599701    0.56999999    2.91000009
   15.19777775   95.33429718    0.58999997    2.91000009
   15.20111084  100.33499908    0.58999997    2.91000009
   15.20444393   99.25209808    0.58999997    2.91000009
   15.20749950   95.06939697    0.58999997    2.91000009
   15.21083355  100.86399841    0.58999997    2.93000007
   15.21416664  104.70999908    0.58999997    2.91000009
   15.21722221  102.55200195    0.58999997    2.93000007
   15.22333336  102.55200195    0.58999997    2.91000009
   15.22749996  106.90599823    0.58999997    2.91000009
   15.23055553  103.35500336    0.58999997    2.91000009
   15.23388958  100.46800232    0.58999997    2.91000009
   15.23694515   98.82129669    0.58999997    2.91000009
   15.24027824  112.90599823    0.58999997    2.91000009
   15.24361134   99.81860352    0.58999997    2.91000009
   15.24666691  102.68000031    0.58999997    2.91000009
   15.25000000  103.31999969    0.58999997    2.93000007
   15.25333309  101.48500061    0.58999997    2.91000009
   15.25583363  103.66799927    0.58999997    2.91000009
   15.25694466  103.72499847    0.58999997    2.91000009
   15.26027775  104.51999664    0.56999999    2.93000007
   15.26611137  104.51999664    0.56999999    2.91000009
   15.27027798  106.56999969    0.56999999    2.91000009
   15.27361107  100.75000000    0.56999999    2.93000007
   15.27666664   97.78990173    0.56999999    2.91000009
   15.27999973   98.44110107    0.56999999    2.93000007
   15.28305531  102.43399811    0.56999999    2.93000007
   15.28638935  101.83000183    0.56999999    2.93000007
   15.28916740   95.79000092    0.56999999    2.91000009
   15.29000092   93.80300140    0.56999999    2.91000009
   15.29333401   97.09120178    0.56999999    2.91000009
   15.29666710   92.89230347    0.56999999    2.91000009
   15.29972267   95.64189911    0.56999999    2.91000009
   15.30305576   91.92369843    0.56999999    2.93000007
   15.30888939   91.92369843    0.56999999    2.93000007
   15.31305599   96.85389709    0.56999999    2.93000007
   15.31638908  105.53500366    0.56999999    2.91000009
   15.31944466  101.48999786    0.56999999    2.93000007
   15.32250023   99.69409943    0.56999999    2.93000007
   15.32305527  106.60500336    0.56999999    2.93000007
   15.32638836  104.17099762    0.56999999    2.91000009
   15.32972240  101.87699890    0.56999999    2.93000007
   15.33277798  109.22499847    0.56999999    2.93000007
   15.33611107  103.59500122    0.56999999    2.93000007
   15.33916664  108.62599945    0.56999999    2.93000007
   15.34249973  103.40399933    0.56999999    2.91000009
   15.34583282   99.47589874    0.56999999    2.93000007
   15.35166740   99.47589874    0.55000001    2.91000009
   15.35583401   99.39949799    4.90999985    2.94000006
   15.35916710   94.84140015    0.11000000    0.83999997
   15.36250019   95.74770355    0.05000000    0.50000000
   15.36555576   97.02449799    0.03000000    0.19000000
   15.36888885  100.80500031    0.03000000    0.05000000
   15.37194443   96.19360352    0.03000000    0.05000000
   15.37527752  102.09500122    0.03000000    0.05000000
   15.37861156   89.88189697    0.03000000    0.05000000
   15.38166714  103.83399963    0.03000000    0.05000000
   15.38500023  104.17600250    0.03000000    0.05000000
   15.38833332  104.57499695    0.03000000    0.05000000
   15.38916683  101.45899963    0.03000000    0.05000000
   15.39472198  101.45899963    0.03000000    0.05000000
   15.39888859  103.35199738    0.03000000    0.05000000
   15.40194416  101.13099670    0.03000000    0.05000000
   15.40527725   97.92089844    0.03000000    0.05000000
   15.40833282   99.33239746    0.03000000    0.05000000
