    HOUR (UT)   FLARE FACTOR    SKY TESTER    SUN TESTER
   11.81194496   -1.00000000   -1.00000000   -1.00000000
   11.86500072  230.01199341    4.90999985    1.94000006
   11.86833382  206.40899658    4.90999985    1.94000006
   11.87166691  240.21200562    4.90999985    1.96000004
   11.87472248  202.66299438    4.90999985    1.96000004
   11.87805557  187.22200012    4.90999985    1.96000004
   11.88111115  213.31399536    4.90999985    1.96000004
   11.88527775  213.31399536    4.90999985    1.96000004
   11.88944435  232.77099609    4.90999985    1.96000004
   11.89277744  216.73399353    4.90999985    1.96000004
   11.89583302  212.08000183    4.90999985    1.96000004
   11.89833355  204.80400085    4.90999985    1.96000004
   11.89972210  226.40800476    4.90999985    1.96000004
   11.90277767  227.38400269    4.90999985    1.98000002
   11.90611076  268.92498779    4.90999985    1.98000002
   11.90944386  214.26300049    4.90999985    1.98000002
   11.91249943  216.05299377    4.90999985    1.98000002
   11.91583252  211.66099548    4.90999985    1.98000002
   11.91916656  217.79699707    4.90999985    2.00000000
   11.92222214  196.34500122    4.90999985    2.00000000
   11.92833328  196.34500122    4.90999985    2.00000000
   11.93222237  182.45100403    4.90999985    2.00000000
   11.93555546  179.87500000    4.90999985    2.00000000
   11.93888855  187.77499390    4.90999985    2.00000000
   11.94194412  196.28399658    4.90999985    2.00000000
   11.94527817  180.57400513    4.90999985    2.00000000
   11.94861126  166.57099915    4.90999985    2.01999998
   11.95166683  178.87699890    4.90999985    2.01999998
   11.95499992  170.44799805    4.90999985    2.00000000
   11.95805550  174.50399780    4.90999985    2.01999998
   11.96138859  190.60899353    4.90999985    2.01999998
   11.96472168  175.64900208    4.90999985    2.01999998
   11.96527767  164.84199524    4.90999985    2.01999998
   11.97111034  164.84199524    4.90999985    2.01999998
   11.97527695  173.14300537    4.90999985    2.01999998
   11.97833252  175.07699585    4.90999985    2.03999996
   11.98166656  172.04800415    4.90999985    2.03999996
   11.98500061  170.49099731    4.90999985    2.03999996
   11.98805618  169.94299316    4.90999985    2.03999996
   11.99138927  167.20399475    4.90999985    2.03999996
   11.99444485  169.98500061    4.90999985    2.03999996
   11.99777794  174.80999756    4.90999985    2.05999994
   11.99861145  198.89599609    4.90999985    2.03999996
   12.00138855  180.59199524    4.90999985    2.05999994
   12.00472260  196.56100464    4.90999985    2.05999994
   12.00777817  195.07099915    4.90999985    2.05999994
   12.01388931  195.07099915    4.90999985    2.05999994
   12.01805496  181.73199463    4.90999985    2.05999994
   12.02138901  162.39900208    4.90999985    2.05999994
   12.02444458  203.00799561    4.90999985    2.05999994
   12.02777767  193.11500549    4.90999985    2.05999994
   12.03083324  168.84500122    4.90999985    2.07999992
   12.03194427  190.93299866    4.90999985    2.07999992
   12.03444481  163.85800171    4.90999985    2.07999992
   12.03777790  168.83299255    4.90999985    2.07999992
   12.04111195  163.69099426    4.90999985    2.07999992
   12.04416752  177.84599304    4.90999985    2.07999992
   12.04750061  183.37500000    4.90999985    2.07999992
   12.05055618  181.86799622    4.90999985    2.09999990
   12.05666733  181.86799622    4.90999985    2.07999992
   12.06083393  164.54200745    4.90999985    2.07999992
   12.06416702  165.12199402    4.90999985    2.07999992
   12.06527805  173.85699463    4.90999985    2.07999992
   12.06777763  169.38699341    4.90999985    2.07999992
   12.07111073  170.32899475    4.90999985    2.07999992
   12.07444477  165.82400513    4.90999985    2.07999992
   12.07750034  174.18400574    4.90999985    2.07999992
   12.08083344  168.77200317    4.90999985    2.07999992
   12.08416653  179.84300232    4.90999985    2.09999990
   12.08722210  155.49699402    4.90999985    2.09999990
   12.09055519  169.14900208    4.90999985    2.09999990
   12.09361076  162.98199463    4.90999985    2.09999990
   12.09972191  162.98199463    4.90999985    2.09999990
   12.10361195  168.67599487    4.90999985    2.09999990
   12.10694504  164.72099304    4.90999985    2.09999990
   12.11027813  173.41499329    4.90999985    2.09999990
   12.11333370  164.19799805    4.90999985    2.09999990
   12.11666679  170.05400085    4.90999985    2.09999990
   12.11999989  167.46299744    4.90999985    2.11999989
   12.12305546  165.10600281    4.90999985    2.11999989
   12.12638855  156.02799988    4.90999985    2.11999989
   12.12944412  153.97300720    4.90999985    2.11999989
   12.13194466  169.53700256    4.90999985    2.11999989
   12.13305569  169.36799622    4.90999985    2.11999989
   12.13638878  164.58000183    4.90999985    2.11999989
   12.14249992  164.58000183    4.90999985    2.11999989
   12.14666653  169.56399536    4.90999985    2.11999989
   12.14972210  164.12600708    4.90999985    2.11999989
   12.15305519  146.23300171    4.90999985    2.13000011
   12.15638828  155.57200623    4.90999985    2.13000011
   12.15944386  158.10600281    4.90999985    2.13000011
   12.16277695  153.31799316    4.90999985    2.13000011
   12.16527748  173.50500488    4.90999985    2.13000011
   12.16638851  170.32400513    4.90999985    2.13000011
   12.16972256  156.99499512    4.90999985    2.13000011
   12.17277813  153.75700378    4.90999985    2.13000011
   12.17611122  166.09100342    4.90999985    2.13000011
   12.17944431  164.55200195    4.90999985    2.13000011
   12.18527794  164.55200195    4.90999985    2.13000011
   12.18944454  161.68499756    4.90999985    2.13000011
   12.19277763  162.37699890    4.90999985    2.15000010
   12.19583321  163.34899902    4.90999985    2.15000010
   12.19861126  171.54200745    4.90999985    2.15000010
   12.19944477  151.35000610    4.90999985    2.15000010
   12.20277786  164.09500122    4.90999985    2.15000010
   12.20611095  160.95799255    4.90999985    2.15000010
   12.20916653  155.94599915    4.90999985    2.15000010
   12.21249962  156.45399475    4.90999985    2.15000010
   12.21555519  161.68699646    4.90999985    2.15000010
   12.21888828  155.39599609    4.90999985    2.15000010
   12.22222137  156.72599792    4.90999985    2.17000008
   12.22805500  156.72599792    4.90999985    2.17000008
   12.23222160  168.03700256    4.90999985    2.17000008
   12.23555565  162.81399536    4.90999985    2.17000008
   12.23861122  157.10099792    4.90999985    2.17000008
   12.24194431  154.68299866    4.90999985    2.17000008
   12.24527836  168.26499939    4.90999985    2.17000008
   12.24833393  169.68400574    4.90999985    2.17000008
   12.25166702  164.29499817    4.90999985    2.17000008
   12.25500011  176.51800537    4.90999985    2.17000008
   12.25805569  162.00900269    4.90999985    2.17000008
   12.26138878  158.06199646    4.90999985    2.17000008
   12.26472187  170.28100586    4.90999985    2.17000008
   12.26527786  160.39700317    4.90999985    2.17000008
   12.27111053  160.39700317    4.90999985    2.19000006
   12.27499962  158.31300354    4.90999985    2.19000006
   12.27833271  149.41799927    4.90999985    2.19000006
   12.28166676  154.71299744    4.90999985    2.19000006
   12.28472233  147.59700012    4.90999985    2.19000006
   12.28805637  145.94799805    4.90999985    2.19000006
   12.29111195  155.81599426    4.90999985    2.19000006
   12.29444504  161.47500610    4.90999985    2.19000006
   12.29777813  162.03100586    4.90999985    2.21000004
   12.29861164  162.90699768    4.90999985    2.19000006
   12.30111122  147.44299316    4.90999985    2.21000004
   12.30444431  150.14199829    4.90999985    2.21000004
   12.30777836  150.80999756    4.90999985    2.19000006
   12.31388950  150.80999756    4.90999985    2.19000006
   12.31805515  166.95899963    4.90999985    2.21000004
   12.32111073  167.30999756    4.90999985    2.19000006
   12.32444477  172.01600647    4.90999985    2.21000004
   12.32777786  155.99800110    4.90999985    2.19000006
   12.33083344  170.50799561    4.90999985    2.21000004
   12.33194447  170.66600037    4.90999985    2.21000004
   12.33472157  155.22300720    4.90999985    2.21000004
   12.33777714  174.43499756    4.90999985    2.21000004
   12.34111118  177.11000061    4.90999985    2.21000004
   12.34416676  169.35099792    4.90999985    2.23000002
   12.34749985  174.94500732    4.90999985    2.21000004
   12.35083389  152.31300354    4.90999985    2.21000004
   12.35666752  152.31300354    4.90999985    2.21000004
   12.36083412  163.99000549    4.88999987    2.23000002
   12.36416721  149.85200500    4.88999987    2.23000002
   12.36527824  165.81199646    4.88999987    2.23000002
   12.36750031  163.56100464    4.88999987    2.23000002
   12.37083340  155.56399536    4.88999987    2.23000002
   12.37416649  175.63699341    4.88999987    2.23000002
   12.37722206  153.59599304    4.86999989    2.23000002
   12.38055611  179.54100037    4.86999989    2.23000002
   12.38388920  165.64900208    4.86999989    2.23000002
   12.38694477  181.13000488    4.86999989    2.23000002
   12.39027786  160.53399658    4.86999989    2.23000002
   12.39333344  158.91600037    4.84999990    2.23000002
   12.39944458  158.91600037    4.82999992    2.25000000
   12.40361118  156.39199829    4.82999992    2.23000002
   12.40694427  154.16099548    4.80999994    2.25000000
   12.40999985  177.25799561    4.82999992    2.25000000
   12.41333294  168.07800293    4.82999992    2.25000000
   12.41666698  162.92399597    4.82999992    2.25000000
   12.42000008  175.28300476    4.80999994    2.25000000
   12.42305565  179.85400391    4.80999994    2.25000000
   12.42638874  168.71000671    4.80999994    2.25000000
   12.42944431  171.32400513    4.80000019    2.25000000
   12.43194485  173.05000305    4.80000019    2.25000000
   12.43305588  182.55900574    4.80000019    2.25000000
   12.43638897  179.87800598    4.80000019    2.25000000
   12.44250011  179.87800598    4.80000019    2.25000000
   12.44638920  178.14300537    4.80000019    2.25000000
   12.44972229  175.71800232    4.80000019    2.25000000
   12.45305538  175.04400635    4.78000021    2.25000000
   12.45611095  175.92399597    4.78000021    2.26999998
   12.45944405  178.76600647    4.76000023    2.25000000
   12.46277714  182.59300232    4.76000023    2.26999998
   12.46527767  175.87899780    4.76000023    2.26999998
   12.46611118  180.86300659    4.76000023    2.26999998
   12.46944427  162.58700562    4.73999977    2.25000000
   12.47277737  166.61799622    4.73999977    2.26999998
   12.47583294  168.75500488    4.71999979    2.26999998
   12.47916603  165.73500061    4.71999979    2.26999998
   12.48527813  165.73500061    4.71999979    2.26999998
   12.48944473  159.96299744    4.69999981    2.26999998
   12.49250031  152.79499817    4.69999981    2.26999998
   12.49583340  160.79499817    4.67999983    2.26999998
   12.49861145  161.36300659    4.67999983    2.26999998
   12.49944496  153.59100342    4.67999983    2.26999998
   12.50277805  162.63400269    4.67999983    2.26999998
   12.50611115  155.77999878    4.67999983    2.28999996
   12.50916672  164.82600403    4.65999985    2.26999998
   12.51249981  159.87300110    4.65999985    2.28999996
   12.51583290  154.04400635    4.65999985    2.28999996
   12.51888847  157.18499756    4.65999985    2.28999996
   12.52222157  156.00199890    4.65999985    2.28999996
   12.52805519  156.00199890    4.63999987    2.28999996
   12.53222179  161.11500549    4.63999987    2.28999996
   12.53555584  149.35600281    4.63999987    2.28999996
   12.53861141  155.64900208    4.63999987    2.28999996
   12.54194450  154.63200378    4.63999987    2.28999996
   12.54500008  159.22399902    4.63999987    2.28999996
   12.54833412  148.49099731    4.63999987    2.28999996
   12.55166721  150.32200623    4.63999987    2.28999996
   12.55472279  153.96400452    4.63999987    2.28999996
   12.55805588  160.66200256    4.63999987    2.28999996
   12.56138897  163.00300598    4.63999987    2.30999994
   12.56444454  146.63200378    4.63999987    2.28999996
   12.56527805  156.01800537    4.61999989    2.28999996
   12.57083321  156.01800537    4.61999989    2.30999994
   12.57499981  157.46899414    4.61999989    2.30999994
   12.57833290  157.23800659    4.61999989    2.30999994
   12.58138847  150.49400330    4.59999990    2.30999994
   12.58472157  149.55200195    4.59999990    2.30999994
   12.58805561  152.43699646    4.59999990    2.30999994
   12.59111118  154.11700439    4.59999990    2.30999994
   12.59444427  170.89399719    4.59999990    2.30999994
   12.59777737  161.88400269    4.59999990    2.30999994
   12.59861088  153.83399963    4.59999990    2.30999994
   12.60138893  153.54699707    4.59999990    2.30999994
   12.60444450  145.67300415    4.59999990    2.30999994
   12.60777855  147.77000427    4.57999992    2.30999994
   12.61388969  147.77000427    4.57999992    2.30999994
   12.61777782  157.19799805    4.57999992    2.32999992
   12.62111092  158.51600647    4.57999992    2.30999994
   12.62444496  161.83999634    4.57999992    2.30999994
   12.62750053  166.42700195    4.57999992    2.30999994
   12.63083363  154.25000000    4.57999992    2.32999992
   12.63194466  152.23899841    4.55999994    2.32999992
   12.63444424  149.18699646    4.57999992    2.30999994
   12.63749981  155.05000305    4.55999994    2.32999992
   12.64083290  153.56300354    4.55999994    2.30999994
   12.64388847  148.33399963    4.55999994    2.32999992
   12.64722252  156.63800049    4.53999996    2.32999992
   12.65055561  147.22300720    4.55999994    2.32999992
   12.65666676  147.22300720    4.53999996    2.32999992
   12.66083336  150.98300171    4.53999996    2.32999992
   12.66388893  152.09899902    4.53999996    2.32999992
   12.66527748  146.96400452    4.53999996    2.32999992
   12.66777802  152.41499329    4.53999996    2.32999992
   12.67083359  157.29400635    4.53999996    2.32999992
   12.67416668  160.55599976    4.53000021    2.32999992
   12.67750072  154.89399719    4.53000021    2.32999992
   12.68055630  152.54800415    4.53000021    2.32999992
   12.68388939  150.35800171    4.53000021    2.34999990
   12.68694496  167.35099792    4.51000023    2.34999990
   12.69027805  153.25399780    4.51000023    2.32999992
   12.69361115  152.35000610    4.51000023    2.34999990
   12.69944477  152.35000610    4.48999977    2.34999990
   12.70361137  152.83999634    4.48999977    2.34999990
   12.70694447  153.60899353    4.48999977    2.34999990
   12.71000004  148.07800293    4.48999977    2.34999990
   12.71333313  148.03999329    4.46999979    2.34999990
   12.71638870  151.01699829    4.46999979    2.34999990
   12.71972179  157.65299988    4.46999979    2.34999990
   12.72305489  157.57099915    4.48999977    2.34999990
   12.72611046  159.82800293    4.46999979    2.36999989
   12.72944355  164.49600220    4.46999979    2.34999990
   12.73194408  167.58799744    4.46999979    2.34999990
   12.73305511  155.35099792    4.46999979    2.34999990
   12.73611164  157.98199463    4.46999979    2.34999990
   12.74222279  157.98199463    4.46999979    2.34999990
   12.74638939  150.10600281    4.46999979    2.34999990
   12.74972248  152.37699890    4.46999979    2.34999990
   12.75277805  152.98500061    4.46999979    2.36999989
   12.75611115  152.21499634    4.44999981    2.36999989
   12.75944424  150.50000000    4.44999981    2.36999989
   12.76249981  156.10800171    4.44999981    2.36999989
   12.76527786  151.23800659    4.44999981    2.36999989
   12.76638889  144.84700012    4.42999983    2.34999990
   12.76944447  153.92799377    4.42999983    2.36999989
   12.77277756  152.40499878    4.42999983    2.36999989
   12.77583313  156.22099304    4.42999983    2.36999989
   12.77916622  154.19700623    4.42999983    2.36999989
   12.78527832  154.19700623    4.40999985    2.36999989
   12.78916740  150.78199768    4.40999985    2.36999989
   12.79250050  156.41700745    4.40999985    2.36999989
   12.79583359  146.31399536    4.40999985    2.34999990
   12.79861164  157.10800171    4.38999987    2.36999989
   12.79944515  153.36999512    4.38999987    2.36999989
   12.80249977  166.21400452    4.36999989    2.39000010
   12.80583382  159.50900269    4.36999989    2.34999990
   12.80888939  153.93899536    4.36999989    2.36999989
   12.81222248  154.75700378    4.38999987    2.39000010
   12.81555557  172.34800720    4.36999989    2.36999989
   12.81861115  162.10499573    4.36999989    2.39000010
   12.82194424  161.25700378    4.34999990    2.39000010
   12.82805538  161.25700378    4.34999990    2.39000010
   12.83222198  154.20799255    4.32999992    2.39000010
   12.83527756  160.14700317    4.32999992    2.39000010
   12.83861065  151.95500183    4.30999994    2.39000010
   12.84194374  152.00100708    4.28999996    2.39000010
   12.84499931  155.64399719    4.30999994    2.39000010
   12.84833336  151.61999512    4.30999994    2.39000010
   12.85166740  157.28599548    4.30999994    2.39000010
   12.85472298  153.19099426    4.30999994    2.40000010
   12.85805607  155.66900635    4.30999994    2.39000010
   12.86111164  157.85099792    4.28999996    2.40000010
   12.86444473  147.07600403    4.30999994    2.39000010
   12.86527824  150.74200439    4.30999994    2.39000010
   12.88583279  150.74200439    4.26000023    2.39000010
   12.89000034  154.22799683    4.26000023    2.40000010
   12.89333344  153.31300354    4.26000023    2.40000010
   12.89638901  160.17799377    4.23999977    2.39000010
   12.89861107  149.07899475    4.23999977    2.40000010
   12.90027714  150.26300049    4.26000023    2.40000010
   12.90333271  151.82800293    4.23999977    2.40000010
   12.90666676  152.45399475    4.21999979    2.40000010
   12.90999985  162.86999512    4.23999977    2.39000010
   12.91305542  156.04299927    4.21999979    2.40000010
   12.91638851  159.86000061    4.19999981    2.40000010
   12.91944504  160.19400024    4.19999981    2.40000010
   12.92277813  159.79800415    4.19999981    2.40000010
   12.92861176  159.79800415    4.17999983    2.40000010
   12.93277836  160.34700012    4.17999983    2.40000010
   12.93611145  149.02099609    4.17999983    2.40000010
   12.93916702  156.56599426    4.15999985    2.40000010
   12.94250011  153.54100037    4.15999985    2.40000010
   12.94583321  140.09199524    4.13999987    2.40000010
   12.94888878  147.58299255    4.13999987    2.42000008
   12.95222187  148.73300171    4.13999987    2.40000010
   12.95527744  151.92300415    4.11999989    2.42000008
   12.95861053  147.72399902    4.13999987    2.40000010
   12.96194458  150.97599792    4.09999990    2.42000008
   12.96500015  151.19099426    4.07999992    2.40000010
   12.96555519  143.90800476    4.07999992    2.40000010
   12.97138882  143.90800476    4.07999992    2.42000008
   12.97555542  152.38400269    4.05999994    2.42000008
   12.97888851  145.44700623    4.05999994    2.42000008
   12.98222160  165.82600403    4.05999994    2.42000008
   12.98527813  150.62399292    4.05999994    2.42000008
   12.98861122  152.54400635    4.05999994    2.42000008
   12.99194431  163.47500610    4.05999994    2.42000008
   12.99499989  158.38699341    4.05999994    2.42000008
   12.99833393  151.96699524    4.05999994    2.42000008
   12.99888897  158.89399719    4.05999994    2.42000008
   13.00194454  157.51400757    4.03999996    2.44000006
   13.00500011  151.64999390    4.03999996    2.42000008
   13.00833321  157.49800110    4.03999996    2.42000008
   13.01444435  157.49800110    4.01999998    2.42000008
   13.01861095  154.14500427    4.01999998    2.42000008
   13.02166653  146.52600098    4.00000000    2.42000008
   13.02499962  150.87399292    4.01999998    2.42000008
   13.02805519  148.54699707    4.32999992    2.46000004
   13.03138828  150.66200256    4.32999992    2.46000004
   13.03222179  150.68299866    4.30999994    2.46000004
   13.03500080  151.59100342    4.28999996    2.44000006
   13.03805637  150.99800110    4.28999996    2.46000004
   13.04138947  147.36500549    4.30999994    2.44000006
   13.04472256  148.68699646    4.30999994    2.46000004
   13.04777813  146.04400635    4.26999998    2.46000004
   13.05111122  152.63299561    4.26000023    2.46000004
   13.05722237  152.63299561    4.26999998    2.48000002
   13.06138897  143.24899292    4.23999977    2.46000004
   13.06444454  140.68600464    4.21999979    2.46000004
   13.06555557  137.01800537    4.21999979    2.46000004
   13.06833363  150.02799988    4.23999977    2.46000004
   13.07166672  141.99600220    4.23999977    2.46000004
   13.07472229  142.16900635    4.23999977    2.46000004
   13.07805538  146.24299622    4.23999977    2.46000004
   13.08111095  138.07499695    4.19999981    2.46000004
   13.08444405  144.07800293    4.21999979    2.46000004
   13.08777714  151.69400024    4.19999981    2.48000002
   13.09083271  140.20199585    4.19999981    2.46000004
   13.09416676  136.12100220    4.19999981    2.46000004
   13.10000038  136.12100220    4.17999983    2.48000002
   13.10416698  142.23500061    4.17999983    2.48000002
   13.10750008  150.44700623    4.15999985    2.48000002
   13.11055565  143.98500061    4.15999985    2.48000002
   13.11388969  140.57899475    4.17999983    2.46000004
   13.11722279  146.86300659    4.15999985    2.48000002
   13.12027836  148.65600586    4.17999983    2.46000004
   13.12361145  145.41499329    4.15999985    2.48000002
   13.12666702  139.65199280    4.13999987    2.46000004
   13.13000011  150.56100464    4.13999987    2.46000004
   13.13222218  153.88699341    4.13999987    2.48000002
   13.13361073  146.53100586    4.11999989    2.46000004
   13.13694477  152.50300598    4.11999989    2.50000000
   13.14277744  152.50300598    4.11999989    2.48000002
   13.14694405  141.81900024    4.11999989    2.48000002
   13.15027714  145.48100281    4.09999990    2.48000002
   13.15333271  144.62699890    4.11999989    2.48000002
   13.15666676  143.28300476    4.09999990    2.48000002
   13.15999985  146.24099731    4.09999990    2.46000004
   13.16305542  154.79400635    4.11999989    2.48000002
   13.16555500  140.60800171    4.11999989    2.48000002
   13.16666698  158.26300049    4.11999989    2.48000002
   13.17000008  141.64700317    4.09999990    2.48000002
   13.17305565  135.36700439    4.09999990    2.48000002
   13.17638874  148.71299744    4.11999989    2.48000002
   13.17944431  144.14300537    4.09999990    2.48000002
   13.18583298  144.14300537    4.07999992    2.48000002
   13.19000053  140.24699402    4.07999992    2.48000002
   13.19305515  133.50900269    4.05999994    2.50000000
   13.19638920  137.89300537    4.05999994    2.48000002
   13.19888878  140.50300598    4.05999994    2.48000002
   13.19999981  134.72399902    4.03999996    2.50000000
   13.20333290  144.07400513    4.03999996    2.48000002
   13.20638847  140.42900085    4.03999996    2.48000002
   13.20972157  142.00100708    4.01999998    2.48000002
   13.21277714  147.93200684    4.01999998    2.48000002
   13.21611118  130.49200439    4.01999998    2.50000000
   13.21944427  149.23699951    4.01999998    2.48000002
   13.22249985  147.72500610    4.01999998    2.48000002
   13.22861099  147.72500610    4.00000000    2.48000002
   13.23277760  150.84800720    4.00000000    2.50000000
   13.23583317  140.49200439    3.99000001    2.48000002
   13.23916721  142.17300415    3.99000001    2.50000000
   13.24250031  145.35600281    3.99000001    2.50000000
   13.24555588  142.83399963    3.99000001    2.48000002
   13.24888897  135.92999268    3.99000001    2.51999998
   13.25194454  145.62699890    3.99000001    2.50000000
   13.25527763  140.25799561    3.97000003    2.50000000
   13.25861073  134.05900574    3.99000001    2.50000000
   13.26166630  141.86900330    4.00000000    2.50000000
   13.26500034  144.97399902    3.97000003    2.50000000
   13.26555538  152.41499329    3.97000003    2.50000000
   13.27138901  152.41499329    3.99000001    2.50000000
   13.27555561  135.32899475    3.99000001    2.50000000
   13.27888870  136.03199768    3.97000003    2.50000000
   13.28194427  135.30799866    3.97000003    2.50000000
   13.28527832  141.97099304    3.99000001    2.51999998
   13.28861141  128.87199402    3.97000003    2.51999998
   13.29166698  141.69099426    3.95000005    2.50000000
   13.29500008  137.86500549    3.95000005    2.50000000
   13.29833412  136.03999329    3.93000007    2.50000000
   13.29888916  139.63400269    3.93000007    2.50000000
   13.30194473  136.77699280    3.93000007    2.50000000
   13.30527782  130.18600464    3.91000009    2.50000000
   13.30833340  145.81300354    3.95000005    2.50000000
   13.31416702  145.81300354    3.93000007    2.50000000
   13.31833363  139.53399658    3.91000009    2.51999998
   13.32166672  126.26699829    3.91000009    2.50000000
   13.32499981  143.18099976    3.93000007    2.51999998
   13.32805538  131.37199402    3.91000009    2.50000000
   13.33138847  137.69200134    3.91000009    2.50000000
   13.33222198  137.38800049    3.91000009    2.50000000
   13.33500004  131.08900452    3.91000009    2.51999998
   13.33833313  130.99800110    3.93000007    2.50000000
   13.34138870  127.58399963    3.91000009    2.50000000
   13.34472179  133.78300476    3.91000009    2.51999998
   13.34777737  126.25700378    3.91000009    2.53999996
   13.35111141  128.48199463    3.93000007    2.51999998
   13.35722256  128.48199463    3.91000009    2.51999998
   13.36111164  129.97099304    3.91000009    2.51999998
   13.36444473  135.75700378    3.89000010    2.51999998
   13.36555576  127.53800201    3.89000010    2.51999998
   13.36805534  121.24099731    3.89000010    2.51999998
   13.37138939  126.82099915    3.89000010    2.51999998
   13.37444496  127.24099731    3.86999989    2.50000000
   13.37777805  134.33799744    3.89000010    2.50000000
   13.38083363  130.26600647    3.89000010    2.51999998
   13.38416672  122.74800110    3.89000010    2.51999998
   13.38749981  134.00900269    3.86999989    2.51999998
   13.39055538  133.80299377    3.89000010    2.51999998
   13.39388847  135.06900024    3.86999989    2.50000000
   13.39999962  135.06900024    3.89000010    2.51999998
   13.40416622  134.16299438    3.86999989    2.51999998
   13.40722179  135.15400696    3.89000010    2.51999998
   13.41055489  135.16499329    3.89000010    2.51999998
   13.41361046  132.76600647    3.86999989    2.51999998
   13.41694450  126.36499786    3.84999990    2.51999998
   13.42027855  123.98400116    3.84999990    2.51999998
   13.42333412  122.31500244    3.86999989    2.53999996
   13.42666721  127.57499695    3.82999992    2.53999996
   13.43000031  124.70099640    3.82999992    2.51999998
   13.43222237  124.25900269    3.84999990    2.53999996
   13.43361092  121.30100250    3.82999992    2.51999998
   13.43694496  128.88000488    3.84999990    2.51999998
   13.44277763  128.88000488    3.80999994    2.53999996
   13.44694424  127.16999817    3.82999992    2.51999998
   13.45027733  122.09700012    3.82999992    2.51999998
   13.45333290  124.00399780    3.82999992    2.53999996
   13.45666695  132.88200378    3.82999992    2.53999996
   13.45972157  126.99299622    3.84999990    2.53999996
   13.46305561  128.15299988    3.80999994    2.53999996
   13.46555519  129.56700134    3.80999994    2.53999996
   13.46666622  130.13000488    3.80999994    2.53999996
   13.46999931  127.73699951    3.80999994    2.53999996
   13.47305489  121.80100250    3.80999994    2.53999996
   13.47638798  132.87199402    3.80999994    2.53999996
   13.47944355  127.83699799    3.80999994    2.51999998
   13.48555565  127.83699799    3.80999994    2.53999996
   13.48972225  132.13299561    3.80999994    2.53999996
   13.49305534  119.60399628    3.78999996    2.51999998
   13.49611092  124.43499756    3.80999994    2.53999996
   13.49888897  123.12000275    3.80999994    2.53999996
   13.49972248  124.30999756    3.80999994    2.53999996
   13.50305557  127.19499969    3.78999996    2.51999998
   13.50611115  120.62300110    3.78999996    2.53999996
   13.50944424  115.69400024    3.78999996    2.53999996
   13.51249981  120.22000122    3.76999998    2.53999996
   13.51583290  127.07599640    3.76999998    2.53999996
   13.51916599  130.16799927    3.76999998    2.53999996
   13.52222157  124.70200348    3.76999998    2.53999996
   13.52861118  124.70200348    3.75000000    2.53999996
   13.53249931  118.58399963    3.78999996    2.53999996
   13.53583336  124.27300262    3.75000000    2.55999994
   13.53916740  119.45700073    3.73000002    2.53999996
   13.54222298  121.77100372    3.73000002    2.53999996
   13.54555607  128.59199524    3.73000002    2.53999996
   13.54888916  125.83100128    3.72000003    2.53999996
   13.55194473  120.84700012    3.73000002    2.53999996
   13.55527782  119.89700317    3.70000005    2.53999996
   13.55861092  124.24700165    3.70000005    2.53999996
   13.56166649  119.98200226    3.68000007    2.55999994
   13.56500053  117.77200317    3.68000007    2.53999996
   13.56555557  122.94699860    3.68000007    2.55999994
   13.57138920  122.94699860    3.70000005    2.55999994
   13.57555580  120.35399628    3.70000005    2.53999996
   13.57861137  117.41899872    3.70000005    2.53999996
   13.58194447  118.15100098    3.70000005    2.53999996
   13.58500004  127.71199799    3.70000005    2.53999996
   13.58833313  114.78399658    3.70000005    2.55999994
   13.59166622  119.53600311    3.70000005    2.55999994
   13.59472179  121.49700165    3.70000005    2.55999994
   13.59805489  126.74199677    3.70000005    2.53999996
   13.59888840  124.32399750    3.70000005    2.55999994
   13.60166740  129.52900696    3.70000005    2.55999994
   13.60500050  118.94699860    3.68000007    2.55999994
   13.60805607  125.25299835    3.70000005    2.55999994
   13.61416721  125.25299835    3.68000007    2.53999996
   13.61833382  127.45800018    3.68000007    2.55999994
   13.62166691  124.84999847    3.68000007    2.55999994
   13.62472248  111.57499695    3.70000005    2.55999994
   13.62805557  122.39700317    3.68000007    2.53999996
   13.63111115  120.45400238    3.66000009    2.57999992
   13.63222218  108.02400208    3.68000007    2.55999994
   13.63472176  122.52200317    3.66000009    2.55999994
   13.63805580  127.13099670    3.66000009    2.55999994
   13.64111137  119.58799744    3.68000007    2.55999994
   13.64444447  120.39499664    3.68000007    2.55999994
   13.64777756  116.15399933    3.68000007    2.55999994
   13.65083313  115.93699646    3.68000007    2.55999994
   13.65694427  115.93699646    3.68000007    2.57999992
   13.66111088  118.16699982    3.70000005    2.55999994
   13.66444397  121.83100128    3.70000005    2.55999994
   13.66583252  114.47899628    3.70000005    2.55999994
   13.66805553  114.45999908    3.68000007    2.55999994
   13.67138958  116.71099854    3.70000005    2.53999996
   13.67444515  121.38500214    3.72000003    2.55999994
   13.67777824  119.65200043    3.72000003    2.55999994
   13.68111134  114.94999695    3.72000003    2.55999994
   13.68416691  117.99800110    3.72000003    2.55999994
   13.68750000  116.58999634    3.72000003    2.55999994
   13.69083309  115.26100159    3.72000003    2.55999994
   13.69388866  113.58100128    3.72000003    2.55999994
   13.69999981  113.58100128    3.70000005    2.55999994
   13.70388889  114.51599884    3.70000005    2.55999994
   13.70722198  117.91799927    3.72000003    2.55999994
   13.71055508  118.72899628    3.72000003    2.55999994
   13.71361065  124.74700165    3.72000003    2.55999994
   13.71694374  127.00399780    3.72000003    2.55999994
   13.71999931  123.93900299    3.72000003    2.55999994
   13.72333336  114.29000092    3.70000005    2.55999994
   13.72666645  118.73100281    3.68000007    2.55999994
   13.72972202  121.25299835    3.68000007    2.55999994
   13.73249912  128.21400452    3.68000007    2.55999994
   13.73333359  123.50499725    3.68000007    2.55999994
   13.73666668  123.00199890    3.66000009    2.55999994
   13.74277782  123.00199890    3.68000007    2.57999992
   13.74694443  113.74299622    3.66000009    2.57999992
   13.75000000  125.37599945    3.66000009    2.55999994
   13.75333309  122.71700287    3.66000009    2.57999992
   13.75638866  117.56199646    3.66000009    2.57999992
   13.75972176  121.32299805    3.64000010    2.57999992
   13.76305580  118.35099792    3.66000009    2.55999994
   13.76583290  115.01999664    3.64000010    2.55999994
   13.76638889  119.43499756    3.64000010    2.57999992
   13.76972198  116.92299652    3.64000010    2.57999992
   13.77277756  109.47899628    3.64000010    2.57999992
   13.77611065  107.01000214    3.61999989    2.57999992
   13.77944374  121.91300201    3.61999989    2.57999992
   13.78555584  121.91300201    3.61999989    2.57999992
   13.78972244  114.38899994    3.64000010    2.57999992
   13.79305553  117.19899750    3.64000010    2.57999992
   13.79611111  122.80200195    3.61999989    2.55999994
   13.79916668  114.26899719    3.61999989    2.57999992
   13.79972267  123.53900146    3.59999990    2.57999992
   13.80305576  111.42900085    3.59999990    2.55999994
   13.80611134  120.46199799    3.59999990    2.57999992
   13.80944443  124.97599792    3.59999990    2.57999992
   13.81277752  122.77100372    3.57999992    2.57999992
   13.81583309  115.36499786    3.57999992    2.57999992
   13.81916618  113.75700378    3.59999990    2.57999992
   13.82222176  119.03900146    3.57999992    2.57999992
   13.82833290  119.03900146    3.57999992    2.57999992
   13.83249950  114.56500244    3.57999992    2.57999992
   13.83583260  114.45300293    3.59999990    2.57999992
   13.83888817  107.22899628    3.57999992    2.57999992
   13.84222221  110.37200165    3.59999990    2.57999992
   13.84555531  113.67500305    3.59999990    2.57999992
   13.84861088  131.06799316    3.57999992    2.57999992
   13.85194492  118.76699829    3.57999992    2.59999990
   13.85500050  106.58000183    3.55999994    2.59999990
   13.85833359  110.54399872    3.57999992    2.57999992
   13.86166668  105.65799713    3.57999992    2.59999990
   13.86472225  113.91500092    3.59999990    2.57999992
   13.86583328  109.79100037    3.59999990    2.57999992
   13.87138939  109.79100037    3.59999990    2.57999992
   13.87527752  108.85700226    3.59999990    2.57999992
   13.87861156  104.69300079    3.59999990    2.57999992
   13.88194466  118.19799805    3.57999992    2.57999992
   13.89944458  113.73500061    3.59999990    2.57999992
   13.90194416  110.56900024    3.59999990    2.59999990
   13.90499973  119.84899902    3.59999990    2.59999990
   13.90833282  118.98999786    3.61999989    2.57999992
   13.91416645  118.98999786    3.64000010    2.57999992
   13.91833401  117.05400085    3.73000002    2.57999992
   13.92166710  120.86799622    3.78999996    2.59999990
   13.92472267  112.25199890    3.80999994    2.59999990
   13.92805576  113.38800049    3.86999989    2.59999990
   13.93138885  111.96399689    3.93000007    2.59999990
   13.93277836  108.80799866    3.95000005    2.57999992
   13.93472195  113.00700378    3.97000003    2.57999992
   13.93805599  107.79799652    3.99000001    2.59999990
   13.94111156  109.63600159    4.05999994    2.59999990
   13.94444466  111.47100067    4.15999985    2.57999992
   13.94777775  107.21499634    4.51000023    2.59999990
   13.95083332  105.00399780    4.67999983    2.59999990
   13.95722198  105.00399780    4.51000023    2.57999992
   13.96111107  109.81300354    4.38999987    2.57999992
   13.96444416   94.97039795    4.38999987    2.59999990
   13.96611118  105.85399628    4.38999987    2.59999990
   13.96805477  106.72599792    4.38999987    2.59999990
   13.97138882  105.25299835    4.44999981    2.57999992
   13.97472191  106.88400269    4.61999989    2.59999990
   13.97777748  112.51300049    4.80999994    2.57999992
   13.98111057  106.47899628    4.90999985    2.50000000
   13.98444462  101.34200287    4.90999985    2.53999996
   13.98750019  109.62500000    4.90999985    2.53999996
   13.99083328  105.81600189    4.90999985    2.53999996
   13.99388885  105.49099731    4.90999985    2.53999996
   14.00000000  105.49099731    4.90999985    2.57999992
   14.00416660  114.34300232    4.90999985    2.55999994
   14.00722218  110.87999725    4.90999985    2.51999998
   14.01055527  108.93499756    4.90999985    2.53999996
   14.01361084  113.48500061    4.90999985    2.51999998
   14.01694393  110.39900208    4.90999985    2.53999996
   14.02027798  106.99199677    4.90999985    2.55999994
   14.02333355  107.28800201    4.90999985    2.53999996
   14.02666664  112.58499908    4.90999985    2.51999998
   14.02972221  120.65899658    4.90999985    2.53999996
   14.03277779  115.82099915    4.90999985    2.53999996
   14.03333378  107.06500244    4.90999985    2.55999994
   14.03666687  115.90599823    4.90999985    2.55999994
   14.04277802  115.90599823    4.90999985    2.57999992
   14.04694462  116.47899628    4.90999985    2.61999989
   14.05027771  119.54000092    4.90999985    2.59999990
   14.05333328  119.72699738    4.90999985    2.55999994
   14.05666733  111.55899811    4.90999985    2.53999996
   14.05972195  118.30300140    4.90999985    2.53999996
   14.06305599  119.83899689    4.90999985    2.55999994
   14.06611156  114.77400208    4.90999985    2.51999998
   14.06666660  109.05400085    4.90999985    2.48000002
   14.06999969  109.87699890    4.90999985    2.44000006
   14.07305527  121.95700073    4.90999985    2.44000006
   14.07638836  124.48100281    4.90999985    2.42000008
   14.07972240  112.55699921    4.90999985    2.46000004
   14.08555508  112.55699921    4.90999985    2.50000000
   14.08972168  109.37100220    4.90999985    2.53999996
   14.09305477  112.95800018    4.90999985    2.53999996
   14.09611034  106.64199829    4.90999985    2.50000000
   14.09944439  121.64700317    4.90999985    2.46000004
   14.09972191  122.18099976    4.90999985    2.46000004
   14.10305595  111.47000122    4.90999985    2.55999994
   14.10638905  111.33399963    4.90999985    2.57999992
   14.10944462  101.83100128    4.90999985    2.57999992
   14.11277771  103.56700134    4.86999989    2.57999992
   14.11583328  103.05100250    4.65999985    2.59999990
   14.11916637  110.52700043    4.57999992    2.57999992
   14.12250042  106.01399994    4.44999981    2.57999992
   14.12861156  106.01399994    4.21999979    2.57999992
   14.13277817   98.92980194    4.05999994    2.59999990
   14.13305569  105.67900085    4.05999994    2.59999990
   14.13638878  110.40699768    3.95000005    2.59999990
   14.13972187  111.41999817    3.82999992    2.64000010
   14.14277744   97.84590149    3.78999996    2.61999989
   14.14611053  108.79299927    3.78999996    2.61999989
   14.14916611  107.86199951    3.80999994    2.61999989
   14.15249920  103.77600098    3.84999990    2.61999989
   14.15583324  103.09400177    3.80999994    2.61999989
   14.15888882  104.29299927    3.73000002    2.61999989
   14.16222191  101.39499664    3.70000005    2.59999990
   14.16555500  106.07499695    3.72000003    2.61999989
   14.16611099  104.07599640    3.73000002    2.61999989
   14.17138958  104.07599640    3.82999992    2.61999989
   14.17555618   97.62760162    3.97000003    2.61999989
   14.17861176  115.43499756    4.03999996    2.61999989
   14.18194485  103.06900024    4.13999987    2.61999989
   14.18527794   96.80560303    4.26999998    2.64000010
   14.18833351  102.74099731    4.53000021    2.59999990
   14.19166660   98.28309631    4.82999992    2.57999992
   14.19499969  104.64800262    4.90999985    2.59999990
   14.19805527  102.30100250    4.90999985    2.61999989
   14.19944477  106.25099945    4.90999985    2.59999990
   14.20166683  112.38200378    4.90999985    2.61999989
   14.20499992  109.36799622    4.90999985    2.59999990
   14.20833302  101.16400146    4.90999985    2.59999990
   14.21416664  101.16400146    4.90999985    2.51999998
   14.21833324  115.07299805    4.90999985    2.46000004
   14.22138882  108.36799622    4.90999985    2.55999994
   14.22472191  104.19100189    4.90999985    2.53999996
   14.22805500   99.25469971    4.90999985    2.53999996
   14.23111057  108.26100159    4.80999994    2.57999992
   14.23277760  101.93900299    4.76000023    2.57999992
   14.23472214  106.57399750    4.59999990    2.61999989
   14.23805618  111.62200165    4.34999990    2.59999990
   14.24138927  112.00700378    4.23999977    2.55999994
   14.24444485  106.83100128    4.26999998    2.57999992
   14.24777794  105.80899811    4.36999989    2.57999992
   14.25083351  104.88200378    4.42999983    2.59999990
   14.25694466  104.88200378    4.34999990    2.61999989
   14.26111126   98.62190247    4.26999998    2.61999989
   14.26444435  107.63700104    4.36999989    2.59999990
   14.26611137   97.82920074    4.38999987    2.61999989
   14.26777744  107.34899902    4.34999990    2.61999989
   14.27111053  102.35500336    4.23999977    2.61999989
   14.27444458  105.69899750    4.05999994    2.59999990
   14.27750015  104.98699951    4.01999998    2.59999990
   14.28083324  101.77400208    4.05999994    2.59999990
   14.28388977  102.48600006    4.13999987    2.59999990
   14.28722286  107.88999939    4.15999985    2.61999989
   14.29027843   95.62660217    4.05999994    2.61999989
   14.29361153  100.29900360    3.93000007    2.61999989
   14.30000019  100.29900360    3.84999990    2.57999992
   14.30388927   99.38729858    4.11999989    2.61999989
   14.30722237   93.22570038    4.26000023    2.61999989
   14.31055546   97.31099701    4.26000023    2.61999989
   14.31361103   95.45559692    4.13999987    2.61999989
   14.31694412  100.96700287    4.00000000    2.61999989
   14.31999969  101.81400299    3.84999990    2.61999989
   14.32333374  105.67500305    3.72000003    2.64000010
   14.32666683   96.79979706    3.61999989    2.61999989
   14.32972240   93.49189758    3.55999994    2.61999989
   14.33277798   98.48269653    3.55999994    2.61999989
   14.33333302  107.95200348    3.59999990    2.64000010
   14.33666611  106.39099884    3.68000007    2.64000010
   14.34277725  106.39099884    3.78999996    2.61999989
   14.34694386  101.41100311    3.82999992    2.61999989
   14.35000038  103.70200348    3.84999990    2.61999989
   14.35333347   96.25279999    3.91000009    2.61999989
   14.35638905   98.15010071    3.95000005    2.61999989
   14.35972214  104.66300201    3.93000007    2.64000010
   14.36305618  103.48000336    3.95000005    2.61999989
   14.36611176  102.37000275    3.99000001    2.64000010
   14.36638927  104.46099854    3.99000001    2.64000010
   14.36972237  101.00399780    3.97000003    2.61999989
   14.37305546   98.28970337    3.89000010    2.64000010
   14.37611103  112.08599854    3.72000003    2.64000010
   14.37944412  100.45800018    3.55999994    2.64000010
   14.38555527  100.45800018    3.41000009    2.64000010
   14.38972187  103.03399658    3.39000010    2.64000010
   14.39305496  104.37699890    3.39000010    2.64000010
   14.39611053  105.27999878    3.41000009    2.64000010
   14.39944458  100.12000275    3.39000010    2.64000010
   14.39972210   95.02040100    3.39000010    2.64000010
   14.40305519  102.17800140    3.36999989    2.64000010
   14.40638828  107.64700317    3.39000010    2.64000010
   14.40944386  106.85399628    3.36999989    2.64000010
   14.41277695  102.31999969    3.36999989    2.64000010
   14.41611099  107.69699860    3.39000010    2.64000010
   14.41916656  104.89800262    3.36999989    2.64000010
   14.42250061  105.21299744    3.36999989    2.64000010
   14.42833328  105.21299744    3.34999990    2.64000010
   14.43249989   97.65360260    3.34999990    2.64000010
   14.43305588  104.94100189    3.34999990    2.64000010
   14.43638897  103.38700104    3.34999990    2.64000010
   14.43944454  105.11199951    3.32999992    2.64000010
   14.44277763  103.12999725    3.30999994    2.64000010
   14.44611073  103.73200226    3.30999994    2.66000009
   14.44916630  101.28600311    3.28999996    2.64000010
   14.45249939  111.30000305    3.30999994    2.64000010
   14.45555496  104.25099945    3.30999994    2.64000010
   14.45888901  102.45200348    3.30999994    2.64000010
   14.46222210   98.93299866    3.34999990    2.64000010
   14.46527767   98.81279755    3.34999990    2.64000010
   14.46638870  105.81800079    3.34999990    2.64000010
   14.47138882  105.81800079    3.32999992    2.64000010
   14.47527695  110.48400116    3.32999992    2.64000010
   14.47861099   92.63030243    3.32999992    2.64000010
   14.48194408  101.61199951    3.34999990    2.64000010
   14.48500061  102.31600189    3.36999989    2.64000010
   14.48833370  110.92299652    3.39000010    2.61999989
   14.49166679  106.68199921    3.41000009    2.64000010
   14.49472237  111.41699982    3.43000007    2.64000010
   14.49805546   97.20200348    3.41000009    2.64000010
   14.49972248  103.51000214    3.43000007    2.64000010
   14.50166702  102.35199738    3.43000007    2.66000009
   14.50472260  112.13099670    3.46000004    2.66000009
   14.50805569   96.67320251    3.48000002    2.64000010
   14.51416683   96.67320251    3.55999994    2.66000009
   14.51833344  107.53600311    3.45000005    2.64000010
   14.52138901  100.58899689    3.39000010    2.64000010
   14.52472210  105.51300049    3.41000009    2.64000010
   14.52805519  101.37999725    3.45000005    2.64000010
   14.53111076   97.58730316    3.45000005    2.64000010
   14.53305531   95.23519897    3.45000005    2.64000010
   14.53500080  101.61599731    3.43000007    2.64000010
   14.53805637  102.94899750    3.45000005    2.64000010
   14.54138947   95.90740204    3.46000004    2.64000010
   14.54472256  105.61599731    3.51999998    2.64000010
   14.54777813  104.18000031    3.53999996    2.64000010
   14.55111122  109.30300140    3.53999996    2.64000010
   14.55694485  109.30300140    3.46000004    2.66000009
   14.56111145  108.59999847    3.41000009    2.64000010
   14.56444454  101.04799652    3.39000010    2.66000009
   14.56638908   98.35810089    3.36999989    2.66000009
   14.56805515  105.88099670    3.34999990    2.66000009
   14.57111073  102.83100128    3.30999994    2.66000009
   14.57444477  103.47000122    3.28999996    2.64000010
   14.57777786  102.86900330    3.26999998    2.66000009
   14.58083344  100.82900238    3.25000000    2.66000009
   14.58416653   98.54750061    3.25000000    2.66000009
   14.58749962   99.43810272    3.25000000    2.64000010
   14.59055519  100.23699951    3.23000002    2.66000009
   14.59388828  105.24800110    3.25000000    2.66000009
   14.59972191  105.24800110    3.36999989    2.66000009
   14.60388947  103.90299988    3.61999989    2.66000009
   14.60722256   99.79660034    3.76999998    2.66000009
   14.61027813   98.80030060    3.82999992    2.67000008
   14.61361122  100.08499908    3.86999989    2.66000009
   14.61694431  111.10800171    3.93000007    2.66000009
   14.61999989   99.57389832    4.01999998    2.61999989
   14.62333393  105.95500183    4.30999994    2.64000010
   14.62666702   95.45760345    4.53000021    2.66000009
   14.62972260  106.56800079    4.46999979    2.57999992
   14.63305569  107.23600006    4.61999989    2.53999996
   14.63361073   98.75119781    4.61999989    2.53999996
   14.63666630  105.01699829    4.90999985    2.66000009
   14.64277744  105.01699829    4.90999985    2.66000009
   14.64666653   94.65640259    4.90999985    2.66000009
   14.64999962  108.13899994    4.90999985    2.67000008
   14.65333271  101.66200256    4.80999994    2.66000009
   14.65638828   85.64630127    4.44999981    2.64000010
   14.65972137  102.47399902    4.09999990    2.61999989
   14.66305542  102.93099976    3.97000003    2.66000009
   14.66611099  102.30400085    3.86999989    2.64000010
   14.66694450  103.37300110    3.86999989    2.64000010
   14.66972256  102.89199829    3.72000003    2.66000009
   14.67305565  100.98400116    3.61999989    2.66000009
   14.67638874  100.14099884    3.61999989    2.66000009
   14.67944431  102.28900146    3.57999992    2.64000010
   14.68555546  102.28900146    3.34999990    2.66000009
   14.68972206  104.95099640    3.26999998    2.66000009
   14.69277763  100.61000061    3.25000000    2.66000009
   14.69611073  108.04799652    3.25000000    2.66000009
   14.69944477   95.75890350    3.25000000    2.66000009
   14.70027733  100.66600037    3.25000000    2.66000009
   14.70277786  103.54499817    3.25000000    2.66000009
   14.70611095  105.58799744    3.23000002    2.66000009
   14.70944405  106.25099945    3.21000004    2.67000008
   14.71249962   99.42980194    3.21000004    2.66000009
   14.71583271  106.98100281    3.25000000    2.66000009
   14.71888828   92.80519867    3.23000002    2.66000009
   14.72222137  105.56300354    3.25000000    2.66000009
   14.72833252  105.56300354    3.26999998    2.66000009
   14.73249912  100.17500305    3.26999998    2.66000009
   14.73361111   98.97750092    3.26999998    2.66000009
   14.73611164   95.19249725    3.28999996    2.67000008
   14.73944473   95.59120178    3.30999994    2.66000009
   14.74277782  102.66799927    3.28999996    2.66000009
   14.74583340   95.21050262    3.30999994    2.66000009
   14.74916649  100.81600189    3.30999994    2.66000009
   14.75249958   99.58760071    3.30999994    2.66000009
   14.75555515   89.96589661    3.28999996    2.66000009
   14.75888920   95.73549652    3.28999996    2.66000009
   14.76194477   90.99099731    3.28999996    2.66000009
   14.76527786  100.32399750    3.26999998    2.66000009
   14.76694393   91.14939880    3.26999998    2.66000009
   14.77111053   91.14939880    3.28999996    2.66000009
   14.77527714   98.61900330    3.28999996    2.66000009
   14.77861118  101.81099701    3.28999996    2.66000009
   14.78166676   97.18229675    3.30999994    2.67000008
   14.78500080   97.94920349    3.30999994    2.66000009
   14.78833389   95.76480103    3.30999994    2.67000008
   14.79138947   92.87059784    3.32999992    2.67000008
   14.79500008   90.70480347    3.32999992    2.66000009
   14.79833412   90.74490356    3.32999992    2.66000009
   14.80027771   99.04620361    3.30999994    2.66000009
   14.80166721   96.08070374    3.32999992    2.66000009
   14.80500031   98.05030060    3.30999994    2.66000009
   14.80833340   98.60720062    3.30999994    2.67000008
   14.81416702   98.60720062    3.32999992    2.66000009
   14.81805515  100.72899628    3.28999996    2.66000009
   14.82138920   97.21880341    3.28999996    2.66000009
   14.82472229  100.23899841    3.30999994    2.67000008
   14.82777786   99.25270081    3.26999998    2.67000008
   14.83111095   97.23419952    3.28999996    2.67000008
   14.83361053   99.75460052    3.30999994    2.66000009
   14.83472157   97.72409821    3.28999996    2.66000009
   14.83805561  103.71399689    3.28999996    2.66000009
   14.84138870   95.97840118    3.28999996    2.66000009
   14.84444427  100.00299835    3.26999998    2.66000009
   14.84777737   97.28739929    3.30999994    2.67000008
   14.85083389   97.53919983    3.30999994    2.66000009
   14.85694504   97.53919983    3.36999989    2.66000009
   14.86111164   93.83860016    3.45000005    2.67000008
   14.86416721   91.01899719    3.46000004    2.67000008
   14.86694431   94.26329803    3.48000002    2.66000009
   14.86777782   98.03780365    3.51999998    2.66000009
   14.87111092  102.68099976    3.59999990    2.66000009
   14.87444496   96.07740021    3.66000009    2.66000009
   14.87750053   97.37770081    3.75000000    2.66000009
   14.88083363   93.63310242    3.91000009    2.64000010
   14.88416672   98.52870178    4.09999990    2.64000010
   14.88722229  107.27400208    4.26999998    2.66000009
   14.89055538   97.92630005    4.32999992    2.66000009
   14.89361095   90.76959991    4.42999983    2.66000009
   14.89972210   90.76959991    4.76000023    2.67000008
   14.91805553   98.42289734    4.90999985    2.64000010
   14.92138958  115.83100128    4.90999985    2.66000009
   14.92444515   93.15979767    4.90999985    2.64000010
   14.92777824  118.72799683    4.90999985    2.48000002
   14.93111134  142.08599854    4.90999985    2.48000002
   14.93416691  127.36299896    4.90999985    2.53999996
   14.93750000  128.81300354    4.90999985    2.57999992
   14.94277763  128.81300354    4.90999985    2.64000010
   14.94694424  130.82400513    4.90999985    2.64000010
   15.05111122   -1.00000000   -1.00000000   -1.00000000
   15.32361126   -1.00000000   -1.00000000   -1.00000000
   15.44444466   -1.00000000   -1.00000000   -1.00000000
   15.61694431   90.10669708    4.90999985    2.21000004
   15.62027836  167.65199280    4.90999985    2.19000006
   15.62333393  218.99200439    4.90999985    2.17000008
   15.62666702  258.54699707    4.90999985    2.09999990
   15.62972260  171.83799744    4.90999985    2.07999992
   15.63305569  170.42999268    4.90999985    2.13000011
   15.63722229  170.42999268    4.90999985    2.17000008
   15.64138889  155.45799255    4.90999985    2.13000011
   15.64444447  204.31300354    4.90999985    2.09999990
   15.64777756  193.92399597    4.90999985    2.09999990
   15.65027714  241.24899292    4.90999985    2.09999990
   15.65138817  257.79000854    4.90999985    2.05999994
   15.65472221  260.43600464    4.90999985    2.00000000
   15.65805531  166.99000549    4.90999985    2.17000008
   15.66111088  141.68600464    4.90999985    2.25000000
   15.66444397  163.44400024    4.90999985    2.23000002
   15.66750050  154.05200195    4.90999985    2.23000002
   15.67083359  186.68600464    4.90999985    2.19000006
   15.67416668  185.00100708    4.90999985    2.15000010
   15.68000031  185.00100708    4.90999985    2.28999996
   15.68416691  186.87300110    4.90999985    2.25000000
   15.68750000  158.25199890    4.90999985    2.21000004
   15.69055557  207.55299377    4.90999985    2.17000008
   15.69388866  179.13800049    4.90999985    2.28999996
   15.69722271  146.96699524    4.90999985    2.32999992
   15.70027733  152.52499390    4.90999985    2.34999990
   15.70361137  149.88699341    4.90999985    2.36999989
   15.70666695  138.63900757    4.90999985    2.34999990
   15.71000004  140.95199585    4.90999985    2.30999994
   15.71333313  163.01699829    4.90999985    2.23000002
   15.71638870  168.51699829    4.90999985    2.21000004
   15.71694374  132.54600525    4.90999985    2.25000000
   15.72277737  132.54600525    4.90999985    2.36999989
   15.72694397  152.73800659    4.90999985    2.26999998
   15.73027706  146.47399902    4.90999985    2.21000004
   15.73361111  144.10600281    4.90999985    2.30999994
   15.73666668  106.63300323    4.90999985    2.46000004
   15.74000072  127.00199890    4.90999985    2.46000004
   15.74305534  131.82699585    4.90999985    2.46000004
   15.74638939  131.86399841    4.90999985    2.48000002
   15.74972248  137.20500183    4.90999985    2.48000002
   15.75027752  122.15499878    4.90999985    2.48000002
   15.75333309  126.84799957    4.90999985    2.48000002
   15.75666714  143.03900146    4.90999985    2.40000010
   15.75972176  136.28300476    4.90999985    2.44000006
   15.76583290  136.28300476    4.90999985    2.44000006
   15.76999950  127.57700348    4.90999985    2.48000002
   15.77305508  111.99500275    4.90999985    2.57999992
   15.77638817  116.41100311    4.90999985    2.61999989
   15.77944374  108.36900330    4.90999985    2.64000010
   15.78277779  112.41600037    4.90999985    2.64000010
   15.78361130  108.55500031    4.90999985    2.64000010
   15.78638935  100.37400055    4.90999985    2.66000009
   15.78972244  108.73500061    4.90999985    2.66000009
   15.79277802  107.59300232    4.90999985    2.66000009
   15.79611111  105.05000305    4.90999985    2.67000008
   15.79916668  118.79499817    4.90999985    2.66000009
   15.80249977  111.04799652    4.90999985    2.66000009
   15.80861092  111.04799652    4.90999985    2.66000009
   15.81277752  108.52400208    4.90999985    2.66000009
   15.81583309  121.33300018    4.90999985    2.66000009
   15.81694412  104.44699860    4.90999985    2.64000010
   15.81972218  105.63400269    4.90999985    2.66000009
   15.82305527  114.01899719    4.90999985    2.64000010
   15.82611084  104.00299835    4.90999985    2.66000009
   15.82944393  109.41300201    4.90999985    2.66000009
   15.83249950   99.28600311    4.90999985    2.67000008
   15.83583260  107.20500183    4.90999985    2.69000006
   15.83916664  114.43699646    4.90999985    2.67000008
   15.84222221  119.77899933    4.90999985    2.69000006
   15.84555531  108.73699951    4.90999985    2.69000006
   15.85138893  108.73699951    4.90999985    2.67000008
   15.85555553  113.30300140    4.90999985    2.66000009
   15.85888958  101.80300140    4.90999985    2.61999989
   15.86194515  103.19300079    4.90999985    2.64000010
   15.86527824  104.21900177    4.90999985    2.67000008
   15.86861134   98.01689911    4.90999985    2.69000006
   15.87166691   98.12699890    4.82999992    2.69000006
   15.87500000  115.60900116    4.55999994    2.69000006
   15.87833309  101.57299805    4.28999996    2.69000006
   15.88138866  113.73500061    4.13999987    2.69000006
   15.88361073  109.37599945    4.03999996    2.67000008
   15.88500023  103.24299622    4.01999998    2.69000006
   15.88833332  102.13700104    3.95000005    2.69000006
   15.89416695  102.13700104    3.91000009    2.69000006
   15.89833355  101.26499939    3.89000010    2.69000006
   15.90166664  105.29499817    3.91000009    2.69000006
   15.90499973  105.86000061    3.93000007    2.69000006
   15.90805531  106.41799927    3.91000009    2.69000006
   15.91138840  102.38300323    3.82999992    2.69000006
   15.91444397  102.84799957    3.84999990    2.69000006
   15.91694450  102.06900024    3.78999996    2.69000006
   15.91833401   99.91359711    3.75000000    2.69000006
   15.92166710  100.29799652    3.72000003    2.71000004
   15.92472267   98.96109772    3.66000009    2.69000006
   15.92805576  106.53900146    3.59999990    2.69000006
   15.93111134   97.92060089    3.59999990    2.69000006
   15.93722248   97.92060089    3.68000007    2.71000004
   15.94138908  108.84999847    3.61999989    2.71000004
   15.94444466  100.16100311    3.64000010    2.69000006
   15.94777775  108.43099976    3.72000003    2.69000006
   15.95027733   93.13110352    3.80999994    2.67000008
   15.95138836  100.77600098    3.80999994    2.69000006
   15.95472240  106.88400269    3.89000010    2.69000006
   15.95777798  101.96600342    3.89000010    2.71000004
   15.96111107  105.30300140    3.84999990    2.69000006
   15.96416664  100.61799622    3.75000000    2.71000004
   15.96749973  100.37899780    3.68000007    2.69000006
   15.97083282   97.43759918    3.59999990    2.69000006
   15.97388840  103.30000305    3.61999989    2.71000004
   15.97999954  103.30000305    3.64000010    2.71000004
   15.98416710  101.08799744    3.57999992    2.71000004
   15.98722267   98.05329895    3.51999998    2.69000006
   15.99055576  103.35500336    3.50000000    2.71000004
   15.99388885  108.04599762    3.43000007    2.71000004
   15.99694443  101.98300171    3.39000010    2.71000004
   16.00027847   98.43840027    3.36999989    2.71000004
   16.00361061  104.59200287    3.34999990    2.71000004
   16.00666618   96.87059784    3.34999990    2.69000006
   16.01000023   94.39980316    3.36999989    2.71000004
   16.01305580   96.86599731    3.34999990    2.71000004
   16.01638794  104.23899841    3.34999990    2.69000006
   16.01694489   95.69110107    3.34999990    2.69000006
   16.02277756   95.69110107    3.36999989    2.71000004
   16.02694511  100.47499847    3.34999990    2.71000004
   16.03027725  101.56800079    3.39000010    2.71000004
   16.03333282  106.66899872    3.34999990    2.71000004
   16.03666687   90.55210114    3.39000010    2.71000004
   16.03999901   94.67749786    3.36999989    2.71000004
   16.04305458   98.84819794    3.34999990    2.69000006
   16.04638863   97.79579926    3.36999989    2.71000004
   16.04972076   94.73149872    3.41000009    2.71000004
   16.05027771   95.41709900    3.41000009    2.71000004
   16.05333328   98.69339752    3.36999989    2.71000004
   16.05666542   98.89790344    3.39000010    2.71000004
   16.05972099   99.68209839    3.39000010    2.69000006
   16.06555557   99.68209839    3.39000010    2.71000004
   16.06972313   97.92449951    3.41000009    2.71000004
   16.07305717   95.15979767    3.41000009    2.71000004
   16.07638931   97.99649811    3.39000010    2.69000006
   16.07944489   99.03119659    3.36999989    2.71000004
   16.08277893   98.71360016    3.36999989    2.71000004
   16.08361244   95.46659851    3.36999989    2.71000004
   16.08666801  102.31800079    3.36999989    2.71000004
   16.09000015   92.69940186    3.36999989    2.71000004
   16.09305573   97.21949768    3.39000010    2.71000004
   16.09638977   93.21410370    3.39000010    2.71000004
   16.09972191   95.22889709    3.36999989    2.71000004
   16.10277748   98.79609680    3.39000010    2.71000004
   16.10861206   98.79609680    3.43000007    2.71000004
   16.11277771   90.09619904    3.32999992    2.69000006
   16.11583328   95.02020264    3.39000010    2.69000006
   16.11694527   91.17240143    3.41000009    2.71000004
   16.11944389   87.78250122    3.43000007    2.71000004
   16.12277794   96.24169922    3.34999990    2.71000004
   16.12583351   91.24330139    3.39000010    2.71000004
   16.12916756  102.37899780    3.39000010    2.71000004
   16.13249969   97.44730377    3.36999989    2.69000006
   16.13555527  102.85199738    3.36999989    2.71000004
   16.13888931   99.90570068    3.41000009    2.71000004
   16.14194489   99.86170197    3.39000010    2.71000004
   16.14527702   94.81439972    3.43000007    2.71000004
   16.15138817   94.81439972    3.43000007    2.71000004
   16.15555573   90.72910309    3.41000009    2.71000004
   16.15861130  102.91100311    3.41000009    2.71000004
   16.16194344   96.56109619    3.43000007    2.71000004
   16.16527748   94.79830170    3.45000005    2.71000004
   16.16833305  102.59999847    3.43000007    2.69000006
   16.17166519   90.67810059    3.43000007    2.71000004
   16.17499924   94.21530151    3.43000007    2.71000004
   16.17805481   99.12300110    3.41000009    2.73000002
   16.18138885  100.49099731    3.41000009    2.71000004
   16.18361092   90.59349823    3.41000009    2.71000004
   16.18499947   99.09629822    3.43000007    2.71000004
   16.18833160   98.97540283    3.45000005    2.71000004
   16.19416618   98.97540283    3.46000004    2.71000004
   16.19833183   94.27380371    3.45000005    2.71000004
   16.20166779   91.50270081    3.46000004    2.71000004
   16.20472336   95.14170074    3.46000004    2.71000004
   16.20805550   96.85720062    3.48000002    2.71000004
   16.21138954   96.86239624    3.48000002    2.71000004
   16.21444511   93.82409668    3.48000002    2.71000004
   16.21694565   94.37100220    3.48000002    2.71000004
   16.21805573   96.74210358    3.48000002    2.71000004
   16.22138977   94.04370117    3.46000004    2.71000004
   16.22444534   98.66139984    3.48000002    2.71000004
   16.22777748  104.20200348    3.45000005    2.71000004
   16.23111153   95.72160339    3.50000000    2.71000004
   16.23694420   95.72160339    3.51999998    2.71000004
   16.24111176   96.32180023    3.51999998    2.71000004
   16.24444389  100.87100220    3.53999996    2.71000004
   16.24749947   97.46880341    3.55999994    2.71000004
   16.25027847  103.83200073    3.55999994    2.71000004
   16.25111198   98.74849701    3.55999994    2.71000004
   16.25444412   99.66449738    3.55999994    2.71000004
   16.25749969   97.36820221    3.55999994    2.71000004
   16.26083374   96.89990234    3.61999989    2.71000004
   16.26416588   93.60959625    3.57999992    2.69000006
   16.26722145   87.82759857    3.59999990    2.71000004
   16.27055550   95.66390228    3.57999992    2.71000004
   16.27361107  100.02500153    3.57999992    2.71000004
   16.28000069  100.02500153    3.51999998    2.71000004
   16.28388786   96.59069824    3.51999998    2.71000004
   16.28722191   95.58599854    3.53999996    2.71000004
   16.29055595   94.72419739    3.51999998    2.71000004
   16.29361153   95.36039734    3.53999996    2.71000004
   16.29694366   96.48220062    3.50000000    2.71000004
   16.30027771  106.54199982    3.51999998    2.71000004
   16.30333328  101.17400360    3.50000000    2.71000004
   16.30666542  100.17700195    3.53999996    2.71000004
   16.30972099   97.06770325    3.50000000    2.71000004
   16.31305504   96.69869995    3.50000000    2.71000004
   16.31638718  100.04100037    3.53999996    2.71000004
   16.31694603   97.38469696    3.51999998    2.71000004
   16.32277870   97.38469696    3.55999994    2.71000004
   16.32694626   99.75150299    3.57999992    2.71000004
   16.33000183   90.35569763    3.57999992    2.69000006
   16.33333397   97.58699799    3.61999989    2.73000002
   16.33666801   92.77069855    3.59999990    2.71000004
   16.33972359   96.37030029    3.64000010    2.71000004
   16.34305573   94.17590332    3.61999989    2.71000004
   16.34638977  102.04000092    3.61999989    2.71000004
   16.34944534   86.69470215    3.57999992    2.71000004
   16.35027885   89.41500092    3.61999989    2.71000004
   16.35305595   99.12969971    3.59999990    2.71000004
   16.35639000  100.47200012    3.59999990    2.71000004
   16.35944557  101.26300049    3.57999992    2.69000006
   16.36555672  101.26300049    3.59999990    2.71000004
   16.36972237   96.68379974    3.59999990    2.71000004
   16.37305641   96.66459656    3.55999994    2.71000004
   16.37611198  104.69699860    3.57999992    2.71000004
   16.37944412   94.43720245    3.64000010    2.71000004
   16.38277817  114.37100220    3.59999990    2.71000004
   16.38361168  101.03700256    3.59999990    2.71000004
   16.38611031  104.38500214    3.59999990    2.71000004
   16.38944435  110.67800140    3.57999992    2.71000004
   16.39249992  103.20800018    3.57999992    2.71000004
   16.39583397  103.43599701    3.57999992    2.71000004
   16.39916611   94.84570313    3.55999994    2.69000006
   16.40222168   99.18930054    3.57999992    2.71000004
   16.40833282   99.18930054    3.59999990    2.71000004
   16.41250038   96.05930328    3.61999989    2.71000004
   16.41583252  103.36299896    3.64000010    2.71000004
   16.41722107   98.05249786    3.64000010    2.69000006
   16.41944313  113.44699860    3.61999989    2.71000004
   16.42277718   97.35839844    3.61999989    2.71000004
   16.42583275  100.61399841    3.66000009    2.71000004
   16.42916679  100.96600342    3.61999989    2.71000004
   16.43249893   98.13269806    3.61999989    2.71000004
   16.43555450  101.44300079    3.64000010    2.71000004
   16.43888855   96.09149933    3.66000009    2.71000004
   16.44222069  101.42600250    3.66000009    2.73000002
   16.44527626   97.17579651    3.70000005    2.71000004
   16.45138931   97.17579651    3.68000007    2.71000004
   16.45527840   98.98519897    3.68000007    2.71000004
   16.45861244   98.43379974    3.73000002    2.71000004
   16.46194458   97.60749817    3.64000010    2.73000002
   16.46500015   93.33719635    3.64000010    2.71000004
   16.46833420   94.48380280    3.64000010    2.71000004
   16.47166634   95.09459686    3.64000010    2.71000004
   16.47472191   97.69090271    3.59999990    2.71000004
   16.47805595  100.61100006    3.64000010    2.71000004
   16.48111153   98.74759674    3.61999989    2.71000004
   16.48388863  102.78800201    3.61999989    2.71000004
   16.48472214   95.78639984    3.59999990    2.71000004
   16.48805618   97.26470184    3.61999989    2.71000004
   16.49416733   97.26470184    3.64000010    2.71000004
   16.49833298  104.49600220    3.64000010    2.71000004
   16.50138855   94.92449951    3.61999989    2.71000004
   16.50472260   96.96579742    3.66000009    2.71000004
   16.50805473   96.92630005    3.61999989    2.71000004
   16.51111031  101.92199707    3.64000010    2.73000002
   16.51444435   93.07460022    3.64000010    2.71000004
   16.51722145  100.47200012    3.61999989    2.71000004
   16.51805496   96.24440002    3.64000010    2.71000004
   16.52138901   93.77549744    3.66000009    2.73000002
   16.52472115  100.49900055    3.66000009    2.73000002
   16.52777672  102.87799835    3.66000009    2.73000002
   16.53111076   98.12509918    3.64000010    2.73000002
   16.53694344   98.12509918    3.68000007    2.71000004
   16.54111099   98.95220184    3.66000009    2.71000004
   16.54444313   92.39720154    3.66000009    2.73000002
   16.54749870   90.98690033    3.66000009    2.71000004
   16.55055428   93.85630035    3.64000010    2.73000002
   16.55111122   94.56719971    3.64000010    2.71000004
   16.55444336   97.61849976    3.66000009    2.71000004
   16.55777740   96.48259735    3.59999990    2.73000002
   16.56083298  110.67900085    3.66000009    2.71000004
   16.56416512  110.33499908    3.66000009    2.73000002
   16.56722260  102.93699646    3.64000010    2.73000002
   16.57055664  101.83200073    3.66000009    2.71000004
   16.57389069   99.46769714    3.66000009    2.71000004
   16.57972336   99.46769714    3.72000003    2.71000004
   16.58388901   98.84349823    3.73000002    2.71000004
   16.58722305  101.89199829    3.75000000    2.71000004
   16.59027863  107.82800293    3.76999998    2.71000004
   16.59361267  103.25499725    3.80999994    2.73000002
   16.59694481   99.78459930    3.80999994    2.71000004
   16.60000038  100.06900024    3.78999996    2.71000004
   16.60333443   96.16419983    3.82999992    2.71000004
   16.60666656   97.90270233    3.80999994    2.71000004
   16.60972214   96.70469666    3.80999994    2.71000004
   16.61305618   99.76589966    3.82999992    2.71000004
   16.61611176  102.20700073    3.80999994    2.71000004
   16.61722183   90.54820251    3.84999990    2.73000002
   16.63777733   90.54820251    3.80999994    2.71000004
   16.64194489   95.97619629    3.82999992    2.71000004
   16.64527702   99.11430359    3.80999994    2.73000002
   16.64833260   93.51909637    3.84999990    2.73000002
   16.65055466   90.67240143    3.80999994    2.71000004
   16.65194321   93.59120178    3.80999994    2.71000004
   16.65527725   87.68969727    3.82999992    2.73000002
   16.65861130   93.18060303    3.80999994    2.73000002
   16.66166687   96.21399689    3.76999998    2.71000004
   16.66499901   96.15280151    3.76999998    2.71000004
   16.66805458   92.21970367    3.76999998    2.73000002
   16.67138863  104.15100098    3.80999994    2.71000004
   16.67472076   97.72419739    3.75000000    2.71000004
   16.68055534   97.72419739    3.76999998    2.71000004
   16.68472099   95.50900269    3.80999994    2.71000004
   16.68805504   97.01670074    3.78999996    2.71000004
   16.69111061   94.94190216    3.80999994    2.73000002
   16.69444275   96.83000183    3.82999992    2.73000002
   16.69749832  101.73300171    3.82999992    2.71000004
   16.70083427   98.96330261    3.82999992    2.71000004
   16.70416832  107.10299683    3.82999992    2.71000004
   16.70722389  101.45600128    3.84999990    2.71000004
   16.71055603   98.07869720    3.84999990    2.71000004
   16.71389008   96.99859619    3.84999990    2.71000004
   16.71694565   93.54209900    3.86999989    2.71000004
   16.71750069   94.46810150    3.84999990    2.71000004
   16.72333336   94.46810150    3.86999989    2.71000004
   16.72750092   89.69969940    3.89000010    2.71000004
   16.73083305   97.39540100    3.86999989    2.71000004
   16.73388863   94.43640137    3.84999990    2.71000004
   16.73722267  101.36100006    3.89000010    2.71000004
   16.74055672   99.20850372    3.84999990    2.71000004
   16.74361229   94.70130157    3.84999990    2.71000004
   16.74694443  109.61000061    3.89000010    2.71000004
   16.75027847   90.90299988    3.89000010    2.73000002
   16.75083351   95.27500153    3.84999990    2.71000004
   16.75388908  107.51999664    3.91000009    2.71000004
   16.75694466   99.24669647    3.84999990    2.73000002
   16.76027870   97.62699890    3.89000010    2.71000004
   16.76638794   97.62699890    3.99000001    2.71000004
   16.77055550   93.47699738    3.97000003    2.71000004
   16.77361107  105.21800232    3.95000005    2.71000004
   16.77694511   95.97660065    3.93000007    2.71000004
   16.78000069   93.84390259    3.97000003    2.71000004
   16.78333282   93.55850220    3.95000005    2.71000004
   16.78416634   97.23590088    3.99000001    2.71000004
   16.78694344   97.69450378    3.93000007    2.71000004
   16.78999901   99.53839874    3.95000005    2.71000004
   16.79333305  103.55599976    4.00000000    2.73000002
   16.79666710   95.71749878    3.95000005    2.71000004
   16.79972076   97.09490204    3.93000007    2.71000004
   16.80305481   99.48110199    3.99000001    2.71000004
   16.80916595   99.48110199    3.95000005    2.71000004
   16.81333351   95.10549927    3.95000005    2.73000002
   16.81638718  100.31400299    3.91000009    2.73000002
   16.81750107   96.90160370    3.89000010    2.71000004
   16.82027817   91.13590240    3.89000010    2.71000004
   16.82333374   98.15779877    3.93000007    2.71000004
   16.82666779   97.95729828    3.89000010    2.73000002
   16.83000183  100.53399658    3.93000007    2.71000004
   16.83305550  103.10299683    3.93000007    2.73000002
   16.83638954  104.67900085    3.95000005    2.71000004
   16.83944511  101.01499939    3.86999989    2.71000004
   16.84277916  101.11900330    3.97000003    2.71000004
   16.84611130   96.26290131    3.99000001    2.73000002
   16.85194397   96.26290131    4.00000000    2.71000004
   16.85611153   99.71859741    4.01999998    2.71000004
   16.85916710   93.58920288    4.01999998    2.71000004
   16.86250114   94.11479950    4.01999998    2.71000004
   16.86583328   89.52420044    3.99000001    2.71000004
   16.86888885   86.65390015    4.01999998    2.71000004
   16.87222290   92.60839844    4.01999998    2.73000002
   16.87555504   92.73410034    4.03999996    2.71000004
   16.87861061   92.68440247    4.00000000    2.73000002
   16.88194466   93.01930237    4.01999998    2.73000002
   16.88416672   95.57319641    4.07999992    2.73000002
   16.88555527   95.91539764    4.03999996    2.71000004
   16.88861084   98.94580078    4.05999994    2.71000004
   16.89472198   98.94580078    4.07999992    2.73000002
   16.89888954   99.28189850    4.05999994    2.73000002
   16.90222168   90.91560364    4.05999994    2.71000004
   16.90527725   96.14640045    4.07999992    2.71000004
   16.90861130   95.43769836    4.09999990    2.73000002
   16.91194344   96.08630371    4.13999987    2.73000002
   16.91499901   98.89869690    4.07999992    2.71000004
   16.91749954  102.46600342    4.05999994    2.75000000
   16.91888809   99.92359924    4.07999992    2.71000004
   16.92194366   94.54969788    4.07999992    2.71000004
   16.92527771   99.39769745    4.09999990    2.71000004
   16.92860985   95.57569885    4.09999990    2.71000004
   16.93166542  101.16899872    4.05999994    2.71000004
   16.93777657  101.16899872    4.11999989    2.71000004
   16.94166565   95.44429779    4.17999983    2.73000002
   16.94499969   91.12699890    4.07999992    2.73000002
   16.94833183   92.77590179    4.11999989    2.73000002
   16.95083427   93.86039734    4.09999990    2.71000004
   16.95194435   89.03320313    4.13999987    2.71000004
   16.95499992   95.29609680    4.13999987    2.71000004
   16.95833397   91.21820068    4.15999985    2.71000004
   16.96166801   90.76660156    4.15999985    2.71000004
   16.96472359   92.34690094    4.17999983    2.71000004
   16.96805573   89.24169922    4.13999987    2.71000004
   16.97138977   89.19349670    4.11999989    2.71000004
   16.97444534   94.90740204    4.15999985    2.71000004
   16.98055649   94.90740204    4.17999983    2.71000004
   16.98472214   95.22889709    4.17999983    2.71000004
   16.98777771   96.55200195    4.17999983    2.71000004
   16.99111176  101.88200378    4.15999985    2.71000004
   16.99444389   98.68379974    4.17999983    2.71000004
   16.99749947   94.60169983    4.15999985    2.71000004
   17.00083351   95.65409851    4.17999983    2.71000004
   17.00388908   92.79219818    4.21999979    2.71000004
   17.00722313   96.61160278    4.19999981    2.71000004
   17.01055527   98.48909760    4.23999977    2.71000004
   17.01361084   93.01909637    4.17999983    2.71000004
   17.01694489   91.50129700    4.21999979    2.71000004
   17.01749992  101.29900360    4.21999979    2.73000002
   17.02333260  101.29900360    4.19999981    2.71000004
   17.02750015  104.86900330    4.17999983    2.71000004
   17.03083229   92.07060242    4.19999981    2.71000004
   17.03388786   98.37090302    4.19999981    2.71000004
   17.03722191   96.67890167    4.23999977    2.71000004
   17.04027748   95.65070343    4.23999977    2.71000004
   17.04361153   96.86550140    4.23999977    2.73000002
   17.04694366   95.67630005    4.26000023    2.71000004
   17.04999924   89.56109619    4.26000023    2.71000004
   17.05083275   95.18160248    4.28999996    2.73000002
   17.05360985  100.63300323    4.23999977    2.71000004
   17.05694389   97.05760193    4.26000023    2.71000004
   17.05999947   95.59880066    4.28999996    2.73000002
   17.06611061   95.59880066    4.26999998    2.73000002
   17.07027817   96.89309692    4.26999998    2.71000004
   17.07361221  102.22000122    4.28999996    2.71000004
   17.07666779   96.88469696    4.26999998    2.71000004
   17.08000183   97.93920135    4.26000023    2.71000004
   17.08333397   88.61679840    4.26999998    2.73000002
   17.08416748   87.83779907    4.28999996    2.71000004
   17.08694458   86.42279816    4.26000023    2.71000004
   17.09000015   90.30239868    4.28999996    2.71000004
   17.09333420   92.95780182    4.28999996    2.71000004
   17.09666824  101.54499817    4.26999998    2.71000004
   17.09972191   95.26770020    4.26999998    2.71000004
   17.10305595   93.37079620    4.26999998    2.71000004
   17.10888863   93.37079620    4.30999994    2.71000004
   17.11305618   90.70300293    4.32999992    2.71000004
   17.11638832   92.21330261    4.34999990    2.71000004
   17.11750031   94.05799866    4.36999989    2.71000004
   17.12000084   90.44190216    4.34999990    2.71000004
   17.12305641   88.26889801    4.34999990    2.71000004
   17.12638855   92.16529846    4.32999992    2.71000004
   17.12972260   91.48850250    4.32999992    2.71000004
   17.13277817   96.16649628    4.34999990    2.71000004
   17.13611031   98.03479767    4.32999992    2.73000002
   17.13944435   92.88809967    4.38999987    2.71000004
   17.14249992   99.30729675    4.34999990    2.71000004
   17.14583397   91.96869659    4.36999989    2.71000004
   17.15194321   91.96869659    4.34999990    2.71000004
   17.15611076   93.67459869    4.34999990    2.71000004
   17.15916634   91.86070251    4.34999990    2.71000004
   17.16250038   94.17340088    4.36999989    2.71000004
   17.16555595   97.36640167    4.36999989    2.71000004
   17.16888809   96.99970245    4.42999983    2.71000004
   17.17222214   91.27100372    4.38999987    2.71000004
   17.17527771   93.80120087    4.42999983    2.71000004
   17.17860985   99.48310089    4.38999987    2.71000004
   17.18194389  105.01899719    4.40999985    2.71000004
   17.18416595   92.54070282    4.38999987    2.71000004
   17.18555450   95.49420166    4.42999983    2.71000004
   17.18861008   95.41580200    4.38999987    2.71000004
   17.19472122   95.41580200    4.40999985    2.71000004
   17.19888878   96.28569794    4.42999983    2.48000002
   17.20194435   93.67410278    4.44999981    2.71000004
   17.20527840   99.66369629    4.51000023    2.71000004
   17.20861244  100.83899689    4.42999983    2.71000004
   17.21166801   95.30860138    4.53000021    2.71000004
   17.21500015   99.14939880    4.48999977    2.71000004
   17.21750069   92.03600311    4.46999979    2.71000004
   17.21861076   98.77680206    4.51000023    2.71000004
   17.22166634   94.51249695    4.53999996    2.71000004
   17.22500038  100.59799957    4.53000021    2.71000004
   17.22833443   92.27809906    4.53000021    2.71000004
   17.23139000   98.36509705    4.53000021    2.71000004
   17.23750114   98.36509705    4.55999994    2.71000004
   17.24166679   95.96420288    4.51000023    2.71000004
   17.24500084   98.99210358    4.51000023    2.71000004
   17.24805641   99.40799713    4.53999996    2.71000004
   17.25083351   93.62419891    4.55999994    2.71000004
   17.25194359   93.78240204    4.46999979    2.71000004
   17.25499916   91.31909943    4.53000021    2.71000004
   17.25833321   89.72239685    4.48999977    2.71000004
   17.26166725   92.82279968    4.53999996    2.71000004
   17.26472282   90.21690369    4.48999977    2.71000004
   17.26805496   92.15670013    4.51000023    2.71000004
   17.27138901   93.22470093    4.55999994    2.71000004
   17.27444458   91.18540192    4.46999979    2.71000004
   17.28027725   91.18540192    4.53999996    2.73000002
   17.28444481   96.14540100    4.53000021    2.73000002
   17.28777695   94.02179718    4.51000023    2.73000002
   17.29083252   92.80400085    4.51000023    2.71000004
   17.29416656   97.83350372    4.59999990    2.71000004
   17.29749870   89.16110229    4.51000023    2.71000004
   17.30055428   93.13150024    4.55999994    2.71000004
   17.30388832   93.52069855    4.57999992    2.71000004
   17.30722237   85.69550323    4.53999996    2.71000004
   17.31027794   95.06999969    4.59999990    2.71000004
   17.31361008   97.34480286    4.61999989    2.71000004
   17.31694603   95.92819977    4.57999992    2.71000004
   17.31750107   92.59470367    4.63999987    2.71000004
   17.32333374   92.59470367    4.63999987    2.71000004
   17.32750130   91.39869690    4.65999985    2.71000004
   17.33055687   91.87319946    4.63999987    2.71000004
   17.33388901   89.17330170    4.69999981    2.71000004
   17.33722305   89.86409760    4.61999989    2.71000004
   17.34027863   92.01239777    4.61999989    2.71000004
   17.34361267   96.98169708    4.65999985    2.71000004
   17.34666824   97.78389740    4.57999992    2.71000004
   17.35000038   89.77539825    4.61999989    2.71000004
   17.35083389   92.91580200    4.63999987    2.71000004
   17.35361099   94.26719666    4.57999992    2.71000004
   17.35694504   88.78759766    4.59999990    2.71000004
   17.36000061   92.46869659    4.67999983    2.69000006
   17.36611176   92.46869659    4.61999989    2.71000004
   17.37027740   91.07820129    4.59999990    2.71000004
   17.37333298   97.84700012    4.63999987    2.71000004
   17.37666702   92.99299622    4.63999987    2.69000006
   17.38000107   94.77159882    4.65999985    2.71000004
   17.38305473   88.51540375    4.69999981    2.71000004
   17.38416672  100.66999817    4.67999983    2.71000004
   17.38666725   92.60929871    4.71999979    2.71000004
   17.38999939   92.83630371    4.67999983    2.71000004
   17.39305496  102.22100067    4.67999983    2.71000004
   17.39638901   95.24150085    4.73999977    2.71000004
   17.39972115   94.32330322    4.71999979    2.69000006
   17.40277672   97.58339691    4.73999977    2.71000004
   17.40888786   97.58339691    4.76000023    2.71000004
   17.41305542   95.00039673    4.73999977    2.71000004
   17.41638756   92.79039764    4.73999977    2.71000004
   17.41749954   92.79769897    4.73999977    2.69000006
   17.42000008   95.64730072    4.78000021    2.71000004
   17.42333221   89.99199677    4.67999983    2.71000004
   17.42638779   94.36589813    4.80000019    2.71000004
   17.42972183   95.76560211    4.78000021    2.71000004
   17.43277740  101.51200104    4.73999977    2.71000004
   17.43610954   99.26390076    4.71999979    2.71000004
   17.43944359   96.47630310    4.71999979    2.71000004
   17.44249916   90.07389832    4.71999979    2.71000004
   17.44583321   84.78320313    4.67999983    2.73000002
   17.45166779   84.78320313    4.76000023    2.71000004
   17.45583344   94.11440277    4.76000023    2.71000004
   17.45916748   94.66200256    4.71999979    2.71000004
   17.46222305   98.61109924    4.69999981    2.71000004
   17.46555710   94.68869781    4.71999979    2.71000004
   17.46888924   93.35649872    4.73999977    2.71000004
   17.47222328   91.45659637    4.78000021    2.71000004
   17.47527885   96.16130066    4.76000023    2.71000004
   17.47861099   91.15380096    4.80000019    2.69000006
   17.48166656   92.50499725    4.78000021    2.71000004
   17.48416710   97.14520264    4.82999992    2.71000004
   17.48555565   92.76339722    4.80000019    2.71000004
   17.48888969   89.99069977    4.76000023    2.71000004
   17.49472237   89.99069977    4.80999994    2.71000004
   17.49861145   92.20369720    4.82999992    2.71000004
   17.50194359   98.40670013    4.82999992    2.71000004
   17.50527763   94.52690125    4.82999992    2.71000004
   17.50833321   94.61129761    4.80999994    2.71000004
   17.51166725   94.87460327    4.82999992    2.71000004
   17.51499939   87.13780212    4.86999989    2.71000004
   17.51749992   88.02819824    4.82999992    2.71000004
   17.51861000   90.14790344    4.82999992    2.71000004
   17.52194405   90.17030334    4.84999990    2.71000004
   17.52499962   89.57800293    4.88999987    2.73000002
   17.52833366   92.38430023    4.84999990    2.71000004
   17.53138924   95.33910370    4.80000019    2.71000004
   17.53750038   95.33910370    4.78000021    2.69000006
   17.54166603   96.53109741    4.80000019    2.71000004
   17.54472160   89.54139709    4.84999990    2.71000004
   17.54805565   96.59020233    4.82999992    2.69000006
   17.55083275   90.43910217    4.82999992    2.71000004
   17.55166626   90.22480011    4.80999994    2.71000004
   17.55499840   92.47530365    4.84999990    2.71000004
   17.55805397   90.39479828    4.80999994    2.71000004
   17.56138802   91.72070313    4.76000023    2.71000004
   17.56444359   89.73989868    4.82999992    2.71000004
   17.56777954   91.54550171    4.84999990    2.71000004
   17.57111168   96.64779663    4.86999989    2.71000004
   17.57416725   90.14689636    4.86999989    2.71000004
   17.58027840   90.14689636    4.84999990    2.71000004
   17.58444595   94.57170105    4.90999985    2.71000004
   17.58777809   93.20059967    4.88999987    2.71000004
   17.59083366   93.28949738    4.90999985    2.71000004
   17.59416771   96.04299927    4.90999985    2.71000004
   17.59722328  102.48799896    4.90999985    2.71000004
   17.60055542   94.24079895    4.90999985    2.71000004
   17.60388947   98.30930328    4.90999985    2.69000006
   17.60694504   91.49770355    4.90999985    2.71000004
   17.61027908   91.27200317    4.90999985    2.71000004
   17.61361122   92.69529724    4.90999985    2.71000004
   17.61666679   93.42659760    4.90999985    2.71000004
   17.61750031   94.17400360    4.84999990    2.69000006
   17.62305641   94.17400360    4.90999985    2.71000004
   17.62722206   91.82109833    4.90999985    2.71000004
   17.63055611   93.19360352    4.88999987    2.71000004
   17.63388824   89.66239929    4.90999985    2.71000004
   17.65138817   88.75499725    4.90999985    2.71000004
   17.65361023   89.43180084    4.90999985    2.69000006
   17.65694427   95.23600006    4.90999985    2.71000004
   17.66027832   91.84220123    4.90999985    2.71000004
   17.66611099   91.84220123    4.90999985    2.69000006
   17.67027664   89.16860199    4.90999985    2.71000004
   17.67361069   94.59880066    4.90999985    2.71000004
   17.67666626   90.59680176    4.90999985    2.71000004
   17.68000031   92.65350342    4.90999985    2.69000006
   17.68333244   91.57089996    4.90999985    2.71000004
   17.68472099   84.77169800    4.90999985    2.71000004
   17.68666649   86.88970184    4.90999985    2.71000004
   17.68999863   90.40550232    4.90999985    2.73000002
   17.69305420   86.10769653    4.90999985    2.71000004
   17.69638824   88.43250275    4.90999985    2.71000004
   17.69972038   90.44719696    4.90999985    2.71000004
   17.70277786   91.28800201    4.90999985    2.71000004
   17.70916748   91.28800201    4.90999985    2.71000004
   17.71305656   87.62699890    4.90999985    2.71000004
   17.71638870   95.30549622    4.90999985    2.71000004
   17.71805573   92.73220062    4.90999985    2.71000004
   17.72000122   93.39700317    4.90999985    2.71000004
   17.72333336   94.16840363    4.90999985    2.69000006
   17.72638893   91.85679626    4.90999985    2.73000002
   17.72972298   95.96669769    4.90999985    2.71000004
   17.73305511   96.48190308    4.90999985    2.71000004
   17.73611069   91.13680267    4.90999985    2.71000004
   17.73944473   98.45850372    4.90999985    2.67000008
   17.74277878   92.11750031    4.90999985    2.69000006
   17.74583435   93.69429779    4.90999985    2.71000004
   17.75194359   93.69429779    4.90999985    2.71000004
   17.75611115   94.08200073    4.90999985    2.71000004
   17.75916672   93.85440063    4.90999985    2.71000004
   17.76250076   95.30770111    4.90999985    2.71000004
   17.76555634   98.03410339    4.90999985    2.71000004
   17.76888847   94.71289825    4.90999985    2.69000006
   17.77222252   85.65650177    4.90999985    2.69000006
   17.77527809   90.40200043    4.90999985    2.71000004
   17.77861023   94.41169739    4.90999985    2.71000004
   17.78194427   87.98509979    4.90999985    2.71000004
   17.78472137   91.07530212    4.90999985    2.71000004
   17.78527641   93.60109711    4.90999985    2.71000004
   17.78861046   88.16310120    4.90999985    2.71000004
   17.79472160   88.16310120    4.90999985    2.69000006
   17.79888916   97.88310242    4.90999985    2.71000004
   17.80194283   93.60449982    4.90999985    2.71000004
   17.80527687   96.54109955    4.90999985    2.69000006
   17.80861092   92.60119629    4.90999985    2.69000006
   17.81166649   93.06269836    4.90999985    2.71000004
   17.81499863   92.51760101    4.90999985    2.71000004
   17.81805611   92.76869965    4.90999985    2.71000004
   17.81861115   96.21379852    4.90999985    2.71000004
   17.82194519   95.71649933    4.90999985    2.71000004
   17.82527924   91.76570129    4.90999985    2.71000004
   17.82833481   95.94039917    4.90999985    2.71000004
   17.83166695   94.92890167    4.90999985    2.71000004
   17.83750153   94.92890167    4.90999985    2.71000004
   17.84166718   95.10949707    4.90999985    2.71000004
   17.84500122   90.48329926    4.90999985    2.71000004
   17.84805679   93.22429657    4.90999985    2.71000004
   17.85138893   94.23729706    4.90999985    2.71000004
   17.85166740   91.79750061    4.90999985    2.71000004
   17.85499954   98.20690155    4.90999985    2.71000004
   17.85805511   92.08630371    4.90999985    2.71000004
   17.86138916   95.72699738    4.90999985    2.69000006
   17.86472321  101.00199890    4.90999985    2.69000006
   17.86777878   98.04750061    4.90999985    2.71000004
   17.87111092   97.49250031    4.90999985    2.71000004
   17.87444496   88.66249847    4.90999985    2.71000004
   17.88027763   88.66249847    4.90999985    2.71000004
   17.88472176   97.57779694    4.90999985    2.71000004
   17.88500023   99.28079987    4.90999985    2.71000004
   17.88833237   91.60939789    4.90999985    2.71000004
   17.89138794   93.22170258    4.90999985    2.71000004
   17.89472198   97.46849823    4.90999985    2.71000004
   17.89805603   92.41819763    4.90999985    2.71000004
   17.90111160   94.99849701    4.90999985    2.69000006
   17.90444374   99.75160217    4.90999985    2.69000006
   17.90777779   92.03379822    4.90999985    2.71000004
   17.91083336   85.09799957    4.90999985    2.71000004
   17.91416550   89.31120300    4.90999985    2.71000004
   17.91749954   91.55030060    4.90999985    2.71000004
   17.91805458   98.58730316    4.90999985    2.71000004
   17.92333221   98.58730316    4.90999985    2.69000006
   17.92749977   93.44080353    4.90999985    2.71000004
   17.93055534   93.47679901    4.90999985    2.71000004
   17.93388748   90.33989716    4.90999985    2.69000006
   17.93694305   96.35469818    4.90999985    2.71000004
   17.94027710   96.86380005    4.90999985    2.71000004
   17.94361115   89.92430115    4.90999985    2.71000004
   17.94666672   93.07309723    4.90999985    2.71000004
   17.95000076   93.03340149    4.90999985    2.71000004
   17.95138931   91.05020142    4.90999985    2.71000004
   17.95361137   89.09320068    4.90999985    2.71000004
   17.95694542   91.73439789    4.90999985    2.71000004
   17.96027946   94.37619781    4.90999985    2.69000006
   17.96611214   94.37619781    4.90999985    2.71000004
   17.97027779   91.30090332    4.90999985    2.71000004
   17.97333336   91.12249756    4.90999985    2.71000004
   17.97666740   97.69809723    4.90999985    2.69000006
   17.98027802   90.13619995    4.90999985    2.71000004
   17.98333359   89.20420074    4.90999985    2.69000006
   17.98472214   96.53250122    4.90999985    2.71000004
   17.98694420   92.12270355    4.90999985    2.71000004
   17.99027824   96.61679840    4.90999985    2.69000006
   17.99361229   99.63659668    4.90999985    2.71000004
   17.99666786   89.66539764    4.90999985    2.71000004
   18.00000000   89.99369812    4.90999985    2.71000004
   18.00305557   94.56649780    4.90999985    2.71000004
   18.00888824   94.56649780    4.90999985    2.69000006
   18.01305580   87.51809692    4.90999985    2.71000004
   18.01638794   86.09290314    4.90999985    2.69000006
   18.01805496   91.17630005    4.90999985    2.71000004
   18.01972198   90.30770111    4.90999985    2.71000004
   18.02305603   94.47080231    4.90999985    2.71000004
   18.02638817   89.41410065    4.90999985    2.71000004
   18.02944374   93.93830109    4.90999985    2.69000006
   18.03277779   87.46759796    4.90999985    2.71000004
   18.03583336   73.94300079    4.90999985    2.71000004
   18.03916550   91.95600128    4.90999985    2.71000004
   18.04249954   85.52559662    4.90999985    2.71000004
   18.04555511   88.44149780    4.90999985    2.71000004
   18.05194283   88.44149780    4.90999985    2.71000004
   18.05583191   90.19000244    4.90999985    2.71000004
   18.05916595   98.69709778    4.90999985    2.71000004
   18.06250000   89.15200043    4.90999985    2.69000006
   18.06555557   93.96199799    4.90999985    2.71000004
   18.06888962   92.04969788    4.90999985    2.71000004
   18.07222366   93.97200012    4.90999985    2.71000004
   18.07527924   85.06250000    4.90999985    2.71000004
   18.07861137   86.46869659    4.90999985    2.71000004
   18.08194542   91.46019745    4.90999985    2.71000004
   18.08472252   88.83860016    4.90999985    2.69000006
   18.08527756   92.55850220    4.90999985    2.71000004
   18.08861160   91.04699707    4.90999985    2.69000006
   18.09472275   91.04699707    4.90999985    2.71000004
   18.09889030   89.21309662    4.90999985    2.69000006
   18.10194397   94.48899841    4.90999985    2.69000006
   18.10527802   89.39009857    4.90999985    2.71000004
   18.10833359   92.10320282    4.90999985    2.71000004
   18.11166763   94.38279724    4.90999985    2.71000004
   18.11499977   90.55149841    4.90999985    2.71000004
   18.11805534   88.95939636    4.90999985    2.71000004
   18.11833382   89.44819641    4.90999985    2.71000004
   18.12166595   88.25720215    4.90999985    2.71000004
   18.12500000   90.44550323    4.90999985    2.71000004
   18.12805557   94.03040314    4.90999985    2.71000004
   18.13138962   96.60019684    4.90999985    2.71000004
   18.13750076   96.60019684    4.90999985    2.71000004
   18.14166641   94.34410095    4.90999985    2.71000004
   18.14472198   98.12770081    4.90999985    2.69000006
   18.14805603   86.50720215    4.90999985    2.69000006
   18.15138817   94.49559784    4.90999985    2.69000006
   18.15166664   92.72100067    4.90999985    2.69000006
   18.15499878   87.98940277    4.90999985    2.69000006
   18.15833282   89.61419678    4.90999985    2.71000004
   18.16138840   92.76490021    4.90999985    2.69000006
   18.16472244   94.63569641    4.90999985    2.69000006
   18.16777802   93.67269897    4.90999985    2.69000006
   18.17111015   90.92489624    4.90999985    2.69000006
   18.17444420   92.70760345    4.90999985    2.69000006
   18.18027687   92.70760345    4.90999985    2.71000004
   18.18444443   92.49579620    4.90999985    2.71000004
   18.18499947   94.49909973    4.90999985    2.71000004
   18.18833160   89.98729706    4.90999985    2.71000004
   18.19138718   88.91320038    4.90999985    2.69000006
   18.19472122   89.90249634    4.90999985    2.69000006
   18.19777679   90.06690216    4.90999985    2.69000006
   18.20111275   92.23169708    4.90999985    2.71000004
   18.20444489   88.53579712    4.90999985    2.69000006
   18.20750046   89.63719940    4.90999985    2.71000004
   18.21083450   86.23429871    4.90999985    2.69000006
   18.21416664   94.09510040    4.90999985    2.69000006
   18.21722221   91.08920288    4.90999985    2.69000006
   18.21833420   92.22959900    4.90999985    2.71000004
   18.22333336   92.22959900    4.90999985    2.69000006
   18.22722244   93.66739655    4.90999985    2.69000006
   18.23055649   95.10949707    4.90999985    2.69000006
   18.23388863   96.55629730    4.90999985    2.69000006
   18.23694420   95.60500336    4.90999985    2.69000006
   18.24027824   92.79519653    4.90999985    2.69000006
   18.24361229   88.63130188    4.90999985    2.69000006
   18.24666786   90.95739746    4.90999985    2.69000006
   18.25000000   90.97750092    4.90999985    2.69000006
   18.25166702   93.42060089    4.90999985    2.69000006
   18.25361061   91.18370056    4.90999985    2.69000006
   18.25666618   86.06780243    4.90999985    2.71000004
   18.26000023   88.77429962    4.90999985    2.69000006
   18.26611137   88.77429962    4.90999985    2.71000004
   18.27027702   93.62490082    4.90999985    2.71000004
   18.27333260   92.72769928    4.90999985    2.69000006
   18.27666664   80.93150330    4.90999985    2.69000006
   18.27972221   93.10600281    4.90999985    2.69000006
   18.28305435   91.33129883    4.90999985    2.69000006
   18.28499985   87.19879913    4.90999985    2.69000006
   18.28666687   95.20809937    4.90999985    2.71000004
   18.28972244   84.71749878    4.90999985    2.69000006
   18.29305458   85.43370056    4.90999985    2.71000004
   18.29638863   90.34100342    4.90999985    2.71000004
   18.29944420   91.53450012    4.90999985    2.69000006
   18.30277634   90.47370148    4.90999985    2.69000006
   18.30888748   90.47370148    4.90999985    2.69000006
   18.31305504   89.94840240    4.90999985    2.69000006
   18.31611061   89.45310211    4.90999985    2.69000006
   18.31833458   92.69080353    4.90999985    2.71000004
   18.32000160   88.94360352    4.90999985    2.69000006
   18.32305717   90.79299927    4.90999985    2.71000004
   18.32638931   89.80470276    4.90999985    2.69000006
   18.32972336   88.71099854    4.90999985    2.69000006
   18.33277893   91.96520233    4.90999985    2.69000006
   18.33611107   97.07360077    4.90999985    2.69000006
   18.33916664   92.20909882    4.90999985    2.69000006
   18.34250069   94.88739777    4.90999985    2.69000006
   18.34583473   86.68920135    4.90999985    2.69000006
   18.35166740   86.68920135    4.90999985    2.69000006
   18.35583305   96.76180267    4.90999985    2.69000006
   18.35916710   88.66439819    4.90999985    2.69000006
   18.36222267   88.02339935    4.90999985    2.71000004
   18.36555672   96.16909790    4.90999985    2.69000006
   18.36888885   88.48960114    4.90999985    2.69000006
   18.37194443   92.67859650    4.90999985    2.69000006
   18.37527847   93.29060364    4.90999985    2.69000006
   18.37833405   93.11219788    4.90999985    2.69000006
   18.38166618   93.58869934    4.90999985    2.69000006
   18.38500023   88.03679657    4.90999985    2.69000006
   18.38555527   91.11679840    4.90999985    2.69000006
   18.38861084   90.15750122    4.90999985    2.69000006
   18.39444351   90.15750122    4.90999985    2.69000006
   18.39861107   88.16329956    4.90999985    2.69000006
   18.40194321   90.98169708    4.90999985    2.69000006
   18.40527725   94.26080322    4.90999985    2.69000006
   18.40833282   96.98770142    4.90999985    2.69000006
   18.41166687   89.37570190    4.90999985    2.69000006
   18.41472244   92.43859863    4.90999985    2.69000006
   18.41805458   89.69419861    4.90999985    2.69000006
   18.41888809   99.78389740    4.90999985    2.69000006
   18.42166519   93.51840210    4.90999985    2.69000006
   18.42499924   97.83779907    4.90999985    2.69000006
   18.42833328   93.74990082    4.90999985    2.69000006
   18.43138885   94.34239960    4.90999985    2.69000006
   18.43750000   94.34239960    4.90999985    2.69000006
   18.44166565   91.56359863    4.90999985    2.69000006
   18.44472122   93.58740234    4.90999985    2.67000008
   18.44805527   87.12699890    4.90999985    2.69000006
   18.45111275   91.42530060    4.90999985    2.69000006
   18.45222282  100.70300293    4.90999985    2.67000008
   18.45472336   92.32009888    4.90999985    2.67000008
   18.45805550   84.91069794    4.90999985    2.69000006
   18.46138954   89.79039764    4.90999985    2.67000008
   18.46444511   88.91120148    4.90999985    2.67000008
   18.46777916   87.38220215    4.90999985    2.69000006
   18.47083473   87.69550323    4.90999985    2.69000006
   18.47416687   90.89399719    4.90999985    2.69000006
   18.48027802   90.89399719    4.90999985    2.67000008
   18.48444557   90.10119629    4.90999985    2.67000008
   18.48555565   91.59269714    4.90999985    2.69000006
   18.48805618   89.89109802    4.90999985    2.69000006
   18.49138832   87.63110352    4.90999985    2.67000008
   18.49472237   96.97339630    4.90999985    2.67000008
   18.49777794   92.26940155    4.90999985    2.66000009
   18.50111198   91.22139740    4.90999985    2.69000006
   18.50416756   90.24440002    4.90999985    2.67000008
   18.50749969   98.63800049    4.90999985    2.67000008
   18.51083374   89.59870148    4.90999985    2.69000006
   18.51388931   90.75180054    4.90999985    2.69000006
   18.51722145   95.88929749    4.90999985    2.67000008
   18.51888847   97.01679993    4.90999985    2.67000008
   18.52305603   97.01679993    4.90999985    2.69000006
   18.52722168   97.70429993    4.90999985    2.69000006
   18.53055573   90.36830139    4.90999985    2.69000006
   18.53361130   89.33619690    4.90999985    2.69000006
   18.53694344   89.50150299    4.90999985    2.69000006
   18.54027748   91.46080017    4.90999985    2.67000008
   18.54333305   93.26599884    4.90999985    2.69000006
   18.54666710   93.29489899    4.90999985    2.69000006
   18.54972076   93.41539764    4.90999985    2.69000006
   18.55222130   94.48940277    4.90999985    2.69000006
   18.55333328   92.89630127    4.90999985    2.71000004
   18.55666542   86.71620178    4.90999985    2.69000006
   18.55999947   90.27369690    4.90999985    2.69000006
   18.56583214   90.27369690    4.90999985    2.69000006
   18.57000160   89.23940277    4.90999985    2.69000006
   18.57333374   92.03140259    4.90999985    2.69000006
   18.57666779   92.15599823    4.90999985    2.69000006
   18.57972336   90.34519958    4.90999985    2.69000006
   18.58305550   91.93009949    4.90999985    2.69000006
   18.58555603   93.87660217    4.90999985    2.69000006
   18.58666801   97.23880005    4.90999985    2.69000006
   18.59000015   90.39659882    4.90999985    2.67000008
   18.59333420   98.58740234    4.90999985    2.69000006
   18.59638977   90.67759705    4.90999985    2.69000006
   18.59972191   86.62090302    4.90999985    2.67000008
   18.60277748   89.50730133    4.90999985    2.69000006
   18.60888863   89.50730133    4.90999985    2.69000006
   18.61305618   94.79389954    4.90999985    2.69000006
   18.61611176   92.93979645    4.90999985    2.69000006
   18.61888885   89.02140045    4.90999985    2.69000006
   18.61972237   87.30439758    4.90999985    2.69000006
   18.62305641   87.63710022    4.90999985    2.67000008
   18.62638855   94.10780334    4.90999985    2.69000006
   18.62944412   90.87640381    4.90999985    2.67000008
   18.63277817   90.39530182    4.90999985    2.69000006
   18.63583374   85.20480347    4.90999985    2.67000008
   18.63916588   95.24770355    4.90999985    2.69000006
   18.64249992   91.87159729    4.90999985    2.67000008
   18.64555550   87.28109741    4.90999985    2.69000006
   18.65166664   87.28109741    4.90999985    2.67000008
   18.67000008   88.67839813    4.90999985    2.67000008
   18.67333221   91.17369843    4.90999985    2.67000008
   18.67638779   89.57640076    4.90999985    2.67000008
   18.67972183   93.59639740    4.90999985    2.67000008
   18.68305397   -1.00000000    4.90999985    2.67000008
   18.68610954   -1.00000000    4.90999985    2.67000008
   18.68944359   -1.00000000    4.90999985    2.67000008
   18.69888878   -1.00000000    4.90999985    2.69000006
   18.70194435   -1.00000000    4.90999985    2.67000008
   18.70527840   -1.00000000    4.90999985    2.67000008
   18.70861244   -1.00000000    4.90999985    2.67000008
   18.71194458   -1.00000000    4.90999985    2.67000008
   18.71500015   -1.00000000    4.90999985    2.67000008
   18.71833420   -1.00000000    4.90999985    2.69000006
   18.72166634   -1.00000000    4.90999985    2.67000008
   18.72472191   -1.00000000    4.90999985    2.69000006
   18.72805595   -1.00000000    4.90999985    2.67000008
   18.73111153   -1.00000000    4.90999985    2.69000006
   18.73750114   -1.00000000    4.90999985    2.69000006
   18.74166679   -1.00000000    4.90999985    2.67000008
   18.74500084   -1.00000000    4.90999985    2.69000006
   18.74805641   -1.00000000    4.90999985    2.67000008
   18.75138855   -1.00000000    4.90999985    2.67000008
   18.75472260   -1.00000000    4.90999985    2.67000008
   18.75777817   -1.00000000    4.90999985    2.67000008
   18.76111031   -1.00000000    4.90999985    2.69000006
   18.76444435   -1.00000000    4.90999985    2.67000008
   18.76749992   -1.00000000    4.90999985    2.69000006
   18.77111053   -1.00000000    4.90999985    2.67000008
   18.77444458   -1.00000000    4.90999985    2.67000008
   18.78055573   -1.00000000    4.90999985    2.67000008
   18.78444481   -1.00000000    4.90999985    2.67000008
   18.78777695   -1.00000000    4.90999985    2.67000008
   18.79111099   -1.00000000    4.90999985    2.67000008
   18.79416656   -1.00000000    4.90999985    2.67000008
   18.79749870   -1.00000000    4.90999985    2.69000006
   18.80083275   -1.00000000    4.90999985    2.67000008
   18.80416679   -1.00000000    4.90999985    2.67000008
   18.80749893   -1.00000000    4.90999985    2.67000008
   18.81083298   -1.00000000    4.90999985    2.67000008
   18.81388855   -1.00000000    4.90999985    2.67000008
   18.81722260   -1.00000000    4.90999985    2.67000008
   18.82333374   -1.00000000    4.90999985    2.67000008
   18.82750130   -1.00000000    4.90999985    2.67000008
   18.83055687   -1.00000000    4.90999985    2.67000008
   18.83388901   -1.00000000    4.90999985    2.67000008
   18.83722305   -1.00000000    4.90999985    2.67000008
   18.84055710   -1.00000000    4.90999985    2.67000008
   18.84388924   -1.00000000    4.90999985    2.67000008
   18.84694481   -1.00000000    4.90999985    2.67000008
   18.85027885   -1.00000000    4.90999985    2.67000008
   18.85361099   -1.00000000    4.90999985    2.67000008
   18.85666656   -1.00000000    4.90999985    2.67000008
   18.86000061   -1.00000000    4.90999985    2.67000008
   18.86611176   -1.00000000    4.90999985    2.67000008
   18.87027740   -1.00000000    4.90999985    2.67000008
   18.87361145   -1.00000000    4.90999985    2.67000008
   18.87666702   -1.00000000    4.90999985    2.66000009
   18.88000107   -1.00000000    4.90999985    2.67000008
   18.88305473   -1.00000000    4.90999985    2.67000008
   18.88638878   -1.00000000    4.90999985    2.67000008
   18.88972282   -1.00000000    4.90999985    2.67000008
   18.89277840   -1.00000000    4.90999985    2.67000008
   18.89611053   -1.00000000    4.90999985    2.67000008
   18.89944458   -1.00000000    4.90999985    2.67000008
   18.90250015   -1.00000000    4.90999985    2.67000008
   18.90888786   -1.00000000    4.90999985    2.67000008
   18.91305542   -1.00000000    4.90999985    2.67000008
   18.91638756   -1.00000000    4.90999985    2.67000008
   18.91944313   -1.00000000    4.90999985    2.67000008
   18.92277718   -1.00000000    4.90999985    2.67000008
   18.92611122   -1.00000000    4.90999985    2.67000008
   18.92916679   -1.00000000    4.90999985    2.67000008
   18.93249893   -1.00000000    4.90999985    2.66000009
   18.93583298   -1.00000000    4.90999985    2.67000008
   18.93944359   -1.00000000    4.90999985    2.67000008
   18.94249916   -1.00000000    4.90999985    2.67000008
   18.94583321   -1.00000000    4.90999985    2.67000008
   18.95194435   -1.00000000    4.90999985    2.67000008
   18.95583344   -1.00000000    4.90999985    2.67000008
   18.95916748   -1.00000000    4.90999985    2.66000009
   18.96250153   -1.00000000    4.90999985    2.67000008
   18.96555710   -1.00000000    4.90999985    2.67000008
   18.96888924   -1.00000000    4.90999985    2.67000008
   18.97249985   -1.00000000    4.90999985    2.67000008
   18.97555542   -1.00000000    4.90999985    2.67000008
   18.97888947   -1.00000000    4.90999985    2.66000009
   18.98194504   -1.00000000    4.90999985    2.66000009
   18.98527718   -1.00000000    4.90999985    2.67000008
   18.98861122   -1.00000000    4.90999985    2.67000008
   18.99472237   -1.00000000    4.90999985    2.67000008
   18.99888992   -1.00000000    4.90999985    2.67000008
   19.00194359   -1.00000000    4.90999985    2.67000008
   19.00555611   -1.00000000    4.90999985    2.67000008
   19.00861168   -1.00000000    4.90999985    2.67000008
   19.01194382   -1.00000000    4.90999985    2.67000008
   19.01499939   -1.00000000    4.90999985    2.67000008
   19.01833344   -1.00000000    4.90999985    2.67000008
   19.02166557   -1.00000000    4.90999985    2.67000008
   19.02472115   -1.00000000    4.90999985    2.66000009
   19.02805519   -1.00000000    4.90999985    2.67000008
   19.03138924   -1.00000000    4.90999985    2.66000009
   19.03750038   -1.00000000    4.90999985    2.66000009
   19.04166603   -1.00000000    4.90999985    2.66000009
   19.04500008   -1.00000000    4.90999985    2.66000009
   19.04805565   -1.00000000    4.90999985    2.67000008
   19.05138779   -1.00000000    4.90999985    2.66000009
   19.05444336   -1.00000000    4.90999985    2.67000008
   19.05777740   -1.00000000    4.90999985    2.67000008
   19.06110954   -1.00000000    4.90999985    2.67000008
   19.06416512   -1.00000000    4.90999985    2.66000009
   19.06750107   -1.00000000    4.90999985    2.66000009
   19.07111168   -1.00000000    4.90999985    2.66000009
   19.07416725   -1.00000000    4.90999985    2.66000009
   19.08027840   -1.00000000    4.90999985    2.66000009
   19.08444595   -1.00000000    4.90999985    2.66000009
   19.08777809   -1.00000000    4.90999985    2.66000009
   19.09111214   -1.00000000    4.90999985    2.64000010
   19.09416771   -1.00000000    4.90999985    2.67000008
   19.09749985   -1.00000000    4.90999985    2.66000009
   19.10055542   -1.00000000    4.90999985    2.66000009
   19.10444450   -1.00000000    4.90999985    2.66000009
   19.10750008   -1.00000000    4.90999985    2.66000009
   19.11083412   -1.00000000    4.90999985    2.66000009
   19.11388969   -1.00000000    4.90999985    2.66000009
   19.11722183   -1.00000000    4.90999985    2.66000009
   19.12333298   -1.00000000    4.90999985    2.66000009
   19.12750053   -1.00000000    4.90999985    2.66000009
   19.13055611   -1.00000000    4.90999985    2.66000009
   19.13388824   -1.00000000    4.90999985    2.66000009
   19.13750076   -1.00000000    4.90999985    2.66000009
   19.14055634   -1.00000000    4.90999985    2.66000009
   19.14388847   -1.00000000    4.90999985    2.66000009
   19.14722252   -1.00000000    4.90999985    2.66000009
   19.15027809   -1.00000000    4.90999985    2.66000009
   19.15361023   -1.00000000    4.90999985    2.66000009
   19.15666580   -1.00000000    4.90999985    2.66000009
   19.16027832   -1.00000000    4.90999985    2.64000010
   19.17000008   -1.00000000    4.90999985    2.67000008
   19.17333221   -1.00000000    4.90999985    2.66000009
   19.17666626   -1.00000000    4.90999985    2.66000009
   19.17972183   -1.00000000    4.90999985    2.66000009
   19.18305397   -1.00000000    4.90999985    2.66000009
   19.18638802   -1.00000000    4.90999985    2.66000009
   19.18944359   -1.00000000    4.90999985    2.64000010
   19.19277763   -1.00000000    4.90999985    2.66000009
   19.19583321   -1.00000000    4.90999985    2.64000010
   19.19916534   -1.00000000    4.90999985    2.66000009
   19.20250130   -1.00000000    4.90999985    2.64000010
   19.20888901   -1.00000000    4.90999985    2.64000010
   19.21305656   -1.00000000    4.90999985    2.64000010
   19.21638870   -1.00000000    4.90999985    2.64000010
   19.21944427   -1.00000000    4.90999985    2.66000009
   19.22277832   -1.00000000    4.90999985    2.66000009
   19.22611237   -1.00000000    4.90999985    2.66000009
   19.22916794   -1.00000000    4.90999985    2.64000010
   19.23250008   -1.00000000    4.90999985    2.66000009
   19.23583412   -1.00000000    4.90999985    2.66000009
   19.23944473   -1.00000000    4.90999985    2.67000008
   19.24250031   -1.00000000    4.90999985    2.64000010
   19.24583435   -1.00000000    4.90999985    2.66000009
   19.25166702   -1.00000000    4.90999985    2.66000009
   19.25583267   -1.00000000    4.90999985    2.64000010
   19.25916672   -1.00000000    4.90999985    2.66000009
   19.26222229   -1.00000000    4.90999985    2.66000009
   19.26555634   -1.00000000    4.90999985    2.66000009
   19.26888847   -1.00000000    4.90999985    2.66000009
   19.27249908   -1.00000000    4.90999985    2.66000009
   19.27555466   -1.00000000    4.90999985    2.64000010
   19.27888870   -1.00000000    4.90999985    2.66000009
   19.28222275   -1.00000000    4.90999985    2.64000010
   19.28527641   -1.00000000    4.90999985    2.66000009
   19.28861046   -1.00000000    4.90999985    2.66000009
   19.29472160   -1.00000000    4.90999985    2.66000009
   19.29861069   -1.00000000    4.90999985    2.66000009
   19.30194283   -1.00000000    4.90999985    2.64000010
   19.30555534   -1.00000000    4.90999985    2.66000009
   19.30861092   -1.00000000    4.90999985    2.64000010
   19.31194305   -1.00000000    4.90999985    2.66000009
   19.31527710   -1.00000000    4.90999985    2.66000009
   19.31833458   -1.00000000    4.90999985    2.66000009
   19.32166672   -1.00000000    4.90999985    2.64000010
   19.32500076   -1.00000000    4.90999985    2.64000010
   19.32805634   -1.00000000    4.90999985    2.66000009
   19.33139038   -1.00000000    4.90999985    2.66000009
   19.33750153   -1.00000000    4.90999985    2.64000010
   19.34166718   -1.00000000    4.90999985    2.66000009
   19.34472275   -1.00000000    4.90999985    2.66000009
   19.34805679   -1.00000000    4.90999985    2.66000009
   19.35138893   -1.00000000    4.90999985    2.64000010
   19.35444450   -1.00000000    4.90999985    2.66000009
   19.35777855   -1.00000000    4.90999985    2.64000010
   19.36083412   -1.00000000    4.90999985    2.64000010
   19.36416626   -1.00000000    4.90999985    2.64000010
   19.36750031   -1.00000000    4.90999985    2.64000010
   19.37111092   -1.00000000    4.90999985    2.64000010
   19.37416649   -1.00000000    4.90999985    2.64000010
   19.38027763   -1.00000000    4.90999985    2.64000010
   19.38444519   -1.00000000    4.90999985    2.64000010
   19.38777733   -1.00000000    4.90999985    2.64000010
   19.39083290   -1.00000000    4.90999985    2.61999989
   19.39416695   -1.00000000    4.90999985    2.64000010
   19.39722252   -1.00000000    4.90999985    2.64000010
   19.40055466   -1.00000000    4.90999985    2.64000010
   19.40416718   -1.00000000    4.90999985    2.64000010
   19.40722275   -1.00000000    4.90999985    2.64000010
   19.41055489   -1.00000000    4.90999985    2.64000010
   19.41388893   -1.00000000    4.90999985    2.64000010
   19.41694450   -1.00000000    4.90999985    2.64000010
   19.42305565   -1.00000000    4.90999985    2.64000010
   19.42722130   -1.00000000    4.90999985    2.64000010
   19.43055534   -1.00000000    4.90999985    2.64000010
   19.43361092   -1.00000000    4.90999985    2.64000010
   19.43722153   -1.00000000    4.90999985    2.64000010
   19.44027710   -1.00000000    4.90999985    2.64000010
   19.44361115   -1.00000000    4.90999985    2.64000010
   19.44694328   -1.00000000    4.90999985    2.61999989
   19.45000076   -1.00000000    4.90999985    2.64000010
   19.45333481   -1.00000000    4.90999985    2.64000010
   19.45666695   -1.00000000    4.90999985    2.64000010
   19.45972252   -1.00000000    4.90999985    2.64000010
   19.46611214   -1.00000000    4.90999985    2.64000010
   19.47000122   -1.00000000    4.90999985    2.64000010
   19.47333336   -1.00000000    4.90999985    2.64000010
   19.47666740   -1.00000000    4.90999985    2.64000010
   19.47972298   -1.00000000    4.90999985    2.61999989
   19.48305511   -1.00000000    4.90999985    2.64000010
   19.48638916   -1.00000000    4.90999985    2.64000010
   19.48944473   -1.00000000    4.90999985    2.64000010
   19.49277878   -1.00000000    4.90999985    2.64000010
   19.49583435   -1.00000000    4.90999985    2.64000010
   19.49916649   -1.00000000    4.90999985    2.64000010
   19.50250053   -1.00000000    4.90999985    2.64000010
   19.50888824   -1.00000000    4.90999985    2.61999989
   19.51305580   -1.00000000    4.90999985    2.61999989
   19.51611137   -1.00000000    4.90999985    2.59999990
   19.51944351   -1.00000000    4.90999985    2.61999989
   19.52277756   -1.00000000    4.90999985    2.61999989
   19.52583313   -1.00000000    4.90999985    2.61999989
   19.52916718   -1.00000000    4.90999985    2.64000010
   19.53222275   -1.00000000    4.90999985    2.61999989
   19.53555489   -1.00000000    4.90999985    2.61999989
   19.53916550   -1.00000000    4.90999985    2.61999989
   19.54222107   -1.00000000    4.90999985    2.61999989
   19.54555511   -1.00000000    4.90999985    2.61999989
   19.55583191   -1.00000000    4.90999985    2.61999989
   19.55888748   -1.00000000    4.90999985    2.61999989
   19.56222153   -1.00000000    4.90999985    2.61999989
   19.56527710   -1.00000000    4.90999985    2.61999989
   19.56861115   -1.00000000    4.90999985    2.61999989
   19.57222366   -1.00000000    4.90999985    2.59999990
   19.57555580   -1.00000000    4.90999985    2.61999989
   19.57861137   -1.00000000    4.90999985    2.61999989
   19.58194542   -1.00000000    4.90999985    2.59999990
   19.58500099   -1.00000000    4.90999985    2.61999989
   19.58833313   -1.00000000    4.90999985    2.61999989
   19.59444427   -1.00000000    4.90999985    2.61999989
   19.59861183   -1.00000000    4.90999985    2.61999989
   19.60194397   -1.00000000    4.90999985    2.61999989
   19.60555649   -1.00000000    4.90999985    2.61999989
   19.60861206   -1.00000000    4.90999985    2.61999989
   19.61194420   -1.00000000    4.90999985    2.61999989
   19.61527824   -1.00000000    4.90999985    2.61999989
   19.61833382   -1.00000000    4.90999985    2.61999989
   19.62166595   -1.00000000    4.90999985    2.61999989
   19.62500000   -1.00000000    4.90999985    2.61999989
   19.62805557   -1.00000000    4.90999985    2.59999990
   19.63138962   -1.00000000    4.90999985    2.61999989
   19.64138794   -1.00000000    4.90999985    2.61999989
   19.64472198   -1.00000000    4.90999985    2.59999990
   19.64777756   -1.00000000    4.90999985    2.61999989
   19.65111160   -1.00000000    4.90999985    2.61999989
   19.65416718   -1.00000000    4.90999985    2.59999990
   19.65749931   -1.00000000    4.90999985    2.59999990
   19.66083336   -1.00000000    4.90999985    2.59999990
   19.66388893   -1.00000000    4.90999985    2.59999990
   19.66722107   -1.00000000    4.90999985    2.61999989
   19.69055557   -1.00000000    4.90999985    2.59999990
   19.69472122   -1.00000000    4.90999985    2.59999990
   19.69777679   -1.00000000    4.90999985    2.59999990
   19.70111275   -1.00000000    4.90999985    2.59999990
   19.70472336   -1.00000000    4.90999985    2.59999990
   19.70777893   -1.00000000    4.90999985    2.59999990
   19.71111107   -1.00000000    4.90999985    2.59999990
   19.71444511   -1.00000000    4.90999985    2.59999990
   19.71750069   -1.00000000    4.90999985    2.59999990
   19.72083473   -1.00000000    4.90999985    2.59999990
   19.72416687   -1.00000000    4.90999985    2.59999990
   19.72722244   -1.00000000    4.90999985    2.59999990
   19.73722267   -1.00000000    4.90999985    2.59999990
   19.74055672   -1.00000000    4.90999985    2.59999990
   19.74361229   -1.00000000    4.90999985    2.57999992
   19.74694443   -1.00000000    4.90999985    2.59999990
   19.75027847   -1.00000000    4.90999985    2.59999990
   19.75333405   -1.00000000    4.90999985    2.59999990
   19.75666618   -1.00000000    4.90999985    2.57999992
   19.75972176   -1.00000000    4.90999985    2.59999990
   19.76305580   -1.00000000    4.90999985    2.59999990
   19.76638794   -1.00000000    4.90999985    2.59999990
   19.76944351   -1.00000000    4.90999985    2.57999992
   19.77611160   -1.00000000    4.90999985    2.59999990
   19.78027725   -1.00000000    4.90999985    2.59999990
   19.78333282   -1.00000000    4.90999985    2.59999990
   19.78666687   -1.00000000    4.90999985    2.59999990
   19.78999901   -1.00000000    4.90999985    2.59999990
   19.79305458   -1.00000000    4.90999985    2.59999990
   19.79638863   -1.00000000    4.90999985    2.59999990
   19.79944420   -1.00000000    4.90999985    2.57999992
   19.80277634   -1.00000000    4.90999985    2.57999992
   19.80638885   -1.00000000    4.90999985    2.59999990
   19.80944443   -1.00000000    4.90999985    2.59999990
   19.81277657   -1.00000000    4.90999985    2.57999992
   19.82305717   -1.00000000    4.90999985    2.57999992
   19.82611275   -1.00000000    4.90999985    2.59999990
   19.82944489   -1.00000000    4.90999985    2.57999992
   19.83277893   -1.00000000    4.90999985    2.59999990
   19.83583450   -1.00000000    4.90999985    2.57999992
   19.83944511   -1.00000000    4.90999985    2.57999992
   19.84250069   -1.00000000    4.90999985    2.57999992
