    HOUR (UT)   FLARE FACTOR    SKY TESTER    SUN TESTER
   12.74027824   -1.00000000   -1.00000000   -1.00000000
   12.76027775   93.05539703    0.00000000    0.00000000
   12.76611137   90.04879761    0.00000000    0.00000000
   12.77055550   98.80609894    0.00000000    0.00000000
   12.77361107  100.97200012    0.00000000    0.00000000
   12.77694416   89.25430298    0.00000000    0.00000000
   12.77999973   89.81960297    0.00000000    0.00000000
   12.78333378   90.82099915    0.00000000    0.00000000
   12.78666687   92.27349854    0.00000000    0.00000000
   12.78972244   91.39109802    0.00000000    0.00000000
   12.79305553   92.05190277    0.00000000    0.00000000
   12.79361153   94.07420349    0.00000000    0.00000000
   12.79666710   95.64080048    0.00000000    0.00000000
   12.79972267   96.24749756    0.00000000    0.00000000
   12.80305576   86.35199738    0.00000000    0.00000000
   12.80611134   91.64589691    0.00000000    0.00000000
   12.80944443   89.56970215    0.00000000    0.00000000
   12.81277752   91.30239868    0.00000000    0.00000000
   12.81583309   89.23989868    4.90999985    2.01999998
   12.81916618   90.03340149    4.90999985    2.01999998
   12.82250023   91.24770355    4.90999985    2.01999998
   12.82555580   95.60900116    4.90999985    2.01999998
   12.82694435   89.09179688    4.90999985    2.01999998
   12.82944393   93.47280121    4.90999985    2.01999998
   12.83249950   92.31629944    4.90999985    2.01999998
   12.83583260   92.83480072    4.90999985    2.01999998
   12.83916664   88.72170258    4.90999985    2.01999998
   12.84222221   96.10009766    4.90999985    2.01999998
   12.84555531   87.31009674    4.90999985    2.01999998
   12.84861088   90.91860199    4.90999985    2.01999998
   12.85194492   98.92040253    4.90999985    2.01999998
   12.85527802   92.51210022    4.90999985    2.01999998
   12.85833359   98.70439911    4.90999985    2.01999998
   12.86027813   92.04789734    4.90999985    2.01999998
   12.86222267   93.47519684    4.90999985    2.01999998
   12.86527824   92.78700256    4.90999985    2.01999998
   12.86861134   91.79149628    4.90999985    2.01999998
   12.87194443   94.38800049    4.90999985    2.01999998
   12.87500000   94.79679871    4.90999985    2.01999998
   12.87833309   89.25389862    4.90999985    2.01999998
   12.88138866   92.23979950    4.90999985    2.01999998
   12.88472176   95.78430176    4.90999985    2.01999998
   12.88805580   98.30909729    4.90999985    2.01999998
   12.89111137   92.82479858    4.90999985    2.01999998
   12.89361095   91.10620117    4.90999985    2.01999998
   12.89499950   88.76850128    4.90999985    2.01999998
   12.89805508   95.75129700    4.90999985    2.01999998
   12.90138817   91.10910034    4.90999985    2.01999998
   12.90472221   98.24990082    4.90999985    2.01999998
   12.90777779   95.03089905    4.90999985    2.01999998
   12.91111088   95.53790283    4.90999985    2.01999998
   12.91416645  100.22499847    4.90999985    2.01999998
   12.91750050   91.16020203    4.90999985    2.01999998
   12.92083359   96.22550201    4.90999985    2.01999998
   12.92388916   91.52159882    4.90999985    2.01999998
   12.92694473   98.33540344    4.90999985    2.01999998
   12.92777824   95.73179626    4.90999985    2.01999998
   12.93083382   93.19429779    4.90999985    2.01999998
   12.93416691   93.81649780    4.90999985    2.01999998
   12.93750000   92.20600128    4.90999985    2.01999998
   12.94055557   93.15460205    4.90999985    2.01999998
   12.94388866   90.87069702    4.90999985    2.01999998
   12.94694424   89.93759918    4.90999985    2.01999998
   12.95027733   87.24469757    4.90999985    2.01999998
   12.95361137   92.85070038    4.90999985    2.01999998
   12.95666695   90.87020111    4.90999985    2.01999998
   12.96000004   92.14389801    4.90999985    2.01999998
   12.96055508   86.48040009    4.90999985    2.01999998
   12.96388912   89.52100372    4.90999985    2.01999998
   12.96694374   88.43309784    4.90999985    2.01999998
   12.97027779   92.73780060    4.90999985    2.01999998
   12.97333336   87.58029938    4.90999985    2.01999998
   12.97666645   94.83460236    4.90999985    2.01999998
   12.97999954   98.81999969    4.90999985    2.01999998
   12.98305511   91.47889709    4.90999985    2.01999998
   12.98638916   93.83029938    4.90999985    2.01999998
   12.98944473   93.27149963    4.90999985    2.01999998
   12.99277782   99.92330170    4.90999985    2.01999998
   12.99388885   89.81250000    4.90999985    2.01999998
   12.99666691   90.41619873    4.90999985    2.01999998
   12.99972248   85.92759705    4.90999985    2.01999998
   13.00305557   88.94290161    4.90999985    2.01999998
   13.00611115   91.36859894    4.90999985    2.01999998
   13.00944424   86.41929626    4.90999985    2.01999998
   13.01277733   91.35710144    4.90999985    2.01999998
   13.01583290   86.98880005    4.90999985    2.01999998
   13.01916599   99.82309723    4.90999985    2.01999998
   13.02222157   92.40390015    4.90999985    2.01999998
   13.02555561   86.37000275    4.90999985    2.01999998
   13.02722168   86.96040344    4.90999985    2.01999998
   13.02916622   88.44229889    4.90999985    2.01999998
   13.03249931   89.03679657    4.90999985    2.01999998
   13.03583336   87.58339691    4.90999985    2.01999998
   13.03888893   84.01119995    4.90999985    2.01999998
   13.04222298   91.16480255    4.90999985    2.01999998
   13.04555607   90.41899872    4.90999985    2.01999998
   13.04861164   87.93160248    4.90999985    2.01999998
   13.05194473   95.71399689    4.90999985    2.01999998
   13.05500031   90.29060364    4.90999985    2.01999998
   13.05833340   89.96829987    4.90999985    2.01999998
   13.06055546   87.93969727    4.90999985    2.01999998
   13.06194496   86.38430023    4.90999985    2.01999998
   13.06527805   92.45290375    4.90999985    2.01999998
   13.06861115   85.99179840    4.90999985    2.01999998
   13.07166672   89.17839813    4.90999985    2.01999998
   13.07499981   83.50219727    4.90999985    2.01999998
   13.07833290   82.13690186    4.90999985    2.01999998
   13.08138847   85.89939880    4.90999985    2.01999998
   13.08472157   90.54669952    4.90999985    2.01999998
   13.08777714   86.70359802    4.90999985    2.01999998
   13.09111118   87.95459747    4.90999985    2.01999998
   13.09388828   86.08499908    4.90999985    2.01999998
   13.09472179   85.42489624    4.90999985    2.01999998
   13.09805489   83.74929810    4.90999985    2.01999998
   13.10138893   85.97219849    4.90999985    2.01999998
   13.10444450   87.01380157    4.90999985    2.01999998
   13.10777855   88.30560303    4.90999985    2.01999998
   13.11111164   86.22180176    4.90999985    2.01999998
   13.11416721   88.88330078    4.90999985    2.01999998
   13.11750031   82.85260010    4.90999985    2.01999998
   13.12083340   89.77719879    4.90999985    2.01999998
   13.12388897   85.27079773    4.90999985    2.01999998
   13.12722206   86.85150146    4.90999985    2.01999998
   13.12750053   83.23290253    4.90999985    2.01999998
   13.13083363   83.50890350    4.90999985    2.01999998
   13.13416672   88.02590179    4.90999985    2.01999998
   13.13722229   83.74800110    4.90999985    2.01999998
   13.14055538   87.28220367    4.90999985    2.01999998
   13.14388847   87.47859955    4.90999985    2.01999998
   13.14694405   84.20890045    4.90999985    2.01999998
   13.15027714   85.80660248    4.90999985    2.01999998
   13.15333271   84.14710236    4.90999985    2.01999998
   13.15666676   88.81819916    4.90999985    2.01999998
   13.15999985   84.28150177    4.90999985    2.01999998
   13.16055489   91.14250183    4.90999985    2.01999998
   13.16361046   85.13649750    4.90999985    2.01999998
   13.16666698   87.26529694    4.90999985    2.01999998
   13.17000008   87.53579712    4.90999985    2.01999998
   13.17305565   94.58300018    4.90999985    2.01999998
   13.17638874   85.88020325    4.90999985    2.01999998
   13.17972279   87.31120300    4.90999985    2.01999998
   13.18277836   86.17919922    4.90999985    2.01999998
   13.18611145   85.78739929    4.90999985    2.01999998
   13.18944454   83.18599701    4.90999985    2.01999998
   13.19250011   89.70529938    4.90999985    2.01999998
   13.19388866   82.73439789    4.90999985    2.01999998
   13.19638920   82.38610077    4.90999985    2.01999998
   13.19944477   83.31150055    4.90999985    2.01999998
   13.20277786   83.39040375    4.90999985    2.01999998
   13.20583344   91.26550293    4.90999985    2.01999998
   13.20916653   83.82260132    4.90999985    2.01999998
   13.21249962   87.09110260    4.90999985    2.01999998
   13.21555519   89.93329620    4.90999985    2.01999998
   13.21888828   82.23629761    4.90999985    2.01999998
   13.22194386   84.64029694    4.90999985    2.01999998
   13.22527695   83.59179688    4.90999985    2.01999998
   13.22722149   86.78980255    4.90999985    2.01999998
   13.22916603   83.86190033    4.90999985    2.01999998
   13.23222160   87.91840363    4.90999985    2.01999998
   13.23555565   85.56790161    4.90999985    2.01999998
   13.23861122   85.12539673    4.90999985    2.01999998
   13.24194431   86.34239960    4.90999985    2.01999998
   13.24527836   88.70349884    4.90999985    2.01999998
   13.24833393   85.66790009    4.90999985    2.01999998
   13.25166702   88.57810211    4.90999985    2.01999998
   13.25500011   88.04070282    4.90999985    2.01999998
   13.25805569   88.25420380    4.90999985    2.01999998
   13.26055527   85.04530334    4.90999985    2.01999998
   13.26194477   83.80639648    4.90999985    2.01999998
   13.26500034   84.64320374    4.90999985    2.01999998
   13.26833344   85.59190369    4.90999985    2.01999998
   13.27138901   84.83560181    4.90999985    2.01999998
   13.27472210   87.60559845    4.90999985    2.01999998
   13.27805519   83.79769897    4.90999985    2.01999998
   13.28111076   89.66979980    4.90999985    2.01999998
   13.28444481   88.89880371    4.90999985    2.01999998
   13.28777790   81.76899719    4.90999985    2.01999998
   13.29083347   81.45030212    4.90999985    2.01999998
   13.29388905   83.34739685    4.90999985    2.01999998
   13.29472256   79.49810028    4.90999985    2.01999998
   13.29777813   83.81970215    4.90999985    2.01999998
   13.30111122   82.47019958    4.90999985    2.01999998
   13.30416679   87.75610352    4.90999985    2.01999998
   13.30749989   86.99279785    4.90999985    2.01999998
   13.31083393   84.23870087    4.90999985    2.01999998
   13.31388950   88.33170319    4.90999985    2.01999998
   13.31722260   83.71710205    4.90999985    2.01999998
   13.32027817   82.18659973    4.90999985    2.01999998
   13.32361126   83.95179749    4.90999985    2.01999998
   13.32694435   81.25620270    4.90999985    2.01999998
   13.32750034   83.97969818    4.90999985    2.01999998
   13.33055592   84.31199646    4.90999985    2.01999998
   13.33388901   84.65170288    4.90999985    2.01999998
   13.33722210   86.81719971    4.90999985    2.01999998
   13.34027767   89.63849640    4.90999985    2.01999998
   13.34361076   82.78769684    4.90999985    2.01999998
   13.34694386   82.97399902    4.90999985    2.01999998
   13.35000038   81.57939911    4.90999985    2.01999998
   13.35333347   82.49859619    4.90999985    2.01999998
   13.35638905   84.51039886    4.90999985    2.01999998
   13.35972214   79.03500366    4.90999985    2.01999998
   13.36083412   83.78060150    4.90999985    2.01999998
   13.36333370   83.81250000    4.90999985    2.01999998
   13.36666679   85.74680328    4.90999985    2.01999998
   13.36999989   82.94170380    4.90999985    2.01999998
   13.37305546   88.25700378    4.90999985    2.01999998
   13.37638855   86.26760101    4.90999985    2.01999998
   13.37944412   85.04900360    4.90999985    2.01999998
   13.38277817   82.13790131    4.90999985    2.01999998
   13.38611126   84.12329865    4.90999985    2.01999998
   13.38916683   83.14219666    4.90999985    2.01999998
   13.39249992   90.58799744    4.90999985    2.01999998
   13.39416695   88.14260101    4.90999985    2.01999998
   13.39611053   87.97170258    4.90999985    2.01999998
   13.39944458   82.73200226    4.90999985    2.01999998
   13.40277767   81.87390137    4.90999985    2.01999998
   13.40583324   81.97769928    4.90999985    2.01999998
   13.40916634   89.01439667    4.90999985    2.01999998
   13.41222191   85.37979889    4.90999985    2.01999998
   13.41555500   80.96720123    4.90999985    2.01999998
   13.41888905   82.48880005    4.90999985    2.01999998
   13.42194462   84.69619751    4.90999985    2.01999998
   13.42527771   82.25610352    4.90999985    2.01999998
   13.42750072   80.44899750    4.90999985    2.01999998
   13.42888927   84.14379883    4.90999985    2.01999998
   13.43222237   82.54949951    4.90999985    2.01999998
   13.43555546   88.86769867    4.90999985    2.01999998
   13.43861103   83.15360260    4.90999985    2.01999998
   13.44194412   85.48870087    4.90999985    2.01999998
   13.44499969   84.36450195    4.90999985    2.01999998
   13.44833374   85.27850342    4.90999985    2.01999998
   13.45166683   84.83809662    4.90999985    2.01999998
   13.45472240   80.43029785    4.90999985    2.01999998
   13.45805550   81.51930237    4.90999985    2.01999998
   13.46083355   82.14739990    4.90999985    2.01999998
   13.46166611   85.47850037    4.90999985    2.01999998
   13.46500015   85.15470123    4.90999985    2.01999998
   13.46833324   79.19049835    4.90999985    2.01999998
   13.47138882   84.69629669    4.90999985    2.01999998
   13.47472191   83.49330139    4.90999985    2.01999998
   13.47777748   82.95680237    4.90999985    2.01999998
   13.48111057   82.33489990    4.90999985    2.01999998
   13.48444462   81.68840027    4.90999985    2.01999998
   13.48750019   79.92680359    4.90999985    2.01999998
   13.49083328   81.66619873    4.90999985    2.01999998
   13.49416733   80.87870026    4.90999985    2.01999998
   13.49444485   83.22429657    4.90999985    2.01999998
   13.49777794   84.31819916    4.90999985    2.01999998
   13.50111103   82.31210327    4.90999985    2.01999998
   13.50416660   82.07219696    4.90999985    2.01999998
   13.50749969   85.31960297    4.90999985    2.01999998
   13.51055527   84.71430206    4.90999985    2.01999998
   13.51388931   83.09269714    4.90999985    2.01999998
   13.51722240   82.35199738    4.90999985    2.01999998
   13.52027798   85.00279999    4.90999985    2.01999998
   13.52361107   81.55919647    4.90999985    2.01999998
   13.52694416   84.00959778    4.90999985    2.01999998
   13.52750015   81.19499969    4.90999985    2.01999998
   13.53027725   81.24900055    4.90999985    2.01999998
   13.53361130   80.90070343    4.90999985    2.01999998
   13.53694534   79.27610016    4.90999985    2.01999998
   13.54000092   79.28800201    4.90999985    2.01999998
   13.54333401   80.81559753    4.90999985    2.01999998
   13.54638958   83.65699768    4.90999985    2.01999998
   13.54972267   81.18520355    4.90999985    2.01999998
   13.55305576   81.15699768    4.90999985    2.01999998
   13.55611134   80.71459961    4.90999985    2.01999998
   13.55944443   81.52850342    4.90999985    2.01999998
   13.56083393   82.02120209    4.90999985    2.01999998
   13.56305599   83.45659637    4.90999985    2.01999998
   13.56638908   83.27249908    4.90999985    2.01999998
   13.56972218   79.84850311    4.90999985    2.01999998
   13.67666721   -1.00000000   -1.00000000   -1.00000000
   13.77166653   -1.00000000   -1.00000000   -1.00000000
   13.87027836   -1.00000000   -1.00000000   -1.00000000
   13.89444447   69.82029724    4.90999985    2.01999998
   13.89777756   80.53040314    4.90999985    2.01999998
   13.90083313   76.83300018    4.90999985    2.01999998
   13.90416622   81.65740204    4.90999985    2.01999998
   13.90749931   78.39869690    4.90999985    2.01999998
   13.91055489   78.00420380    4.90999985    2.01999998
   13.91472149   78.00420380    4.90999985    2.01999998
   13.91888905   78.80979919    4.90999985    2.01999998
   13.92222214   81.99019623    4.90999985    2.01999998
   13.92527771   76.93489838    4.90999985    2.01999998
   13.92777824   80.09590149    4.90999985    2.01999998
   13.92916679   81.54869843    4.90999985    2.01999998
   13.93222237   80.94920349    4.90999985    2.01999998
   13.93555546   83.32769775    4.90999985    2.01999998
   13.93861103   81.05380249    4.90999985    2.01999998
   13.94194412   83.29419708    4.90999985    2.01999998
   13.94527817   80.66259766    4.90999985    2.01999998
   13.94833374   81.13490295    4.90999985    2.01999998
   13.95166683   80.81670380    4.90999985    2.01999998
   13.95777798   80.81670380    4.90999985    2.01999998
   13.96166611   81.35739899    4.90999985    2.01999998
   13.96500015   78.95919800    4.90999985    2.01999998
   13.96833324   77.73139954    4.90999985    2.01999998
   13.97138882   80.73549652    4.90999985    2.01999998
   13.97472191   77.77279663    4.90999985    2.01999998
   13.97777748   79.90820313    4.90999985    2.01999998
   13.98111057   77.30059814    4.90999985    2.01999998
   13.98444462   85.84359741    4.90999985    2.01999998
   13.98750019   80.51170349    4.90999985    2.01999998
   13.99083328   78.36299896    4.90999985    2.01999998
   13.99416733   80.88680267    4.90999985    2.01999998
   13.99472237   77.80339813    4.90999985    2.01999998
   14.00055599   77.80339813    4.90999985    2.01999998
   14.00472260   83.60729980    4.90999985    2.01999998
   14.00777817   80.17569733    4.90999985    2.01999998
   14.01111126   78.94760132    4.90999985    2.01999998
   14.01444435   77.18509674    4.90999985    2.01999998
   14.01749992   75.66560364    4.90999985    2.01999998
   14.02083302   76.66179657    4.90999985    2.01999998
   14.02388859   80.75119781    4.90999985    2.01999998
   14.02722168   79.68689728    4.90999985    2.01999998
   14.02805519   81.65399933    4.90999985    2.01999998
   14.03083324   79.16999817    4.90999985    2.01999998
   14.03416729   79.82360077    4.90999985    2.01999998
   14.03722286   81.92479706    4.90999985    2.01999998
   14.04333401   81.92479706    4.90999985    2.01999998
   14.04750061   77.67739868    4.90999985    2.01999998
   14.05055618   77.20800018    4.90999985    2.01999998
   14.05388927   75.86289978    4.90999985    2.01999998
   14.05722237   77.79000092    4.90999985    2.01999998
   14.06027794   76.91739655    4.90999985    2.01999998
   14.06138897   75.69750214    4.90999985    2.01999998
   14.06388950   77.68820190    4.90999985    2.01999998
   14.06722260   73.82569885    4.90999985    2.01999998
   14.07027817   76.13909912    4.90999985    2.01999998
   14.07361126   79.46070099    4.90999985    2.01999998
   14.07694435   85.84030151    4.90999985    2.01999998
   14.07999992   78.08280182    4.90999985    2.01999998
   14.08611107   78.08280182    4.90999985    2.01999998
   14.09027767   76.59459686    4.90999985    2.01999998
   14.09361076   79.27770233    4.90999985    2.01999998
   14.09472179   78.03679657    4.90999985    2.01999998
   14.09722233   77.50610352    4.90999985    2.01999998
   14.10055637   80.25569916    4.90999985    2.01999998
   14.10361195   80.32379913    4.90999985    2.01999998
   14.10694504   84.42469788    4.90999985    2.01999998
   14.11027813   77.56739807    4.90999985    2.01999998
   14.11333370   76.78489685    4.90999985    2.01999998
   14.11666679   79.56620026    4.90999985    2.01999998
   14.11999989   81.71350098    4.90999985    2.01999998
   14.12305546   82.11170197    4.90999985    2.01999998
   14.12888908   82.11170197    4.90999985    2.01999998
   14.13305569   80.05110168    4.90999985    2.01999998
   14.13638878   78.62550354    4.90999985    2.01999998
   14.13972187   81.62560272    4.90999985    2.01999998
   14.14277744   75.81310272    4.90999985    2.01999998
   14.14611053   78.28869629    4.90999985    2.01999998
   14.14916611   79.93370056    4.90999985    2.01999998
   14.15249920   79.91989899    4.90999985    2.01999998
   14.15583324   78.83840179    4.90999985    2.01999998
   14.15888882   84.54440308    4.90999985    2.01999998
   14.16138840   79.64550018    4.90999985    2.01999998
   14.16249943   79.62190247    4.90999985    2.01999998
   14.16583252   80.78029633    4.90999985    2.01999998
   14.17194462   80.78029633    4.90999985    2.01999998
   14.17611122   78.62889862    4.90999985    2.01999998
   14.17916679   79.20559692    4.90999985    2.01999998
   14.18249989   77.85780334    4.90999985    2.01999998
   14.18555546   81.53189850    4.90999985    2.01999998
   14.18888855   77.75779724    4.90999985    2.01999998
   14.19222260   78.03520203    4.90999985    2.01999998
   14.19472218   85.05680084    4.90999985    2.01999998
   14.19583321   82.17089844    4.90999985    2.01999998
   14.19916630   79.73310089    4.90999985    2.01999998
   14.20222187   79.07350159    4.90999985    2.01999998
   14.20555496   77.61360168    4.90999985    2.01999998
   14.20888901   78.08219910    4.90999985    2.01999998
   14.21472168   78.08219910    4.90999985    2.01999998
   14.21888828   83.10500336    4.90999985    2.01999998
   14.22194386   79.45639801    4.90999985    2.01999998
   14.22527695   82.03289795    4.90999985    2.01999998
   14.22805500   79.13130188    4.90999985    2.01999998
   14.22888851   77.52989960    4.90999985    2.01999998
   14.23222160   79.76029968    4.90999985    2.01999998
   14.23527813   77.67539978    4.90999985    2.01999998
   14.23861122   77.42220306    4.90999985    2.01999998
   14.24194431   77.81359863    4.90999985    2.01999998
   14.24499989   80.21610260    4.90999985    2.01999998
   14.24833393   77.42240143    4.90999985    2.01999998
   14.25166702   76.02380371    4.90999985    2.01999998
   14.25749969   76.02380371    4.90999985    2.01999998
   14.26166630   80.47799683    4.90999985    2.01999998
   14.26500034   76.73190308    4.90999985    2.01999998
   14.26805496   85.07830048    4.90999985    2.01999998
   14.27138901   79.30329895    4.90999985    2.01999998
   14.27472210   78.95950317    4.90999985    2.01999998
   14.27777767   76.91419983    4.90999985    2.01999998
   14.28111076   81.46829987    4.90999985    2.01999998
   14.28416729   80.43229675    4.90999985    2.01999998
   14.28750038   76.19460297    4.90999985    2.01999998
   14.29083347   77.66979980    4.90999985    2.01999998
   14.29388905   79.19589996    4.90999985    2.01999998
   14.29472256   77.18309784    4.90999985    2.01999998
   14.30027771   77.18309784    4.90999985    2.01999998
   14.30444431   78.83409882    4.90999985    2.01999998
   14.30777836   76.98410034    4.90999985    2.01999998
   14.31111145   76.07129669    4.90999985    2.01999998
   14.31416702   81.65149689    4.90999985    2.01999998
   14.31750011   78.90519714    4.90999985    2.01999998
   14.32055569   75.35469818    4.90999985    2.01999998
   14.32388878   79.00730133    4.90999985    2.01999998
   14.32722187   78.24770355    4.90999985    2.01999998
   14.32805538   80.77680206    4.90999985    2.01999998
   14.33055592   79.78890228    4.90999985    2.01999998
   14.33388901   77.36370087    4.90999985    2.01999998
   14.33722210   78.11190033    4.90999985    2.01999998
   14.34333324   78.11190033    4.90999985    2.01999998
   14.34749985   77.56390381    4.90999985    2.01999998
   14.35055637   76.02020264    4.90999985    2.01999998
   14.35388947   75.63919830    4.90999985    2.01999998
   14.35694504   76.84590149    4.90999985    2.01999998
   14.36027813   77.51159668    4.90999985    2.01999998
   14.36138916   78.28810120    4.90999985    2.01999998
   14.36388969   80.08499908    4.90999985    2.01999998
   14.36722279   80.62310028    4.90999985    2.01999998
   14.37055588   78.74310303    4.90999985    2.01999998
   14.37361145   78.21279907    4.90999985    2.01999998
   14.37694454   79.74410248    4.90999985    2.01999998
   14.38000011   76.86779785    4.90999985    2.01999998
   14.38611126   76.86779785    4.90999985    2.01999998
   14.39027786   78.83619690    4.90999985    2.01999998
   14.39333344   80.54280090    4.90999985    2.01999998
   14.39472198   79.07520294    4.90999985    2.01999998
   14.39694405   74.66459656    4.90999985    2.01999998
   14.40027714   73.53350067    4.90999985    2.01999998
   14.40361118   76.41449738    4.90999985    2.01999998
   14.40666676   78.20469666    4.90999985    2.01999998
   14.40999985   79.96119690    4.90999985    2.01999998
   14.41333294   75.97109985    4.90999985    2.01999998
   14.41638851   77.75370026    4.90999985    2.01999998
   14.41972256   75.25869751    4.90999985    2.01999998
   14.42277813   77.30030060    4.90999985    2.01999998
   14.42888927   77.30030060    4.90999985    2.01999998
   14.43305588   77.70169830    4.90999985    2.01999998
   14.43638897   78.53459930    4.90999985    2.01999998
   14.43944454   78.63150024    4.90999985    2.01999998
   14.44277763   75.65190125    4.90999985    2.01999998
   14.44611073   79.66690063    4.90999985    2.01999998
   14.44916630   78.62030029    4.90999985    2.01999998
   14.45249939   76.63929749    4.90999985    2.01999998
   14.45583344   80.19020081    4.90999985    2.01999998
   14.45888901   81.61370087    4.90999985    2.01999998
   14.46138859   79.39910126    4.90999985    2.01999998
   14.46249962   79.13510132    4.90999985    2.01999998
   14.46583271   76.48560333    4.90999985    2.01999998
   14.47166634   76.48560333    4.90999985    2.01999998
   14.47583294   78.64900208    4.90999985    2.01999998
   14.47916603   78.40019989    4.90999985    2.01999998
   14.48249912   78.46330261    4.90999985    2.01999998
   14.48555565   79.00109863    4.90999985    2.01999998
   14.48888874   78.39240265    4.90999985    2.01999998
   14.49194431   78.92350006    4.90999985    2.01999998
   14.49472237   81.53849792    4.90999985    2.01999998
   14.49555588   82.70099640    4.90999985    2.01999998
   14.49888897   76.82479858    4.90999985    2.01999998
   14.50222206   76.19290161    4.90999985    2.01999998
   14.50527763   78.19509888    4.90999985    2.01999998
   14.50861073   75.66369629    4.90999985    2.01999998
   14.51472187   75.66369629    4.90999985    2.01999998
   14.51888847   77.31430054    4.90999985    2.01999998
   14.52194405   81.55400085    4.90999985    2.01999998
   14.52527714   79.90339661    4.90999985    2.01999998
   14.52805519   77.67220306    4.90999985    2.01999998
   14.52888870   78.38480377    4.90999985    2.01999998
   14.53222179   81.54399872    4.90999985    2.01999998
   14.53555584   80.04109955    4.90999985    2.01999998
   14.53861141   77.88760376    4.90999985    2.01999998
   14.54194450   77.45729828    4.90999985    2.01999998
   14.54500008   78.31790161    4.90999985    2.01999998
   14.54833412   77.26429749    4.90999985    2.01999998
   14.55166721   77.58260345    4.90999985    2.01999998
   14.55749989   77.58260345    4.90999985    2.01999998
   14.56166649   79.86889648    4.90999985    2.01999998
   14.56472206   77.76300049    4.90999985    2.01999998
   14.56805515   79.29509735    4.90999985    2.01999998
   14.57138920   80.87460327    4.90999985    2.01999998
   14.57444477   82.18409729    4.90999985    2.01999998
   14.57777786   77.46119690    4.90999985    2.01999998
   14.58111095   77.77020264    4.90999985    2.01999998
   14.58416653   76.17050171    4.90999985    2.01999998
   14.58749962   76.76360321    4.90999985    2.01999998
   14.59055519   78.12409973    4.90999985    2.01999998
   14.59388828   79.81819916    4.90999985    2.01999998
   14.59472179   77.11830139    4.90999985    2.01999998
   14.60027790   77.11830139    4.90999985    2.01999998
   14.60444450   83.03130341    4.90999985    2.01999998
   14.60777855   84.26190186    4.90999985    2.01999998
   14.61083412   78.48200226    4.90999985    2.01999998
   14.61416721   75.16950226    4.90999985    2.01999998
   14.61750031   77.48529816    4.90999985    2.01999998
   14.62055588   76.75119781    4.90999985    2.01999998
   14.62388897   75.91950226    4.90999985    2.01999998
   14.62694454   75.48390198    4.90999985    2.01999998
   14.62805557   77.13870239    4.90999985    2.01999998
   14.63055611   74.53869629    4.90999985    2.01999998
   14.63388920   76.98229980    4.90999985    2.01999998
   14.63722229   74.28269958    4.90999985    2.01999998
   14.64305496   74.28269958    4.90999985    2.01999998
   14.64722252   76.06909943    4.90999985    2.01999998
   14.65055561   77.49729919    4.90999985    2.01999998
   14.65388870   78.06289673    4.90999985    2.01999998
   14.65694427   75.43430328    4.90999985    2.01999998
   14.66027737   75.34380341    4.90999985    2.01999998
   14.66138840   79.57550049    4.90999985    2.01999998
   14.66388893   78.32350159    4.90999985    2.01999998
   14.66694450   73.98760223    4.90999985    2.01999998
   14.67027855   77.92700195    4.90999985    2.01999998
   14.67333412   78.97509766    4.90999985    2.01999998
   14.67666721   76.26260376    4.90999985    2.01999998
   14.68000031   75.47989655    4.90999985    2.01999998
   14.68611145   75.47989655    4.90999985    2.01999998
   14.69027805   77.23829651    4.90999985    2.01999998
   14.69333363   78.30100250    4.90999985    2.01999998
   14.69472218   78.38179779    4.90999985    2.01999998
   14.69694424   79.44170380    4.90999985    2.01999998
   14.70027733   77.91049957    4.90999985    2.01999998
   14.70361137   76.99349976    4.90999985    2.01999998
   14.70666695   76.86229706    4.90999985    2.01999998
   14.71000004   79.99819946    4.90999985    2.01999998
   14.71333313   78.24729919    4.90999985    2.01999998
   14.71638870   78.62560272    4.90999985    2.01999998
   14.71972179   79.82240295    4.90999985    2.01999998
   14.72277737   81.30829620    4.90999985    2.01999998
   14.72888851   81.30829620    4.90999985    2.01999998
   14.73305511   77.38189697    4.90999985    2.01999998
   14.73611164   75.96900177    4.90999985    2.01999998
   14.73944473   82.28910065    4.90999985    2.01999998
   14.74277782   76.69789886    4.90999985    2.01999998
   14.74583340   74.81590271    4.90999985    2.01999998
   14.74916649   74.41979980    4.90999985    2.01999998
   14.75249958   74.94760132    4.90999985    2.01999998
   14.75555515   76.34110260    4.90999985    2.01999998
   14.75888920   77.60679626    4.90999985    2.01999998
   14.76138878   78.49500275    4.90999985    2.01999998
   14.76249981   81.49909973    4.90999985    2.01999998
   14.76583290   76.27660370    4.90999985    2.01999998
   14.77166653   76.27660370    4.90999985    2.01999998
   14.77583313   74.26399994    4.90999985    2.01999998
   14.77916622   74.79759979    4.90999985    2.01999998
   14.78222179   79.75669861    4.90999985    2.01999998
   14.78555584   77.04879761    4.90999985    2.01999998
   14.78888893   79.40709686    4.90999985    2.01999998
   14.79194450   75.24359894    4.90999985    2.01999998
   14.79472256   75.31620026    4.90999985    2.01999998
   14.79583359   75.45649719    4.90999985    2.01999998
   14.79888916   77.57550049    4.90999985    2.01999998
   14.80222225   78.57900238    4.90999985    2.01999998
   14.80527782   76.82319641    4.90999985    2.01999998
   14.80861092   75.57260132    4.90999985    2.01999998
   14.81444454   75.57260132    4.90999985    2.01999998
   14.81861115   76.20659637    4.90999985    2.01999998
   14.82194424   76.57910156    4.90999985    2.01999998
   14.82527733   77.46790314    4.90999985    2.01999998
   14.82805538   76.74960327    4.90999985    2.01999998
   14.82861137   78.44219971    4.90999985    2.01999998
   14.83194447   78.77919769    4.90999985    2.01999998
   14.83527756   76.84059906    4.90999985    2.01999998
   14.83861065   76.27989960    4.90999985    2.01999998
   14.84166622   76.00309753    4.90999985    2.01999998
   14.84499931   77.16500092    4.90999985    2.01999998
   14.84805489   78.22090149    4.90999985    2.01999998
   14.85138893   77.93370056    4.90999985    2.01999998
   14.85750008   77.93370056    4.90999985    2.01999998
   14.86166668   77.32460022    4.90999985    2.01999998
   14.86472225   75.88210297    4.90999985    2.01999998
   14.86805534   76.71060181    4.90999985    2.01999998
   14.87111092   76.11299896    4.90999985    2.01999998
   14.87444496   77.47779846    4.90999985    2.01999998
   14.87777805   76.70210266    4.90999985    2.01999998
   14.88083363   76.93209839    4.90999985    2.01999998
   14.88416672   79.01689911    4.90999985    2.01999998
   14.88749981   79.83260345    4.90999985    2.01999998
   14.89055538   82.39830017    4.90999985    2.01999998
   14.89388847   77.15219879    4.90999985    2.01999998
   14.89472198   78.22750092    4.90999985    2.01999998
   14.91527748   78.22750092    4.90999985    2.01999998
   14.91944504   74.48899841    4.90999985    2.01999998
   14.92277813   77.48459625    4.90999985    2.01999998
   14.92583370   77.02310181    4.90999985    2.01999998
   14.92805576   76.88760376    4.90999985    2.01999998
   14.92972279   76.19480133    4.90999985    2.01999998
   14.93277836   77.29969788    4.90999985    2.01999998
   14.93611145   74.78279877    4.90999985    2.01999998
   14.93944454   75.14579773    4.90999985    2.01999998
   14.94250011   75.75700378    4.90999985    2.01999998
   14.94583321   76.42590332    4.90999985    2.01999998
   14.94916630   76.17759705    4.90999985    2.01999998
   14.95222187   75.64920044    4.90999985    2.01999998
   14.95805550   75.64920044    4.90999985    2.01999998
   14.96222210   78.07620239    4.90999985    2.01999998
   14.96555519   75.62689972    4.90999985    2.01999998
   14.96861076   77.13829803    4.90999985    2.01999998
   14.97194386   81.35810089    4.90999985    2.01999998
   14.97499943   76.81559753    4.90999985    2.01999998
   14.97833252   78.40170288    4.90999985    2.01999998
   14.98166656   76.88279724    4.90999985    2.01999998
   14.98472214   77.26519775    4.90999985    2.01999998
   14.98805618   80.08679962    4.90999985    2.01999998
   14.99138927   75.89080048    4.90999985    2.01999998
   14.99444485   75.91870117    4.90999985    2.01999998
   14.99499989   78.85890198    4.90999985    2.01999998
   15.00083351   78.85890198    4.90999985    2.01999998
   15.00500011   79.78630066    4.90999985    2.01999998
   15.00833321   75.47660065    4.90999985    2.01999998
   15.01138878   76.78260040    4.90999985    2.01999998
   15.01472187   76.82910156    4.90999985    2.01999998
   15.01805496   78.95249939    4.90999985    2.01999998
   15.02111053   77.15760040    4.90999985    2.01999998
   15.02444458   77.35340118    4.90999985    2.01999998
   15.02777767   74.80590057    4.90999985    2.01999998
   15.02833271   76.51349640    4.90999985    2.01999998
   15.03138828   76.78790283    4.90999985    2.01999998
   15.03444481   76.37830353    4.90999985    2.01999998
   15.03777790   75.83219910    4.90999985    2.01999998
   15.04388905   75.83219910    4.90999985    2.01999998
   15.04777813   78.97760010    4.90999985    2.01999998
   15.05111122   74.97840118    4.90999985    2.01999998
   15.05444431   76.20649719    4.90999985    2.01999998
   15.05749989   76.44509888    4.90999985    2.01999998
   15.06083393   80.35769653    4.90999985    2.01999998
   15.06166649   77.37249756    4.90999985    2.01999998
   15.06444454   75.60829926    4.90999985    2.01999998
   15.06750011   80.48870087    4.90999985    2.01999998
   15.07083321   80.08460236    4.90999985    2.01999998
   15.07416630   74.47350311    4.90999985    2.01999998
   15.07722187   77.11039734    4.90999985    2.01999998
   15.08055592   79.54290009    4.90999985    2.01999998
   15.08666611   79.54290009    4.90999985    2.01999998
   15.09083271   78.27120209    4.90999985    2.01999998
   15.09388828   75.86209869    4.90999985    2.01999998
   15.09499931   76.60929871    4.90999985    2.01999998
   15.09777737   79.04730225    4.90999985    2.01999998
   15.10083389   76.84790039    4.90999985    2.01999998
   15.10416698   75.95369720    4.90999985    2.01999998
   15.10750008   77.71659851    4.90999985    2.01999998
   15.11055565   79.19460297    4.90999985    2.01999998
   15.11388969   74.81410217    4.90999985    2.01999998
   15.11722279   75.73919678    4.90999985    2.01999998
   15.12027836   77.09989929    4.90999985    2.01999998
   15.12361145   76.53079987    4.90999985    2.01999998
   15.12944412   76.53079987    4.90999985    2.01999998
   15.13361073   74.39340210    4.90999985    2.01999998
   15.13694477   77.10759735    4.90999985    2.01999998
   15.14000034   75.28900146    4.90999985    2.01999998
   15.14333344   78.87329865    4.90999985    2.01999998
   15.14638901   78.85990143    4.90999985    2.01999998
   15.14972210   76.32530212    4.90999985    2.01999998
   15.15305519   74.87940216    4.90999985    2.01999998
   15.15611076   76.05809784    4.90999985    2.01999998
   15.15944386   74.72859955    4.90999985    2.01999998
   15.16166592   76.28959656    4.90999985    2.01999998
   15.16305542   76.08719635    4.90999985    2.01999998
   15.16611099   76.85980225    4.90999985    2.01999998
   15.17222214   76.85980225    4.90999985    2.01999998
   15.17638874   78.58110046    4.90999985    2.01999998
   15.17972279   77.15290070    4.90999985    2.01999998
   15.18277836   78.87779999    4.90999985    2.01999998
   15.18611145   79.35469818    4.90999985    2.01999998
   15.18944454   74.53970337    4.90999985    2.01999998
   15.19250011   75.85250092    4.90999985    2.01999998
   15.19499969   79.36820221    4.90999985    2.01999998
   15.19638920   78.93309784    4.90999985    2.01999998
   15.19944477   78.08760071    4.90999985    2.01999998
   15.20277786   78.39489746    4.90999985    2.01999998
   15.20611095   75.02410126    4.90999985    2.01999998
   15.20916653   76.02770233    4.90999985    2.01999998
   15.21527767   76.02770233    4.90999985    2.01999998
   15.21916580   74.06829834    4.90999985    2.01999998
   15.22249985   74.93190002    4.90999985    2.01999998
   15.22583294   75.37329865    4.90999985    2.01999998
   15.22833252   74.80010223    4.90999985    2.01999998
   15.22944355   74.27970123    4.90999985    2.01999998
   15.23277760   76.40529633    4.90999985    2.01999998
   15.23583317   80.49849701    4.90999985    2.01999998
   15.23916721   82.97309875    4.90999985    2.01999998
   15.24222279   76.47740173    4.90999985    2.01999998
   15.24555588   76.96250153    4.90999985    2.01999998
   15.24888897   76.37290192    4.90999985    2.01999998
   15.25194454   77.66750336    4.90999985    2.01999998
   15.25805569   77.66750336    4.90999985    2.01999998
   15.26222229   81.66780090    4.90999985    2.01999998
   15.26527786   74.78369904    4.90999985    2.01999998
   15.26861095   79.07710266    4.90999985    2.01999998
   15.27194405   76.02110291    4.90999985    2.01999998
   15.27499962   76.38390350    4.90999985    2.01999998
   15.27833271   77.90799713    4.90999985    2.01999998
   15.28138828   80.07060242    4.90999985    2.01999998
   15.28472233   79.45110321    4.90999985    2.01999998
   15.28805637   79.45639801    4.90999985    2.01999998
   15.29111195   78.43659973    4.90999985    2.01999998
   15.29444504   78.41770172    4.90999985    2.01999998
   15.29500008   77.03569794    4.90999985    2.01999998
   15.30083370   77.03569794    4.90999985    2.01999998
   15.30500031   74.97879791    4.90999985    2.01999998
   15.30833340   75.95120239    4.90999985    2.01999998
   15.31138897   77.03230286    4.90999985    2.01999998
   15.31472206   75.04720306    4.90999985    2.01999998
   15.31777763   76.09719849    4.90999985    2.01999998
   15.32111073   75.56379700    4.90999985    2.01999998
   15.32444477   74.12590027    4.90999985    2.01999998
   15.32750034   75.20059967    4.90999985    2.01999998
   15.32833290   76.78749847    4.90999985    2.01999998
   15.33111095   75.56980133    4.90999985    2.01999998
   15.33444405   81.30930328    4.90999985    2.01999998
   15.33749962   75.61199951    4.90999985    2.01999998
   15.34361076   75.61199951    4.90999985    2.01999998
   15.34777737   76.22139740    4.90999985    2.01999998
   15.35111141   73.22339630    4.90999985    2.01999998
   15.35444450   74.92910004    4.90999985    2.01999998
   15.35750008   76.26010132    4.90999985    2.01999998
   15.36083412   78.78900146    4.90999985    2.01999998
   15.36166668   76.14910126    4.90999985    2.01999998
   15.36444473   79.20429993    4.90999985    2.01999998
   15.36777782   75.24629974    4.90999985    2.01999998
   15.37083340   76.05570221    4.90999985    2.01999998
   15.37416649   74.69709778    4.90999985    2.01999998
   15.37722206   75.90830231    4.90999985    2.01999998
   15.38055611   73.82199860    4.90999985    2.01999998
   15.38666630   73.82199860    4.90999985    2.01999998
   15.39083290   77.01329803    4.90999985    2.01999998
   15.39388847   78.14689636    4.90999985    2.01999998
   15.39499950   77.58540344    4.90999985    2.01999998
   15.39750004   77.33560181    4.90999985    2.01999998
   15.40083313   74.48819733    4.90999985    2.01999998
   15.40388870   76.46130371    4.90999985    2.01999998
   15.40722179   77.02249908    4.90999985    2.01999998
   15.41027737   79.44789886    4.90999985    2.01999998
   15.41361046   80.47579956    4.90999985    2.01999998
   15.41694450   76.87139893    4.90999985    2.01999998
   15.42000008   77.51629639    4.90999985    2.01999998
   15.42333412   79.74289703    4.90999985    2.01999998
   15.42944431   79.74289703    4.90999985    2.01999998
   15.43361092   80.94200134    4.90999985    2.01999998
   15.43666649   76.04119873    4.90999985    2.01999998
   15.44000053   76.03430176    4.90999985    2.01999998
   15.44333363   76.52980042    4.90999985    2.01999998
   15.44638920   75.20700073    4.90999985    2.01999998
   15.44972229   75.31890106    4.90999985    2.01999998
   15.45277786   75.64569855    4.90999985    2.01999998
   15.45611095   75.70970154    4.90999985    2.01999998
   15.45944405   75.84390259    4.90999985    2.01999998
   15.46166611   77.13809967    4.90999985    2.01999998
   15.46305561   76.98750305    4.90999985    2.01999998
   15.46638870   77.64019775    4.90999985    2.01999998
   15.47222137   77.64019775    4.90999985    2.01999998
   15.47638798   75.83180237    4.90999985    2.01999998
   15.47972202   77.75659943    4.90999985    2.01999998
   15.48277760   76.65239716    4.90999985    2.01999998
   15.48611164   77.77359772    4.90999985    2.01999998
   15.48916721   78.89299774    4.90999985    2.01999998
   15.49250031   77.07080078    4.90999985    2.01999998
   15.49499989   76.94550323    4.90999985    2.01999998
   15.49611092   77.35240173    4.90999985    2.01999998
   15.49944496   77.67040253    4.90999985    2.01999998
   15.50249958   73.98850250    4.90999985    2.01999998
   15.50583363   77.41049957    4.90999985    2.01999998
   15.50916672   75.67320251    4.90999985    2.01999998
   15.51500034   75.67320251    4.90999985    2.01999998
   15.51916599   78.27380371    4.90999985    2.01999998
   15.52250004   76.12270355    4.90999985    2.01999998
   15.52555561   76.12840271    4.90999985    2.01999998
   15.52833271   76.66310120    4.90999985    2.01999998
   15.52944374   82.34570313    4.90999985    2.01999998
   15.53277779   76.87390137    4.90999985    2.01999998
   15.53583336   77.76309967    4.90999985    2.01999998
   15.53916740   77.28019714    4.90999985    2.01999998
   15.54250050   80.52749634    4.90999985    2.01999998
   15.54555607   76.94490051    4.90999985    2.01999998
   15.54888916   81.20429993    4.90999985    2.01999998
   15.55194473   77.82420349    4.90999985    2.01999998
   15.55805588   77.82420349    4.90999985    2.01999998
   15.56194496   74.84539795    4.90999985    2.01999998
   15.56527805   75.89540100    4.90999985    2.01999998
   15.56861115   76.84629822    4.90999985    2.01999998
   15.57166672   77.98660278    4.90999985    2.01999998
   15.57499981   78.62729645    4.90999985    2.01999998
   15.57833290   76.73750305    4.90999985    2.01999998
   15.58138847   75.15059662    4.90999985    2.01999998
   15.58472157   76.98699951    4.90999985    2.01999998
   15.58777714   74.09390259    4.90999985    2.01999998
   15.59111118   75.22480011    4.90999985    2.01999998
   15.59444427   77.47899628    4.90999985    2.01999998
   15.59499931   77.59049988    4.90999985    2.01999998
   15.60083389   77.59049988    4.90999985    2.01999998
   15.60500050   82.69100189    4.90999985    2.01999998
   15.60805607   79.06680298    4.90999985    2.01999998
   15.61138916   79.24330139    4.90999985    2.01999998
   15.61472225   82.08860016    4.90999985    2.01999998
   15.61777782   76.33689880    4.90999985    2.01999998
   15.62111092   76.79409790    4.90999985    2.01999998
   15.62444496   82.45439911    4.90999985    2.01999998
   15.62750053   75.50409698    4.90999985    2.01999998
   15.62833309   78.89949799    4.90999985    2.01999998
   15.63111115   78.83969879    4.90999985    2.01999998
   15.63444424   75.34020233    4.90999985    2.01999998
   15.63749981   76.05110168    4.90999985    2.01999998
   15.64361095   76.05110168    4.90999985    2.01999998
   15.64777756   78.80349731    4.90999985    2.01999998
   15.65111065   77.12059784    4.90999985    2.01999998
   15.65416622   77.80410004    4.90999985    2.01999998
   15.65749931   77.89550018    4.90999985    2.01999998
   15.66055489   77.59470367    4.90999985    2.01999998
   15.66166592   80.01429749    4.90999985    2.01999998
   15.66416645   79.42040253    4.90999985    2.01999998
   15.66750050   78.55049896    4.90999985    2.01999998
   15.67055607   76.14119720    4.90999985    2.01999998
   15.67388916   79.48739624    4.90999985    2.01999998
   15.67722225   83.47619629    4.90999985    2.01999998
   15.68027782   80.12349701    4.90999985    2.01999998
   15.68638897   80.12349701    4.90999985    2.01999998
   15.69055557   76.51029968    4.90999985    2.01999998
   15.69388866   78.61699677    4.90999985    2.01999998
   15.69499969   75.64009857    4.90999985    2.01999998
   15.69750023   78.33850098    4.90999985    2.01999998
   15.70083332   79.41359711    4.90999985    2.01999998
   15.70388889   78.30020142    4.90999985    2.01999998
   15.70722198   80.21849823    4.90999985    2.01999998
   15.71027756   76.44239807    4.90999985    2.01999998
   15.71361065   77.06109619    4.90999985    2.01999998
   15.71694374   77.08550262    4.90999985    2.01999998
   15.71999931   78.35849762    4.90999985    2.01999998
   15.72333336   79.26909637    4.90999985    2.01999998
   15.72944355   79.26909637    4.90999985    2.01999998
   15.73361111   82.28649902    4.90999985    2.01999998
   15.73666668   78.79450226    4.90999985    2.01999998
   15.74000072   78.62120056    4.90999985    2.01999998
   15.74305534   77.79879761    4.90999985    2.01999998
   15.74638939   78.03820038    4.90999985    2.01999998
   15.74972248   81.73049927    4.90999985    2.01999998
   15.75277805   81.36609650    4.90999985    2.01999998
   15.75611115   78.48699951    4.90999985    2.01999998
   15.75944424   78.47160339    4.90999985    2.01999998
   15.76166630   79.49330139    4.90999985    2.01999998
   15.76305580   78.09950256    4.90999985    2.01999998
   15.76638889   78.44840240    4.90999985    2.01999998
   15.77222157   78.44840240    4.90999985    2.01999998
   15.77638817   78.50980377    4.90999985    2.01999998
   15.77944374   76.70249939    4.90999985    2.01999998
   15.78277779   80.98239899    4.90999985    2.01999998
   15.78611183   75.84390259    4.90999985    2.01999998
   15.78916740   79.86509705    4.90999985    2.01999998
   15.79250050   81.56379700    4.90999985    2.01999998
   15.79500008   79.58139801    4.90999985    2.01999998
   15.79611111   84.01529694    4.90999985    2.01999998
   15.79944515   76.59739685    4.90999985    2.01999998
   15.80249977   80.47519684    4.90999985    2.01999998
   15.80583382   80.31610107    4.90999985    2.01999998
   15.80916691   78.57910156    4.90999985    2.01999998
   15.81500053   78.57910156    4.90999985    2.01999998
   15.81916618   81.03890228    4.90999985    2.01999998
   15.82250023   82.06580353    4.90999985    2.01999998
   15.82555580   80.51319885    4.90999985    2.01999998
   15.82833290   76.60530090    4.90999985    2.01999998
   15.82916641   77.74919891    4.90999985    2.01999998
   15.83249950   79.07589722    4.90999985    2.01999998
   15.83555508   80.76360321    4.90999985    2.01999998
   15.83888817   79.30560303    4.90999985    2.01999998
   15.84222221   81.68509674    4.90999985    2.01999998
   15.84527779   80.28109741    4.90999985    2.01999998
   15.84861088   80.30549622    4.90999985    2.01999998
   15.85166740   78.04499817    4.90999985    2.01999998
   15.85777855   78.04499817    4.90999985    2.01999998
   15.86194515   78.28250122    4.90999985    2.01999998
   15.86527824   79.03220367    4.90999985    2.01999998
   15.86833382   78.08869934    4.90999985    2.01999998
   15.87166691   83.30039978    4.90999985    2.01999998
   15.87500000   78.92829895    4.90999985    2.01999998
   15.87805557   87.37860107    4.90999985    2.01999998
   15.88138866   79.37310028    4.90999985    2.01999998
   15.88472176   82.48030090    4.90999985    2.01999998
   15.88777733   76.91819763    4.90999985    2.01999998
   15.89111137   78.73519897    4.90999985    2.01999998
   15.89416695   81.77420044    4.90999985    2.01999998
   15.89527798   79.34989929    4.90999985    2.01999998
   15.90083313   79.34989929    4.90999985    2.01999998
   15.90472221   77.72470093    4.90999985    2.01999998
   15.90805531   78.97290039    4.90999985    2.01999998
   15.91138840   78.28749847    4.90999985    2.01999998
   15.92888927   78.65640259    4.90999985    2.01999998
   15.93138885   78.00160217    4.90999985    2.01999998
   15.93444443   77.43479919    4.90999985    2.01999998
   15.93777752   75.55079651    4.90999985    2.01999998
   15.94361115   75.55079651    4.90999985    2.01999998
   15.94777775   79.81169891    4.90999985    2.01999998
   15.95111084   78.67590332    4.90999985    2.01999998
   15.95416641   78.08519745    4.90999985    2.01999998
   15.95749950   76.25610352    4.90999985    2.01999998
   15.96083355   80.36419678    4.90999985    2.01999998
   15.96194458   80.12770081    4.90999985    2.01999998
   15.96444416   79.95339966    4.90999985    2.01999998
   15.96777725   77.00499725    4.90999985    2.01999998
   15.97111034   75.99400330    4.90999985    2.01999998
   15.97416592   76.51319885    4.90999985    2.01999998
   15.97749996   76.14160156    4.90999985    2.01999998
   15.98055553   78.49669647    4.90999985    2.01999998
   15.98666668   78.49669647    4.90999985    2.01999998
   15.99083328   76.52349854    4.90999985    2.01999998
   15.99388885   78.22519684    4.90999985    2.01999998
   15.99555588   77.81670380    4.90999985    2.01999998
   15.99750042   84.10810089    4.90999985    2.01999998
   16.00083351   77.26049805    4.90999985    2.01999998
   16.00388908   76.60399628    4.90999985    2.01999998
   16.00722313   83.78179932    4.90999985    2.01999998
   16.01055527   77.88619995    4.90999985    2.01999998
   16.01361084   76.94680023    4.90999985    2.01999998
   16.01694489   77.85179901    4.90999985    2.01999998
   16.02000046   77.96790314    4.90999985    2.01999998
   16.02333260   79.77580261    4.90999985    2.01999998
   16.02944374   79.77580261    4.90999985    2.01999998
   16.03361130   79.56729889    4.90999985    2.01999998
   16.03666687   79.53279877    4.90999985    2.01999998
   16.03999901   80.31749725    4.90999985    2.01999998
   16.04333305   75.83219910    4.90999985    2.01999998
   16.04638863   81.77089691    4.90999985    2.01999998
   16.04972076   78.01260376    4.90999985    2.01999998
   16.05277634   76.69770050    4.90999985    2.01999998
   16.05611038   79.23639679    4.90999985    2.01999998
   16.05944443   80.74330139    4.90999985    2.01999998
   16.06222153   75.67070007    4.90999985    2.01999998
   16.06305504   86.68009949    4.90999985    2.01999998
   16.06638718   82.14140320    4.90999985    2.01999998
   16.07222366   82.14140320    4.90999985    2.01999998
   16.07638931   84.24880219    4.90999985    2.01999998
   16.07972336   77.63099670    4.90999985    2.01999998
   16.08277893   79.20459747    4.90999985    2.01999998
   16.08611107   80.18150330    4.90999985    2.01999998
   16.08916664   78.80680084    4.90999985    2.01999998
   16.09250069   78.17279816    4.90999985    2.01999998
   16.09555626   76.33529663    4.90999985    2.01999998
   16.09611130   77.60749817    4.90999985    2.01999998
   16.09944534   84.37709808    4.90999985    2.01999998
   16.10250092   78.50980377    4.90999985    2.01999998
   16.10583305   80.92839813    4.90999985    2.01999998
   16.10916710   81.61440277    4.90999985    2.01999998
   16.11499977   81.61440277    4.90999985    2.01999998
   16.11916733   78.57150269    4.90999985    2.01999998
   16.12249947   79.13289642    4.90999985    2.01999998
   16.12555504   77.55660248    4.90999985    2.01999998
   16.12888908   78.11699677    4.90999985    2.01999998
   16.12916756   77.43329620    4.90999985    2.01999998
   16.13249969   79.84300232    4.90999985    2.01999998
   16.13583374   77.04010010    4.90999985    2.01999998
   16.13888931   75.86589813    4.90999985    2.01999998
   16.14222145   77.22460175    4.90999985    2.01999998
   16.14555550   78.87539673    4.90999985    2.01999998
   16.14861107   83.14959717    4.90999985    2.01999998
   16.15194321   78.70999908    4.90999985    2.01999998
   16.15805435   78.70999908    4.90999985    2.01999998
   16.16222191   81.12000275    4.90999985    2.01999998
   16.16250038   76.97609711    4.90999985    2.01999998
   16.16583252   76.51309967    4.90999985    2.01999998
   16.16888809   76.60540009    4.90999985    2.01999998
   16.17222214   78.59339905    4.90999985    2.01999998
   16.17555428   79.92839813    4.90999985    2.01999998
   16.17860985   78.12049866    4.90999985    2.01999998
   16.18194389   81.67179871    4.90999985    2.01999998
   16.18527603   82.15740204    4.90999985    2.01999998
   16.18833160   78.24629974    4.90999985    2.01999998
   16.19166565   76.78299713    4.90999985    2.01999998
   16.19499969   75.99379730    4.90999985    2.01999998
   16.19555473   77.03649902    4.90999985    2.01999998
   16.20083427   77.03649902    4.90999985    2.01999998
   16.20499992   77.39569855    4.90999985    2.01999998
   16.20805550   79.06069946    4.90999985    2.01999998
   16.21138954   76.92489624    4.90999985    2.01999998
   16.21472359   82.62339783    4.90999985    2.01999998
   16.21777916   76.34600067    4.90999985    2.01999998
   16.22111130   79.19429779    4.90999985    2.01999998
   16.22416687   75.19239807    4.90999985    2.01999998
   16.22750092   76.09059906    4.90999985    2.01999998
   16.22888947   75.99579620    4.90999985    2.01999998
   16.23111153   76.85859680    4.90999985    2.01999998
   16.23444557   75.92359924    4.90999985    2.01999998
   16.23777771   80.02300262    4.90999985    2.01999998
   16.24361229   80.02300262    4.90999985    2.01999998
   16.24777794   80.61409760    4.90999985    2.01999998
   16.25111198   82.38649750    4.90999985    2.01999998
   16.25416756   84.24870300    4.90999985    2.01999998
   16.25749969   78.77829742    4.90999985    2.01999998
   16.26055527   79.08619690    4.90999985    2.01999998
   16.26222229   78.15170288    4.90999985    2.01999998
   16.26416588   79.41960144    4.90999985    2.01999998
   16.26749992   83.08689880    4.90999985    2.01999998
   16.27083397   78.85980225    4.90999985    2.01999998
   16.27388954   78.75730133    4.90999985    2.01999998
   16.27722168   79.55139923    4.90999985    2.01999998
   16.28027725   77.78900146    4.90999985    2.01999998
   16.28638840   77.78900146    4.90999985    2.01999998
   16.29055595   78.54239655    4.90999985    2.01999998
   16.29388809   79.54489899    4.90999985    2.01999998
   16.29555511   79.43620300    4.90999985    2.01999998
   16.29777718   83.09410095    4.90999985    2.01999998
   16.30083275   83.84190369    4.90999985    2.01999998
   16.30416679   80.50420380    4.90999985    2.01999998
   16.30722237   80.71350098    4.90999985    2.01999998
   16.31055450   82.05280304    4.90999985    2.01999998
   16.31388855   78.99680328    4.90999985    2.01999998
   16.31694603   76.29380035    4.90999985    2.01999998
   16.32027817   79.20999908    4.90999985    2.01999998
   16.32361221   77.59410095    4.90999985    2.01999998
   16.32944489   77.59410095    4.90999985    2.01999998
   16.33333397   77.66000366    4.90999985    2.01999998
   16.33666801   76.85649872    4.90999985    2.01999998
   16.34000015   76.69509888    4.90999985    2.01999998
   16.34305573   77.34259796    4.90999985    2.01999998
   16.34638977   79.02660370    4.90999985    2.01999998
   16.34972191   80.95520020    4.90999985    2.01999998
   16.35277748   78.48529816    4.90999985    2.01999998
   16.35611153   78.48519897    4.90999985    2.01999998
   16.35916710   79.74220276    4.90999985    2.01999998
   16.36222267   78.49089813    4.90999985    2.01999998
   16.36277771   77.01619720    4.90999985    2.01999998
   16.36611176   78.90110016    4.90999985    2.01999998
   16.37222290   78.90110016    4.90999985    2.01999998
   16.37638855   78.57849884    4.90999985    2.01999998
   16.37944412   79.61730194    4.90999985    2.01999998
   16.38277817   78.25389862    4.90999985    2.01999998
   16.38611031   81.01899719    4.90999985    2.01999998
   16.38916588   77.42659760    4.90999985    2.01999998
   16.39249992   79.89260101    4.90999985    2.01999998
   16.39555550   75.10510254    4.90999985    2.01999998
   16.39611053   77.35910034    4.90999985    2.01999998
   16.39944458   77.05709839    4.90999985    2.01999998
   16.40277672   81.45169830    4.90999985    2.01999998
   16.40583229   80.56970215    4.90999985    2.01999998
   16.40916634   80.82009888    4.90999985    2.01999998
   16.41499901   80.82009888    4.90999985    2.01999998
   16.41916656   82.00540161    4.90999985    2.01999998
   16.42249870   82.00070190    4.90999985    2.01999998
   16.42555428   80.80480194    4.90999985    2.01999998
   16.42888832   78.76339722    4.90999985    2.01999998
   16.42916679   78.32610321    4.90999985    2.01999998
   16.43249893   83.35089874    4.90999985    2.01999998
   16.43583298   77.94349670    4.90999985    2.01999998
   16.43888855   79.73580170    4.90999985    2.01999998
   16.44222069   76.84449768    4.90999985    2.01999998
   16.44527626   78.90209961    4.90999985    2.01999998
   16.44861031   77.96430206    4.90999985    2.01999998
   16.45194435   77.60769653    4.90999985    2.01999998
   16.45777893   77.60769653    4.90999985    2.01999998
   16.46194458   76.66580200    4.90999985    2.01999998
   16.46250153   76.49109650    4.90999985    2.01999998
   16.46583366   78.39340210    4.90999985    2.01999998
   16.46916771   80.59799957    4.90999985    2.01999998
   16.47222328   85.91010284    4.90999985    2.01999998
   16.47555542   78.23560333    4.90999985    2.01999998
   16.47861099   78.59609985    4.90999985    2.01999998
   16.48194504   78.01219940    4.90999985    2.01999998
   16.48527718   76.03209686    4.90999985    2.01999998
   16.48833275   77.77130127    4.90999985    2.01999998
   16.49166679   78.07019806    4.90999985    2.01999998
   16.49500084   75.14050293    4.90999985    2.01999998
   16.49583435   79.66339874    4.90999985    2.01999998
   16.50083351   79.66339874    4.90999985    2.01999998
   16.50472260   83.23770142    4.90999985    2.01999998
   16.50805473   78.86080170    4.90999985    2.01999998
   16.51138878   80.16429901    4.90999985    2.01999998
   16.51444435   76.87580109    4.90999985    2.01999998
   16.51777840   76.75939941    4.90999985    2.01999998
   16.52111053   78.05870056    4.90999985    2.01999998
   16.52416611   78.01740265    4.90999985    2.01999998
   16.52750015   80.10749817    4.90999985    2.01999998
   16.52916718   78.33020020    4.90999985    2.01999998
   16.53111076   77.28189850    4.90999985    2.01999998
   16.53416634   78.30829620    4.90999985    2.01999998
   16.53750038   79.73269653    4.90999985    2.01999998
   16.54361153   79.73269653    4.90999985    2.01999998
   16.54777718   76.84750366    4.90999985    2.01999998
   16.55083275   81.11530304    4.90999985    2.01999998
   16.55416679   78.71720123    4.90999985    2.01999998
   16.55749893   77.25219727    4.90999985    2.01999998
   16.56055450   76.67320251    4.90999985    2.01999998
   16.56250000   75.30699921    4.90999985    2.01999998
   16.56416512   81.71559906    4.90999985    2.01999998
   16.56722260   75.47229767    4.90999985    2.01999998
   16.57055664   78.05960083    4.90999985    2.01999998
   16.57389069   75.94349670    4.90999985    2.01999998
   16.57694626   75.72480011    4.90999985    2.01999998
   16.58027840   78.10649872    4.90999985    2.01999998
   16.58638954   78.10649872    4.90999985    2.01999998
   16.59055710   80.16410065    4.90999985    2.01999998
   16.59388924   75.73110199    4.90999985    2.01999998
   16.59583473   75.41300201    4.90999985    2.01999998
   16.59749985   73.42720032    4.90999985    2.01999998
   16.60083389   77.94390106    4.90999985    2.01999998
   16.60388947   78.13269806    4.90999985    2.01999998
   16.60722351   77.05590057    4.90999985    2.01999998
   16.61027908   77.40529633    4.90999985    2.01999998
   16.61361122   83.06819916    4.90999985    2.01999998
   16.61694527   76.15709686    4.90999985    2.01999998
   16.62000084   75.79309845    4.90999985    2.01999998
   16.62333298   78.31349945    4.90999985    2.01999998
   16.62916756   78.31349945    4.90999985    2.01999998
   16.63333321   75.43879700    4.90999985    2.01999998
   16.63666725   80.27709961    4.90999985    2.01999998
   16.63972282   78.53309631    4.90999985    2.01999998
   16.64305496   80.84480286    4.90999985    2.01999998
   16.64638901   78.71130371    4.90999985    2.01999998
   16.64944458   79.16729736    4.90999985    2.01999998
   16.65277672   81.46119690    4.90999985    2.01999998
   16.65611076   80.55680084    4.90999985    2.01999998
   16.65916634   87.46350098    4.90999985    2.01999998
   16.66250038   85.21690369    4.90999985    2.01999998
   16.66444397   84.76260376    4.90999985    2.01999998
   16.66611099   79.99579620    4.90999985    2.01999998
   16.67222214   79.99579620    4.90999985    2.01999998
   16.67611122   78.94159698    4.90999985    2.01999998
   16.67944336   75.07099915    4.90999985    2.01999998
   16.68277740   75.49069977    4.90999985    2.01999998
   16.68583298   78.22959900    4.90999985    2.01999998
   16.68916512   87.86650085    4.90999985    2.01999998
   16.69249916   77.35130310    4.90999985    2.01999998
   16.69555473   80.93199921    4.90999985    2.01999998
   16.69777679   78.97709656    4.90999985    2.01999998
   16.69916534   80.18530273    4.90999985    2.01999998
   16.70250130   75.98629761    4.90999985    2.01999998
   16.70555687   85.59940338    4.90999985    2.01999998
   16.70888901   80.41639709    4.90999985    2.01999998
   16.71500015   80.41639709    4.90999985    2.01999998
   16.71916771   78.37460327    4.90999985    2.01999998
   16.72222328   78.61150360    4.90999985    2.01999998
   16.72555542   78.98249817    4.90999985    2.01999998
   16.72888947   75.29750061    4.90999985    2.01999998
   16.73111153   83.61100006    4.90999985    2.01999998
   16.73250008   82.19059753    4.90999985    2.01999998
   16.73583412   83.21009827    4.90999985    2.01999998
   16.73888969   83.12159729    4.90999985    2.01999998
   16.74222183   78.65570068    4.90999985    2.01999998
   16.74527740   84.95760345    4.90999985    2.01999998
   16.74861145   85.32289886    4.90999985    2.01999998
   16.75194359   85.06980133    4.90999985    2.01999998
   16.75777817   85.06980133    4.90999985    2.01999998
   16.76194382   88.63030243    4.90999985    2.01999998
   16.76444435   80.41020203    4.90999985    2.01999998
   16.76555634   80.87300110    4.90999985    2.01999998
   16.76888847   82.04640198    4.90999985    2.01999998
   16.77194405   88.69100189    4.90999985    2.01999998
   16.77527809   77.56449890    4.90999985    2.01999998
   16.77833366   81.98729706    4.90999985    2.01999998
   16.78166580   78.38430023    4.90999985    2.01999998
   16.78499985   79.27980042    4.90999985    2.01999998
   16.78805542   79.30069733    4.90999985    2.01999998
   16.79138756   79.86219788    4.90999985    2.01999998
   16.79472160   86.62300110    4.90999985    2.01999998
   16.80055428   86.62300110    4.90999985    2.01999998
   16.80472183   82.96769714    4.90999985    2.01999998
   16.80805397   83.31999969    4.90999985    2.01999998
   16.81110954   80.61750031    4.90999985    2.01999998
   16.81444359   97.00550079    4.90999985    2.01999998
   16.81777954   91.95539856    4.90999985    2.01999998
   16.82083511   92.85929871    4.90999985    2.01999998
   16.82416725   86.64700317    4.90999985    2.01999998
   16.82750130   86.54190063    4.90999985    2.01999998
   16.83055687   81.90959930    4.90999985    2.01999998
   16.83166695   83.16519928    4.90999985    2.01999998
   16.83416748   83.04329681    4.90999985    2.01999998
   16.83750153   86.45780182    4.90999985    2.01999998
   16.84361267   86.45780182    4.90999985    2.01999998
   16.84749985   84.35549927    4.90999985    2.01999998
   16.85083389   79.06529999    4.90999985    2.01999998
   16.85416794   86.57050323    4.90999985    2.01999998
   16.85722351   88.79460144    4.90999985    2.01999998
   16.86055565   91.43019867    4.90999985    2.01999998
   16.86388969   80.19300079    4.90999985    2.01999998
   16.86499977   83.63379669    4.90999985    2.01999998
   16.86722183   92.82379913    4.90999985    2.01999998
   16.87055588   80.48580170    4.90999985    2.01999998
   16.87388992   97.02140045    4.90999985    2.01999998
   16.87694550  100.18699646    4.90999985    2.01999998
   16.88027763   88.41259766    4.90999985    2.01999998
   16.88638878   88.41259766    4.90999985    2.01999998
   16.89055634  103.69300079    4.90999985    2.01999998
   16.89361191  106.93499756    4.90999985    2.01999998
   16.89694405   94.36009979    4.90999985    2.01999998
   16.89833260   92.74870300    4.90999985    2.01999998
   16.90055466   92.73549652    4.90999985    2.01999998
   16.90388870   84.10880280    4.90999985    2.01999998
   16.90694427   80.68720245    4.90999985    2.01999998
   16.91027832   87.12129974    4.90999985    2.01999998
   16.91333389   91.94180298    4.90999985    2.01999998
   16.91666603   82.70659637    4.90999985    2.01999998
   16.92000008   84.19640350    4.90999985    2.01999998
   16.92305565   85.71450043    4.90999985    2.01999998
   16.92916679   85.71450043    4.90999985    2.01999998
   16.94749832   98.25000000    4.90999985    2.01999998
   16.95083427   80.95059967    4.90999985    2.01999998
   16.95416832   91.20300293    4.90999985    2.01999998
   16.95722389   83.85910034    4.90999985    2.01999998
   16.96055603   84.07260132    4.90999985    2.01999998
   16.96361160   95.45069885    4.90999985    2.01999998
   16.96694565   97.77680206    4.90999985    2.01999998
   16.97222328   97.77680206    4.90999985    2.01999998
   16.97638893  102.37100220    4.90999985    2.01999998
   16.97972298   93.70739746    4.90999985    2.01999998
   16.98055649   97.64089966    4.90999985    2.01999998
   16.98333359   92.60260010    4.90999985    2.01999998
   16.98666763   88.80249786    4.90999985    2.01999998
   16.98972321   95.25759888    4.90999985    2.01999998
   16.99333382   92.59500122    4.90999985    2.01999998
   16.99666786   88.14920044    4.90999985    2.01999998
   17.00000000   80.56860352    4.90999985    2.01999998
   17.00305557   91.24269867    4.90999985    2.01999998
   17.00638962   80.57209778    4.90999985    2.01999998
   17.00972176   92.24359894    4.90999985    2.01999998
   17.01499939   92.24359894    4.90999985    2.01999998
   17.01916695   83.68520355    4.90999985    2.01999998
   17.02249908   82.10269928    4.90999985    2.01999998
   17.02583313   89.20240021    4.90999985    2.01999998
   17.02888870   95.05090332    4.90999985    2.01999998
   17.03222275   88.89779663    4.90999985    2.01999998
   17.03527641   87.90110016    4.90999985    2.01999998
   17.03861046   87.62129974    4.90999985    2.01999998
   17.04194450   93.71130371    4.90999985    2.01999998
   17.04500008   92.88130188    4.90999985    2.01999998
   17.04722214   86.46320343    4.90999985    2.01999998
   17.04888916   96.67590332    4.90999985    2.01999998
   17.05222130   87.39299774    4.90999985    2.01999998
   17.05805397   87.39299774    4.90999985    2.01999998
   17.06222153   99.47869873    4.90999985    2.01999998
   17.06527710   84.60089874    4.90999985    2.01999998
   17.06861115   95.95819855    4.90999985    2.01999998
   17.07166672   92.50789642    4.90999985    2.01999998
   17.07500076   94.58789825    4.90999985    2.01999998
   17.07833481   93.71900177    4.90999985    2.01999998
   17.08055687   93.15730286    4.90999985    2.01999998
   17.08194542   94.10279846    4.90999985    2.01999998
   17.08527756   95.15290070    4.90999985    2.01999998
   17.08833313   90.73539734    4.90999985    2.01999998
   17.09166718   78.38339996    4.90999985    2.01999998
   17.09472275   90.28469849    4.90999985    2.01999998
   17.10083389   90.28469849    4.90999985    2.01999998
   17.10499954   83.08899689    4.90999985    2.01999998
   17.10805511   82.36810303    4.90999985    2.01999998
   17.11138916   88.80049896    4.90999985    2.01999998
   17.11388969   96.98100281    4.90999985    2.01999998
   17.11499977   79.45760345    4.90999985    2.01999998
   17.11833382   77.55930328    4.90999985    2.01999998
   17.12138939   90.53099823    4.90999985    2.01999998
   17.12472153   90.96900177    4.90999985    2.01999998
   17.12777710   90.55120087    4.90999985    2.01999998
   17.13111115   87.57759857    4.90999985    2.01999998
   17.13444519   80.15830231    4.90999985    2.01999998
   17.13750076   87.62560272    4.90999985    2.01999998
   17.14361191   87.62560272    4.90999985    2.01999998
   17.14777756   89.62500000    4.90999985    2.01999998
   17.15111160   85.43740082    4.90999985    2.01999998
   17.15416718   87.35489655    4.90999985    2.01999998
   17.15749931   87.38300323    4.90999985    2.01999998
   17.16083336   86.88320160    4.90999985    2.01999998
   17.16388893   89.47740173    4.90999985    2.01999998
   17.16722107   86.48480225    4.90999985    2.01999998
   17.17027664   80.49810028    4.90999985    2.01999998
   17.17361069   84.85929871    4.90999985    2.01999998
   17.17694473   83.40910339    4.90999985    2.01999998
   17.18000031   84.55359650    4.90999985    2.01999998
   17.18055534   77.69830322    4.90999985    2.01999998
   17.18638802   77.69830322    4.90999985    2.01999998
   17.19055557   77.95429993    4.90999985    2.01999998
   17.19388771   79.48159790    4.90999985    2.01999998
   17.19722176   83.34729767    4.90999985    2.01999998
   17.20027924   81.64179993    4.90999985    2.01999998
   17.20361137   81.74279785    4.90999985    2.01999998
   17.20666695   77.37670135    4.90999985    2.01999998
   17.21000099   86.44840240    4.90999985    2.01999998
   17.21333504   78.70449829    4.90999985    2.01999998
   17.21389008   78.83200073    4.90999985    2.01999998
   17.21694565   81.09259796    4.90999985    2.01999998
   17.22027779   76.80889893    4.90999985    2.01999998
   17.22333336   81.27490234    4.90999985    2.01999998
   17.22944450   81.27490234    4.90999985    2.01999998
   17.23361206   76.74549866    4.90999985    2.01999998
   17.23666763   83.40599823    4.90999985    2.01999998
   17.23999977   82.53240204    4.90999985    2.01999998
   17.24305534   83.18990326    4.90999985    2.01999998
   17.24638939   81.23000336    4.90999985    2.01999998
   17.24722290   76.59410095    4.90999985    2.01999998
   17.25000000   78.67259979    4.90999985    2.01999998
   17.25333405   78.54129791    4.90999985    2.01999998
   17.25638962   78.94789886    4.90999985    2.01999998
   17.25972176   79.91600037    4.90999985    2.01999998
   17.26305580   79.72740173    4.90999985    2.01999998
   17.26611137   80.68609619    4.90999985    2.01999998
   17.27222252   80.68609619    4.90999985    2.01999998
   17.27638817   80.91210175    4.90999985    2.01999998
   17.27944374   78.08619690    4.90999985    2.01999998
   17.28055573   77.27500153    4.90999985    2.01999998
   17.28305435   80.54949951    4.90999985    2.01999998
   17.28638840   80.62390137    4.90999985    2.01999998
   17.28944397   80.10690308    4.90999985    2.01999998
   17.29277802   83.82180023    4.90999985    2.01999998
   17.29611015   78.77189636    4.90999985    2.01999998
   17.29916573   76.00399780    4.90999985    2.01999998
   17.30249977   81.12110138    4.90999985    2.01999998
   17.30555534   82.87280273    4.90999985    2.01999998
   17.30888748   79.11519623    4.90999985    2.01999998
   17.31499863   79.11519623    4.90999985    2.01999998
   17.31916809   78.22910309    4.90999985    2.01999998
   17.32250023   82.97350311    4.90999985    2.01999998
   17.32555580   79.82140350    4.90999985    2.01999998
   17.32888985   83.86340332    4.90999985    2.01999998
   17.33222389   80.43280029    4.90999985    2.01999998
   17.33527756   83.74359894    4.90999985    2.01999998
   17.33861160   77.58460236    4.90999985    2.01999998
   17.34194565   79.14360046    4.90999985    2.01999998
   17.34500122   85.19899750    4.90999985    2.01999998
   17.34722328   85.72019958    4.90999985    2.01999998
   17.34861183   92.70970154    4.90999985    2.01999998
   17.35194397   84.66799927    4.90999985    2.01999998
   17.35805511   84.66799927    4.90999985    2.01999998
   17.36194420   92.68379974    4.90999985    2.01999998
   17.36527824   96.16670227    4.90999985    2.01999998
   17.36861038   86.45950317    4.90999985    2.01999998
   17.37166595   85.43789673    4.90999985    2.01999998
   17.37500000   83.66600037    4.90999985    2.01999998
   17.37833405   85.08100128    4.90999985    2.01999998
   17.38055611   82.57620239    4.90999985    2.01999998
   17.38194466   91.39749908    4.90999985    2.01999998
   17.38527679   80.30390167    4.90999985    2.01999998
   17.38833237   85.15869904    4.90999985    2.01999998
   17.39166641   83.88860321    4.90999985    2.01999998
   17.39500046   86.41510010    4.90999985    2.01999998
   17.40083313   86.41510010    4.90999985    2.01999998
   17.40499878   82.06410217    4.90999985    2.01999998
   17.40805435   77.90209961    4.90999985    2.01999998
   17.41138840   84.15249634    4.90999985    2.01999998
   17.41388893   86.53089905    4.90999985    2.01999998
   17.41499901   83.10089874    4.90999985    2.01999998
   17.41833305   84.61090088    4.90999985    2.01999998
   17.42138863   78.05909729    4.90999985    2.01999998
   17.42472076   82.78140259    4.90999985    2.01999998
   17.42805481   77.66629791    4.90999985    2.01999998
   17.43111038   78.08149719    4.90999985    2.01999998
   17.43444443   78.96669769    4.90999985    2.01999998
   17.43750000   79.35320282    4.90999985    2.01999998
   17.44361115   79.35320282    4.90999985    2.01999998
   17.44777679   76.99559784    4.90999985    2.01999998
   17.45083427   80.31479645    4.90999985    2.01999998
   17.45416832   79.65499878    4.90999985    2.01999998
   17.45750046   80.24890137    4.90999985    2.01999998
   17.46055603   78.02860260    4.90999985    2.01999998
   17.46389008   77.03140259    4.90999985    2.01999998
   17.46722221   78.93299866    4.90999985    2.01999998
   17.47027779   80.20709991    4.90999985    2.01999998
   17.47361183   79.32080078    4.90999985    2.01999998
   17.47666740   78.12380219    4.90999985    2.01999998
   17.48000145   77.04499817    4.90999985    2.01999998
   17.48055649   80.66670227    4.90999985    2.01999998
   17.48638916   80.66670227    4.90999985    2.01999998
   17.49055672   82.34100342    4.90999985    2.01999998
   17.49388885   80.51770020    4.90999985    2.01999998
   17.49694443   81.10009766    4.90999985    2.01999998
   17.50027847   78.63300323    4.90999985    2.01999998
   17.50361061   77.48799896    4.90999985    2.01999998
   17.50666618   82.51020050    4.90999985    2.01999998
   17.51000023   74.47039795    4.90999985    2.01999998
   17.51333427   79.94989777    4.90999985    2.01999998
   17.51416588   78.24819946    4.90999985    2.01999998
   17.51694489   76.05629730    4.90999985    2.01999998
   17.52027702   76.36039734    4.90999985    2.01999998
   17.52333260   78.04419708    4.90999985    2.01999998
   17.52916718   78.04419708    4.90999985    2.01999998
   17.53333282   75.13549805    4.90999985    2.01999998
   17.53666687   79.86389923    4.90999985    2.01999998
   17.53999901   79.40799713    4.90999985    2.01999998
   17.54305458   82.07499695    4.90999985    2.01999998
   17.54638863   81.04399872    4.90999985    2.01999998
   17.54749870   78.78669739    4.90999985    2.01999998
   17.54999924   77.59259796    4.90999985    2.01999998
   17.55333328   78.21980286    4.90999985    2.01999998
   17.55638885   80.01129913    4.90999985    2.01999998
   17.55972099   77.50189972    4.90999985    2.01999998
   17.56305504   74.77230072    4.90999985    2.01999998
   17.56611061   75.75129700    4.90999985    2.01999998
   17.57222366   75.75129700    4.90999985    2.01999998
   17.57638931   78.24469757    4.90999985    2.01999998
   17.57944489   74.98840332    4.90999985    2.01999998
   17.58083344   79.50240326    4.90999985    2.01999998
   17.58305550   78.38559723    4.90999985    2.01999998
   17.58638954   76.54419708    4.90999985    2.01999998
   17.58972359   75.19809723    4.90999985    2.01999998
   17.59277916   75.65299988    4.90999985    2.01999998
   17.59611130   77.53610229    4.90999985    2.01999998
   17.59944534   78.52449799    4.90999985    2.01999998
   17.60250092   77.92700195    4.90999985    2.01999998
   17.60639000   81.23449707    4.90999985    2.01999998
   17.60972214   75.81950378    4.90999985    2.01999998
   17.61499977   75.81950378    4.90999985    2.01999998
   17.61916733   82.22509766    4.90999985    2.01999998
   17.62249947   78.89109802    4.90999985    2.01999998
   17.62555504   75.78140259    4.90999985    2.01999998
   17.62888908   79.34249878    4.90999985    2.01999998
   17.63194466   82.56590271    4.90999985    2.01999998
   17.63527679   81.38839722    4.90999985    2.01999998
   17.63861084   75.86609650    4.90999985    2.01999998
   17.64166641   81.86560059    4.90999985    2.01999998
   17.64500046   82.51270294    4.90999985    2.01999998
   17.64749908   81.49189758    4.90999985    2.01999998
   17.64861107   80.97820282    4.90999985    2.01999998
   17.65194321   80.45050049    4.90999985    2.01999998
   17.65777779   80.45050049    4.90999985    2.01999998
   17.66194344   80.14900208    4.90999985    2.01999998
   17.66527748   84.60160065    4.90999985    2.01999998
   17.66833305   76.93019867    4.90999985    2.01999998
   17.67166519   78.83640289    4.90999985    2.01999998
   17.67499924   82.14189911    4.90999985    2.01999998
   17.67805481   83.87969971    4.90999985    2.01999998
   17.68083191   81.26619720    4.90999985    2.01999998
   17.68166542   81.26580048    4.90999985    2.01999998
   17.68499947   84.71990204    4.90999985    2.01999998
   17.68805504   82.01460266    4.90999985    2.01999998
   17.69138718   85.39980316    4.90999985    2.01999998
   17.69472122   88.87580109    4.90999985    2.01999998
   17.70083427   88.87580109    4.90999985    2.01999998
   17.70472336   79.76989746    4.90999985    2.01999998
   17.70805550   82.65740204    4.90999985    2.01999998
   17.71138954   83.42250061    4.90999985    2.01999998
   17.71416664   85.27989960    4.90999985    2.01999998
   17.71500015   83.88700104    4.90999985    2.01999998
   17.71833420   82.67340088    4.90999985    2.01999998
   17.72138977   83.69170380    4.90999985    2.01999998
   17.72472191   83.13069916    4.90999985    2.01999998
   17.72805595   81.99729919    4.90999985    2.01999998
   17.73139000   81.23880005    4.90999985    2.01999998
   17.73444557   79.20010376    4.90999985    2.01999998
   17.73777771   91.95809937    4.90999985    2.01999998
   17.74361229   91.95809937    4.90999985    2.01999998
   17.74777794   86.89289856    4.90999985    2.01999998
   17.75083351   80.06549835    4.90999985    2.01999998
   17.75416756   81.55139923    4.90999985    2.01999998
   17.75722313   82.91510010    4.90999985    2.01999998
   17.76055527   85.01249695    4.90999985    2.01999998
   17.76388931   83.83219910    4.90999985    2.01999998
   17.76694489   77.09449768    4.90999985    2.01999998
   17.77027702   81.22039795    4.90999985    2.01999998
   17.77361107   85.77809906    4.90999985    2.01999998
   17.77666664   79.48680115    4.90999985    2.01999998
   17.78000069   89.57240295    4.90999985    2.01999998
   17.78083229   82.06140137    4.90999985    2.01999998
   17.78638840   82.06140137    4.90999985    2.01999998
   17.79055595   87.05220032    4.90999985    2.01999998
   17.79361153   89.22290039    4.90999985    2.01999998
   17.79694366   83.07749939    4.90999985    2.01999998
   17.80027771   83.71209717    4.90999985    2.01999998
   17.80333328   87.72820282    4.90999985    2.01999998
   17.80666542   93.53849792    4.90999985    2.01999998
   17.80999947   88.97029877    4.90999985    2.01999998
   17.81333351   87.33699799    4.90999985    2.01999998
   17.81416512   92.28189850    4.90999985    2.01999998
   17.81694603   87.50379944    4.90999985    2.01999998
   17.82027817   86.03630066    4.90999985    2.01999998
   17.82361221   88.57080078    4.90999985    2.01999998
   17.82916832   88.57080078    4.90999985    2.01999998
   17.83333397   86.48729706    4.90999985    2.01999998
   17.83666801   81.40209961    4.90999985    2.01999998
   17.84000015   85.07469940    4.90999985    2.01999998
   17.84333420   87.78759766    4.90999985    2.01999998
   17.84638977   78.91670227    4.90999985    2.01999998
   17.84749985   84.90180206    4.90999985    2.01999998
   17.85027885   94.58480072    4.90999985    2.01999998
   17.85361099   81.34040070    4.90999985    2.01999998
   17.85666656   92.25810242    4.90999985    2.01999998
   17.86000061   91.03540039    4.90999985    2.01999998
   17.86333466   91.31240082    4.90999985    2.01999998
   17.86638832   78.26080322    4.90999985    2.01999998
   17.87194443   78.26080322    4.90999985    2.01999998
   17.87611198   99.71970367    4.90999985    2.01999998
   17.87944412   88.24639893    4.90999985    2.01999998
   17.88083267   84.44000244    4.90999985    2.01999998
   17.88305473   88.71009827    4.90999985    2.01999998
   17.88638878   79.31349945    4.90999985    2.01999998
   17.88972282   82.99880219    4.90999985    2.01999998
   17.89277840   80.44529724    4.90999985    2.01999998
   17.89611053   80.40239716    4.90999985    2.01999998
   17.89916611   78.91500092    4.90999985    2.01999998
   17.90250015   81.36129761    4.90999985    2.01999998
   17.90583229   83.82039642    4.90999985    2.01999998
   17.90888786   78.66739655    4.90999985    2.01999998
   17.91499901   78.66739655    4.90999985    2.01999998
   17.91916656   83.88610077    4.90999985    2.01999998
   17.92249870   78.62069702    4.90999985    2.01999998
   17.92555428   94.80149841    4.90999985    2.01999998
   17.92888832   76.71289825    4.90999985    2.01999998
   17.93222237   77.38980103    4.90999985    2.01999998
   17.93527603   76.99849701    4.90999985    2.01999998
   17.93861008   80.99250031    4.90999985    2.01999998
   17.94166565   85.26840210    4.90999985    2.01999998
   17.94499969   79.08979797    4.90999985    2.01999998
   17.94749832   76.91390228    4.90999985    2.01999998
   17.96805573   76.91390228    4.90999985    2.01999998
   17.97222328   79.11139679    4.90999985    2.01999998
   17.97555542   80.45510101    4.90999985    2.01999998
   17.97861099   86.56970215    4.90999985    2.01999998
   17.98083305   94.43409729    4.90999985    2.01999998
   17.98222351   89.23850250    4.90999985    2.01999998
   17.98555565   88.48459625    4.90999985    2.01999998
   17.98888969   87.92389679    4.90999985    2.01999998
   17.99194527   90.52140045    4.90999985    2.01999998
   17.99527740   81.79709625    4.90999985    2.01999998
   17.99861145   89.99559784    4.90999985    2.01999998
   18.00166702   85.14070129    4.90999985    2.01999998
   18.00499916   78.50170135    4.90999985    2.01999998
   18.01083374   78.50170135    4.90999985    2.01999998
   18.01499939   91.37049866    4.90999985    2.01999998
   18.01805496   85.98429871    4.90999985    2.01999998
   18.02138901   94.90489960    4.90999985    2.01999998
   18.02472115   89.02999878    4.90999985    2.01999998
   18.02777672   86.24240112    4.90999985    2.01999998
   18.03111076   88.17089844    4.90999985    2.01999998
   18.03444481   94.84989929    4.90999985    2.01999998
   18.03750038   84.77220154    4.90999985    2.01999998
   18.04083252   81.41609955    4.90999985    2.01999998
   18.04388809   83.48300171    4.90999985    2.01999998
   18.04722214   96.70110321    4.90999985    2.01999998
   18.04777718  101.68099976    4.90999985    2.01999998
   18.05360985  101.68099976    4.90999985    2.01999998
   18.05833244   93.82119751    4.90999985    2.01999998
   18.06166649   88.40709686    4.90999985    2.01999998
   18.06499863   91.88880157    4.90999985    2.01999998
   18.06805611   93.13629913    4.90999985    2.01999998
   18.07139015   79.56310272    4.90999985    2.01999998
   18.07444572   85.29340363    4.90999985    2.01999998
   18.07777786   85.46679688    4.90999985    2.01999998
   18.08083344  100.06300354    4.90999985    2.01999998
   18.08139038   89.04450226    4.90999985    2.01999998
   18.08472252   89.75029755    4.90999985    2.01999998
   18.08805656   90.52069855    4.90999985    2.01999998
   18.09111214   96.82170105    4.90999985    2.01999998
   18.09638977   96.82170105    4.90999985    2.01999998
   18.10055542   91.94010162    4.90999985    2.01999998
   18.10388947   89.60379791    4.90999985    2.01999998
   18.10694504   87.95670319    4.90999985    2.01999998
   18.11027908   86.13130188    4.90999985    2.01999998
   18.11333466   98.26629639    4.90999985    2.01999998
   18.11472321   98.28610229    4.90999985    2.01999998
   18.11694527   88.77790070    4.90999985    2.01999998
   18.12027740   90.58170319    4.90999985    2.01999998
   18.12361145   88.19409943    4.90999985    2.01999998
   18.12694550   95.13059998    4.90999985    2.01999998
   18.13000107   94.88849640    4.90999985    2.01999998
   18.13333321   94.89579773    4.90999985    2.01999998
   18.13944435   94.89579773    4.90999985    2.01999998
   18.14333344   99.78810120    4.90999985    2.01999998
   18.14666748  108.87300110    4.90999985    2.01999998
   18.14805603   95.97540283    4.90999985    2.01999998
   18.15027809   92.69560242    4.90999985    2.01999998
   18.15361023  105.68800354    4.90999985    2.01999998
   18.15666580   97.93990326    4.90999985    2.01999998
   18.15999985   91.81179810    4.90999985    2.01999998
   18.16305542   96.28369904    4.90999985    2.01999998
   18.16638756   99.88729858    4.90999985    2.01999998
   18.16944313   99.19139862    4.90999985    2.01999998
   18.17277718  105.55699921    4.90999985    2.01999998
   18.17611122   87.67520142    4.90999985    2.01999998
   18.18222237   87.67520142    4.90999985    2.01999998
   18.18638802  100.61100006    4.90999985    2.01999998
   18.19027710   93.22339630    4.90999985    2.01999998
   18.19333267  108.19100189    4.90999985    2.01999998
   18.19694328  100.20300293    4.90999985    2.01999998
   18.20138931   98.34570313    4.90999985    2.01999998
   18.20444489   86.62969971    4.90999985    2.01999998
   18.20777893   98.22889709    4.90999985    2.01999998
   18.21111107   98.79329681    4.90999985    2.01999998
   18.21444511  107.30599976    4.90999985    2.01999998
   18.21555710   94.87850189    4.90999985    2.01999998
   18.21861076   98.42079926    4.90999985    2.01999998
   18.22527885   98.42079926    4.90999985    2.01999998
   18.22972298   98.47570038    4.90999985    2.01999998
   18.23305511  107.88700104    4.90999985    2.01999998
   18.23611069  100.94999695    4.90999985    2.01999998
   18.23944473   96.48030090    4.90999985    2.01999998
   18.24277878  101.24900055    4.90999985    2.01999998
   18.24611092  107.19799805    4.90999985    2.01999998
   18.24888992  102.72899628    4.90999985    2.01999998
   18.25027847   97.70549774    4.90999985    2.01999998
   18.25361061  103.84200287    4.90999985    2.01999998
   18.25694466  101.20700073    4.90999985    2.01999998
   18.26027870  110.56400299    4.90999985    2.01999998
   18.26361084   98.39959717    4.90999985    2.01999998
   18.26833344   98.39959717    4.90999985    2.01999998
   18.27249908  100.02600098    4.90999985    2.01999998
   18.27583313  108.09100342    4.90999985    2.01999998
   18.27916718  107.83899689    4.90999985    2.01999998
   18.28222275  100.81300354    4.90999985    2.01999998
   18.28333282   97.65920258    4.90999985    2.01999998
   18.28694344  104.43800354    4.90999985    2.01999998
   18.29027748  108.76300049    4.90999985    2.01999998
   18.29361153   97.72309875    4.90999985    2.01999998
   18.29694366  109.96700287    4.90999985    2.01999998
   18.30027771  107.13800049    4.90999985    2.01999998
   18.30360985  102.57800293    4.90999985    2.01999998
   18.30694389  102.32700348    4.90999985    2.01999998
   18.31110954  102.32700348    4.90999985    2.01999998
   18.31555557  102.32099915    4.90999985    2.01999998
   18.31888962   95.75679779    4.90999985    2.01999998
   18.32222366   95.74700165    4.90999985    2.01999998
   18.32555580   96.35540009    4.90999985    2.01999998
   18.32888985  107.56900024    4.90999985    2.01999998
   18.33222389  100.89099884    4.90999985    2.01999998
   18.33555603   98.77719879    4.90999985    2.01999998
   18.33889008  102.99700165    4.90999985    2.01999998
   18.34222221   95.41159821    4.90999985    2.01999998
   18.34555626  105.75599670    4.90999985    2.01999998
   18.34889030   95.19190216    4.90999985    2.01999998
   18.34944534  106.69499969    4.90999985    2.01999998
   18.35416794  106.69499969    4.90999985    2.01999998
   18.35861206  101.72299957    4.90999985    2.01999998
   18.36194420   89.97000122    4.90999985    2.01999998
   18.36527824  101.17500305    4.90999985    2.01999998
   18.36861038   94.84839630    4.90999985    2.01999998
   18.37222290   92.03019714    4.90999985    2.01999998
   18.37555504   92.85169983    4.90999985    2.01999998
   18.37888908   92.92259979    4.90999985    2.01999998
   18.38249969   96.50299835    4.90999985    2.01999998
   18.38361168   92.76020050    4.90999985    2.01999998
   18.38750076   99.18399811    4.90999985    2.01999998
   18.39111137   89.13140106    4.90999985    2.01999998
   18.39833260   89.13140106    4.90999985    2.01999998
   18.40277672   97.16400146    4.90999985    2.01999998
   18.40611076   94.04479980    4.90999985    2.01999998
   18.40916634   95.21880341    4.90999985    2.01999998
   18.41305542   93.41079712    4.90999985    2.01999998
   18.41583252   98.36959839    4.90999985    2.01999998
   18.41722107   98.83450317    4.90999985    2.01999998
   18.42055511   92.15360260    4.90999985    2.01999998
   18.42388916   97.36830139    4.90999985    2.01999998
   18.42722130   97.54460144    4.90999985    2.01999998
   18.43055534   90.32409668    4.90999985    2.01999998
   18.43388748   96.83660126    4.90999985    2.01999998
   18.43999863   96.83660126    4.90999985    2.01999998
   18.44444275  103.25000000    4.90999985    2.01999998
   18.44777679   99.80470276    4.90999985    2.01999998
   18.44916534  106.65499878    4.90999985    2.01999998
   18.45194435  106.43000031    4.90999985    2.01999998
   18.45527840   99.53050232    4.90999985    2.01999998
   18.45861244   98.89779663    4.90999985    2.01999998
   18.46194458   98.98850250    4.90999985    2.01999998
   18.46527863   99.30709839    4.90999985    2.01999998
   18.46861076  103.78399658    4.90999985    2.01999998
   18.47194481   95.46630096    4.90999985    2.01999998
   18.47527885   99.63469696    4.90999985    2.01999998
   18.47861099  103.08100128    4.90999985    2.01999998
   18.48333359  103.08100128    4.90999985    2.01999998
   18.48750114  108.75099945    4.90999985    2.01999998
   18.49083328  105.30000305    4.90999985    2.01999998
   18.49416733  108.68000031    4.90999985    2.01999998
   18.49749947  106.18299866    4.90999985    2.01999998
   18.50083351   97.59249878    4.90999985    2.01999998
   18.50416756  104.93599701    4.90999985    2.01999998
   18.50722313  105.31999969    4.90999985    2.01999998
   18.51944351   98.10919952    4.90999985    2.01999998
   18.52027702  104.08899689    4.90999985    2.01999998
   18.52416611  103.18599701    4.90999985    2.01999998
   18.53055573  103.18599701    4.90999985    2.01999998
   18.53472137   98.95120239    4.90999985    2.01999998
   18.53805542  101.46800232    4.90999985    2.01999998
   18.54138756   99.04049683    4.90999985    2.01999998
   18.54472160  101.64199829    4.90999985    2.01999998
   18.54805565  103.70300293    4.90999985    2.01999998
   18.55138779   93.04969788    4.90999985    2.01999998
   18.55360985  100.07900238    4.90999985    2.01999998
   18.55555534   99.88069916    4.90999985    2.01999998
   18.55888748  104.01200104    4.90999985    2.01999998
   18.56222153  100.15899658    4.90999985    2.01999998
   18.56555557   99.11199951    4.90999985    2.01999998
   18.57222366   99.11199951    4.90999985    2.01999998
   18.57666779   94.01010132    4.90999985    2.01999998
   18.58000183   99.46410370    4.90999985    2.01999998
   18.58333397   96.80210114    4.90999985    2.01999998
   18.58694458  103.26799774    4.90999985    2.01999998
   18.58750153   91.52130127    4.90999985    2.01999998
   18.59083366  103.19000244    4.90999985    2.01999998
   18.59416771   97.65609741    4.90999985    2.01999998
   18.59749985   91.68609619    4.90999985    2.01999998
   18.60083389   92.51059723    4.90999985    2.01999998
   18.60416794   89.11550140    4.90999985    2.01999998
   18.60750008   79.91590118    4.90999985    2.01999998
   18.61083412   85.36260223    4.90999985    2.01999998
   18.61527824   85.36260223    4.90999985    2.01999998
   18.61972237   88.43689728    4.90999985    2.01999998
   18.62055588   84.94539642    4.90999985    2.01999998
   18.62416649   88.83119965    4.90999985    2.01999998
   18.62750053   89.02749634    4.90999985    2.01999998
   18.63083267   82.10019684    4.90999985    2.01999998
   18.63416672   87.67009735    4.90999985    2.01999998
   18.63750076   82.80120087    4.90999985    2.01999998
   18.64083290   86.65779877    4.90999985    2.01999998
   18.64416695   77.15969849    4.90999985    2.01999998
   18.64749908   90.23249817    4.90999985    2.01999998
   18.65083313   91.90950012    4.90999985    2.01999998
   18.65388870   89.81770325    4.90999985    2.01999998
   18.65861130   89.81770325    4.90999985    2.01999998
   18.66277695   96.10540009    4.90999985    2.01999998
   18.66611099   88.52670288    4.90999985    2.01999998
   18.66944313   98.01719666    4.90999985    2.01999998
   18.67277718   95.61499786    4.90999985    2.01999998
   18.67611122   95.50710297    4.90999985    2.01999998
   18.67944336  100.13300323    4.90999985    2.01999998
   18.68277740  102.59700012    4.90999985    2.01999998
   18.68610954   90.79429626    4.90999985    2.01999998
   18.68722153  103.38800049    4.90999985    2.01999998
   18.69027710   92.08209991    4.90999985    2.01999998
   18.69361115   94.80599976    4.90999985    2.01999998
   18.69694328   97.01889801    4.90999985    2.01999998
   18.70166779   97.01889801    4.90999985    2.01999998
   18.70583344  104.45999908    4.90999985    2.01999998
   18.70916748   97.91760254    4.90999985    2.01999998
   18.71250153   92.27989960    4.90999985    2.01999998
   18.71583366   94.76219940    4.90999985    2.01999998
   18.71916771   89.75309753    4.90999985    2.01999998
   18.72055626   94.96849823    4.90999985    2.01999998
   18.72333336   93.41459656    4.90999985    2.01999998
   18.72666740   96.08439636    4.90999985    2.01999998
   18.73000145  100.11900330    4.90999985    2.01999998
   18.73333359   94.92070007    4.90999985    2.01999998
   18.73666763  108.51000214    4.90999985    2.01999998
   18.73999977  102.47599792    4.90999985    2.01999998
   18.74444389  102.47599792    4.90999985    2.01999998
   18.74888992  102.19699860    4.90999985    2.01999998
   18.75222206  105.34200287    4.90999985    2.01999998
   18.75388908  105.58499908    4.90999985    2.01999998
   18.75611115  100.97899628    4.90999985    2.01999998
   18.75944519  107.45899963    4.90999985    2.01999998
   18.76305580  115.02400208    4.90999985    2.01999998
   18.76638794  102.29299927    4.90999985    2.01999998
   18.77000046  112.80400085    4.90999985    2.01999998
   18.77333260  108.71700287    4.90999985    2.01999998
   18.77666664  114.08399963    4.90999985    2.01999998
   18.78000069   98.67430115    4.90999985    2.01999998
   18.78333282  108.25499725    4.90999985    2.01999998
   18.78777695  108.25499725    4.90999985    2.01999998
   18.79194450  100.20099640    4.90999985    2.01999998
   18.79527664  111.98000336    4.90999985    2.01999998
   18.79861069  108.21099854    4.90999985    2.01999998
   18.80194283  112.42199707    4.90999985    2.01999998
   18.80527687  109.37200165    4.90999985    2.01999998
   18.80861092  108.20899963    4.90999985    2.01999998
   18.81222153  101.81600189    4.90999985    2.01999998
   18.81527710  107.10399628    4.90999985    2.01999998
   18.81888962  103.73999786    4.90999985    2.01999998
   18.82083511  101.37899780    4.90999985    2.01999998
   18.82305717  112.44599915    4.90999985    2.01999998
   18.82638931  105.88300323    4.90999985    2.01999998
   18.83111191  105.88300323    4.90999985    2.01999998
   18.83555603  101.76200104    4.90999985    2.01999998
   18.83861160  109.90899658    4.90999985    2.01999998
   18.84194565  106.82599640    4.90999985    2.01999998
   18.84527779   92.13480377    4.90999985    2.01999998
   18.84861183  111.85700226    4.90999985    2.01999998
   18.85194397  116.52999878    4.90999985    2.01999998
   18.85416794   96.51409912    4.90999985    2.01999998
   18.85611153   96.66000366    4.90999985    2.01999998
   18.85944557  113.78800201    4.90999985    2.01999998
   18.86277771   96.88320160    4.90999985    2.01999998
   18.86611176  104.46800232    4.90999985    2.01999998
   18.86916733   90.03530121    4.90999985    2.01999998
   18.87361145   90.03530121    4.90999985    2.01999998
   18.87750053  101.71900177    4.90999985    2.01999998
   18.88083267  102.41899872    4.90999985    2.01999998
   18.88416672  101.44400024    4.90999985    2.01999998
   18.88694382  105.41899872    4.90999985    2.01999998
   18.88777733  106.27899933    4.90999985    2.01999998
   18.89083290  110.86599731    4.90999985    2.01999998
   18.89416695   99.91999817    4.90999985    2.01999998
   18.89722252  111.56099701    4.90999985    2.01999998
   18.90055466  106.38200378    4.90999985    2.01999998
   18.90388870   98.61669922    4.90999985    2.01999998
   18.90694427  103.81300354    4.90999985    2.01999998
   18.91027832   97.89800262    4.90999985    2.01999998
   18.91638756   97.89800262    4.90999985    2.01999998
   18.92055511  163.55799866    4.90999985    2.01999998
   18.92361069  180.45599365    4.90999985    2.01999998
   18.92694473  191.16600037    4.90999985    2.01999998
   18.93000031  184.04600525    4.90999985    2.01999998
   18.93333244  174.71600342    4.90999985    2.01999998
   18.93666649  175.01499939    4.90999985    2.01999998
   18.93972206  183.35400391    4.90999985    2.01999998
   18.94305420  153.44700623    4.90999985    2.01999998
   18.94610977  147.98699951    4.90999985    2.01999998
   18.94944382  120.01799774    4.90999985    2.01999998
   18.95250130  122.68099976    4.90999985    2.01999998
   18.95361137  125.55500031    4.90999985    2.01999998
   18.95916748  125.55500031    4.90999985    2.01999998
   18.96333504  135.32800293    4.90999985    2.01999998
   18.96666718  113.12599945    4.90999985    2.01999998
   18.98611069  115.83999634    4.90999985    2.01999998
   18.98694420  107.96499634    4.90999985    2.01999998
   18.98972321  106.06500244    4.90999985    2.01999998
   18.99305534   99.76570129    4.90999985    2.01999998
   18.99611092  108.07299805    4.90999985    2.01999998
   19.00194359  108.07299805    4.90999985    2.01999998
   19.00611115  113.23699951    4.90999985    2.01999998
   19.00944519  114.38800049    4.90999985    2.01999998
   19.01250076  107.07099915    4.90999985    2.01999998
   19.01583290  114.34799957    4.90999985    2.01999998
   19.01888847  109.23600006    4.90999985    2.01999998
   19.02027702  112.79000092    4.90999985    2.01999998
   19.02249908   99.01750183    4.90999985    2.01999998
   19.02583313   93.04470062    4.90999985    2.01999998
   19.02888870  102.58000183    4.90999985    2.01999998
   19.03222275  100.05999756    4.90999985    2.01999998
   19.03527641   98.89890289    4.90999985    2.01999998
   19.03861046  101.92299652    4.90999985    2.01999998
   19.04500008  101.92299652    4.90999985    2.01999998
   19.04916573   89.65840149    4.90999985    2.01999998
   19.05222130  100.82399750    4.90999985    2.01999998
   19.05360985  100.90399933    4.90999985    2.01999998
   19.05583191  106.29900360    4.90999985    2.01999998
   19.05916595   90.90339661    4.90999985    2.01999998
   19.06222153  110.19799805    4.90999985    2.01999998
   19.06555557  103.81400299    4.90999985    2.01999998
   19.06861115  100.16000366    4.90999985    2.01999998
   19.07194519  101.73899841    4.90999985    2.01999998
   19.07500076  104.90399933    4.90999985    2.01999998
   19.07833481   99.74780273    4.90999985    2.01999998
   19.08166695  101.23200226    4.90999985    2.01999998
   19.08777809  101.23200226    4.90999985    2.01999998
   19.09194565  109.14199829    4.90999985    2.01999998
   19.09500122   93.56179810    4.90999985    2.01999998
   19.09833336  107.50099945    4.90999985    2.01999998
   19.10138893  108.37300110    4.90999985    2.01999998
   19.10472298  119.44300079    4.90999985    2.01999998
   19.10805511   98.51159668    4.90999985    2.01999998
   19.11111069  110.48000336    4.90999985    2.01999998
   19.11444473  113.35199738    4.90999985    2.01999998
   19.11750031  118.97000122    4.90999985    2.01999998
   19.12055588  139.27999878    4.90999985    2.01999998
   19.12111092  127.90200043    4.90999985    2.01999998
   19.12444496  122.90399933    4.90999985    2.01999998
   19.13055611  122.90399933    4.90999985    2.01999998
   19.13472176  129.54699707    4.90999985    2.01999998
   19.13805580  112.73600006    4.90999985    2.01999998
   19.14111137  120.04199982    4.90999985    2.01999998
   19.14444351  124.16500092    4.90999985    2.01999998
   19.14749908  112.31400299    4.90999985    2.01999998
   19.15083313  116.83499908    4.90999985    2.01999998
   19.15388870  116.57499695    4.90999985    2.01999998
   19.15444374  119.63500214    4.90999985    2.01999998
   19.15777779  130.60800171    4.90999985    2.01999998
   19.16083336  124.23400116    4.90999985    2.01999998
   19.16416550  129.56500244    4.90999985    2.01999998
   19.16722107  112.79799652    4.90999985    2.01999998
   19.17333221  112.79799652    4.90999985    2.01999998
   19.17749977  115.63700104    4.90999985    2.01999998
   19.18083191  114.43699646    4.90999985    2.01999998
   19.18388748  116.82099915    4.90999985    2.01999998
   19.18722153  118.37899780    4.90999985    2.01999998
   19.18750000  117.92299652    4.90999985    2.01999998
   19.19083214  111.85600281    4.90999985    2.01999998
   19.19388771  110.35299683    4.90999985    2.01999998
   19.19722176  103.51499939    4.90999985    2.01999998
   19.20083427  101.45400238    4.90999985    2.01999998
   19.20388985   99.17179871    4.90999985    2.01999998
   19.20722389  101.09600067    4.90999985    2.01999998
   19.21027946  106.29499817    4.90999985    2.01999998
   19.21638870  106.29499817    4.90999985    2.01999998
   19.22055626  112.56800079    4.90999985    2.01999998
   19.22361183  115.57599640    4.90999985    2.01999998
   19.22694588  109.66500092    4.90999985    2.01999998
   19.23000145  108.65200043    4.90999985    2.01999998
   19.23333359  107.82299805    4.90999985    2.01999998
   19.23638916  101.79499817    4.90999985    2.01999998
   19.23972321  103.52500153    4.90999985    2.01999998
   19.24277878  113.45099640    4.90999985    2.01999998
   19.24611092  100.33000183    4.90999985    2.01999998
   19.24944496  110.97499847    4.90999985    2.01999998
   19.25250053  102.36000061    4.90999985    2.01999998
   19.25388908   95.78739929    4.90999985    2.01999998
   19.25916672   95.78739929    4.90999985    2.01999998
   19.26333427  107.50299835    4.90999985    2.01999998
   19.26638794  114.95999908    4.90999985    2.01999998
   19.26972198  120.91300201    4.90999985    2.01999998
   19.27277756  119.43900299    4.90999985    2.01999998
   19.27611160  102.01699829    4.90999985    2.01999998
   19.27944374  112.81300354    4.90999985    2.01999998
   19.28249931  108.15699768    4.90999985    2.01999998
   19.28583336  109.67500305    4.90999985    2.01999998
   19.28722191  127.65699768    4.90999985    2.01999998
   19.28944397  108.57499695    4.90999985    2.01999998
   19.29277802  109.67900085    4.90999985    2.01999998
   19.29583359  115.80000305    4.90999985    2.01999998
   19.30194283  115.80000305    4.90999985    2.01999998
   19.30611038  106.05300140    4.90999985    2.01999998
   19.30944443  106.33899689    4.90999985    2.01999998
   19.31250000  121.48000336    4.90999985    2.01999998
   19.31583214  111.50700378    4.90999985    2.01999998
   19.31888962  105.66699982    4.90999985    2.01999998
   19.32055664   94.35540009    4.90999985    2.01999998
   19.32250023  105.94699860    4.90999985    2.01999998
   19.32583427  107.34799957    4.90999985    2.01999998
   19.32888985  108.91999817    4.90999985    2.01999998
   19.33222389   97.13400269    4.90999985    2.01999998
   19.33555603  109.04900360    4.90999985    2.01999998
   19.33861160  106.36000061    4.90999985    2.01999998
   19.34472275  106.36000061    4.90999985    2.01999998
   19.34889030   95.70300293    4.90999985    2.01999998
   19.35222244   90.36949921    4.90999985    2.01999998
   19.35388947   91.72519684    4.90999985    2.01999998
   19.35583305   88.49559784    4.90999985    2.01999998
   19.35916710   98.91770172    4.90999985    2.01999998
   19.36222267  142.63900757    4.90999985    2.01999998
   19.36555672  175.50300598    4.90999985    2.01999998
   19.36888885  150.89500427    4.90999985    2.01999998
   19.37194443   -1.00000000    4.90999985    2.01999998
   19.37527847   -1.00000000    4.90999985    2.01999998
   19.37833405   -1.00000000    4.90999985    2.01999998
   19.38166618   -1.00000000    4.90999985    2.01999998
   19.39166641   -1.00000000    4.90999985    2.01999998
   19.39500046   -1.00000000    4.90999985    2.01999998
   19.39805603   -1.00000000    4.90999985    2.01999998
   19.40138817   93.14769745    4.90999985    2.01999998
   19.40444374  101.74600220    4.90999985    2.01999998
   19.40777779  124.49700165    4.90999985    2.01999998
   19.41110992   83.66249847    4.90999985    2.01999998
   19.41416550   96.20069885    4.90999985    2.01999998
   19.41749954  104.99400330    4.90999985    2.01999998
   19.42055511  112.07700348    4.90999985    2.01999998
   19.42083359  119.03299713    4.90999985    2.01999998
   19.42416573  109.39700317    4.90999985    2.01999998
   19.43055534  109.39700317    4.90999985    2.01999998
   19.43472099  110.43399811    4.90999985    2.01999998
   19.43777657  106.18199921    4.90999985    2.01999998
   19.44111061  111.55999756    4.90999985    2.01999998
   19.44444275  123.82700348    4.90999985    2.01999998
   19.44749832  414.93798828    4.90999985    2.01999998
   19.44944382   96.20069885    4.90999985    2.01999998
   19.44972038  104.99400330    4.90999985    2.01999998
   19.44972038  119.03299713    4.90999985    2.01999998
   19.45000076  109.39700317    4.90999985    2.01999998
   19.45000076  110.43399811    4.90999985    2.01999998
   19.45000076  106.18199921    4.90999985    2.01999998
   19.45027924  111.55999756    4.90999985    2.01999998
   19.45027924  123.82700348    4.90999985    2.01999998
   19.45027924  414.93798828    4.90999985    2.01999998
   19.45194435   -1.00000000    4.90999985    2.01999998
   19.45527840   -1.00000000    4.90999985    2.01999998
   19.45833397   -1.00000000    4.90999985    2.01999998
   19.46166801   -1.00000000    4.90999985    2.01999998
   19.46472359   -1.00000000    4.90999985    2.01999998
   19.47444534   -1.00000000    4.90999985    2.01999998
   19.47750092   -1.00000000    4.90999985    2.01999998
   19.48083305   -1.00000000    4.90999985    2.01999998
   19.48416710   -1.00000000    4.90999985    2.01999998
   19.48750114  299.16299438    4.90999985    2.01999998
   19.49055672  194.98599243    4.90999985    2.01999998
   19.49388885   72.71640015    4.90999985    2.01999998
   19.49722290  117.41899872    4.90999985    2.01999998
   19.50027847  199.75500488    4.90999985    2.01999998
   19.50361061  638.80200195    4.90999985    2.01999998
   19.50555611  383.70599365    4.90999985    2.01999998
   19.50694466  326.21701050    4.90999985    2.01999998
   19.50833321  260.29998779    4.90999985    2.01999998
   19.50972176  415.48599243    4.90999985    2.01999998
   19.51111031  179.88099670    4.90999985    2.01999998
   19.51111031  299.16299438    4.90999985    2.01999998
   19.51111031  194.98599243    4.90999985    2.01999998
   19.51138878   72.71640015    4.90999985    2.01999998
   19.51138878  117.41899872    4.90999985    2.01999998
   19.51138878  199.75500488    4.90999985    2.01999998
   19.51166725  638.80200195    4.90999985    2.01999998
   19.51166725   -1.00000000    4.90999985    2.01999998
   19.51194382   -1.00000000    4.90999985    2.01999998
   19.51194382   -1.00000000    4.90999985    2.01999998
   19.51250076   74.42310333    4.90999985    2.01999998
   19.51555634  146.89100647    4.90999985    2.01999998
   19.51888847  561.47802734    4.90999985    2.01999998
   19.52083397  499.53201294    4.90999985    2.01999998
   19.52222252  590.48699951    4.90999985    2.01999998
   19.52361107  590.33898926    4.90999985    2.01999998
   19.52499962  553.50500488    4.90999985    2.01999998
   19.52638817  546.98602295    4.90999985    2.01999998
   19.52777672  572.37200928    4.90999985    2.01999998
   19.52916718  584.41699219    4.90999985    2.01999998
   19.53055573  526.06799316    4.90999985    2.01999998
   19.53194427  414.88101196    4.90999985    2.01999998
   19.53333282  487.45599365    4.90999985    2.01999998
   19.53472137  470.06600952    4.90999985    2.01999998
   19.53610992  441.54998779    4.90999985    2.01999998
   19.53750038  468.80999756    4.90999985    2.01999998
   19.53888893  507.10800171    4.90999985    2.01999998
   19.54027748  503.66000366    4.90999985    2.01999998
   19.54166603  501.79901123    4.90999985    2.01999998
   19.54305458  530.06597900    4.90999985    2.01999998
   19.54444313  504.06500244    4.90999985    2.01999998
   19.54583359  491.73199463    4.90999985    2.01999998
   19.54722214  516.23498535    4.90999985    2.01999998
   19.54861069  519.06597900    4.90999985    2.01999998
   19.54999924  533.90997314    4.90999985    2.01999998
   19.55138779  544.39202881    4.90999985    2.01999998
   19.55277634  527.28698730    4.90999985    2.01999998
   19.55416679  530.67401123    4.90999985    2.01999998
   19.55555534  529.55700684    4.90999985    2.01999998
   19.55694389  615.52301025    4.90999985    2.01999998
   19.55833244  572.35302734    4.90999985    2.01999998
   19.55972099  532.08398438    4.90999985    2.01999998
   19.56110954  533.31097412    4.90999985    2.01999998
   19.56250000  549.42901611    4.90999985    2.01999998
   19.56388855  538.13897705    4.90999985    2.01999998
   19.56527710  487.13101196    4.90999985    2.01999998
   19.56666756  455.99200439    4.90999985    2.01999998
   19.56805611  472.90399170    4.90999985    2.01999998
   19.56944466  441.97399902    4.90999985    2.01999998
   19.57083511  416.17300415    4.90999985    2.01999998
   19.57222366  415.76501465    4.90999985    2.01999998
   19.57361221  391.30899048    4.90999985    2.01999998
   19.57500076  396.78900146    4.90999985    2.01999998
   19.57638931  443.42498779    4.90999985    2.01999998
   19.57777786  465.25900269    4.90999985    2.01999998
   19.57916832  450.78698730    4.90999985    2.01999998
   19.58055687  463.46200562    4.90999985    2.01999998
   19.58194542  448.79598999    4.90999985    2.01999998
   19.58333397  510.48400879    4.90999985    2.01999998
   19.58472252  480.92800903    4.90999985    2.01999998
   19.58611107  468.07998657    4.90999985    2.01999998
   19.58750153  495.89498901    4.90999985    2.01999998
   19.58889008  480.18899536    4.90999985    2.01999998
   19.59027863  280.47500610    4.90999985    2.01999998
   19.59166718  482.07501221    4.90999985    2.01999998
   19.59305573  368.27600098    4.90999985    2.01999998
   19.59444427  617.77099609    4.90999985    2.01999998
   19.59583473   22.01930046    4.90999985    2.01999998
   19.59583473   74.42310333    4.90999985    2.01999998
   19.59611130  146.89100647    4.90999985    2.01999998
   19.59611130  561.47802734    4.90999985    2.01999998
   19.59666824  134.89199829    4.90999985    2.01999998
   19.60000038  417.22601318    4.90999985    2.01999998
   19.60194397  475.91699219    4.90999985    2.01999998
   19.60333443  411.20999146    4.90999985    2.01999998
   19.60472298  552.52801514    4.90999985    2.01999998
   19.60611153  512.15600586    4.90999985    2.01999998
   19.60750008  533.15899658    4.90999985    2.01999998
   19.60888863  449.15100098    4.90999985    2.01999998
   19.61027908  381.13800049    4.90999985    2.01999998
   19.61166763  175.38400269    4.90999985    2.01999998
   19.61166763  134.89199829    4.90999985    2.01999998
   19.61166763  417.22601318    4.90999985    2.01999998
   19.61222267  182.70599365    4.90999985    2.01999998
   19.61555672  437.80300903    4.90999985    2.01999998
   19.61750031  526.91699219    4.90999985    2.01999998
   19.61888885  563.69396973    4.90999985    2.01999998
   19.62027740  358.42599487    4.90999985    2.01999998
   19.62166595  472.08499146    4.90999985    2.01999998
   19.62305641  493.23599243    4.90999985    2.01999998
   19.62444496  429.42001343    4.90999985    2.01999998
   19.62583351  458.68701172    4.90999985    2.01999998
   19.62722206  437.23400879    4.90999985    2.01999998
   19.62861061  435.45001221    4.90999985    2.01999998
   19.63000107  395.01800537    4.90999985    2.01999998
   19.63138962  413.20098877    4.90999985    2.01999998
   19.63277817  409.19400024    4.90999985    2.01999998
   19.63416672  391.65499878    4.90999985    2.01999998
   19.63555527  429.85800171    4.90999985    2.01999998
   19.63694382  425.05999756    4.90999985    2.01999998
   19.63833237  409.72500610    4.90999985    2.01999998
   19.63972282  413.87600708    4.90999985    2.01999998
   19.64111137  379.15701294    4.90999985    2.01999998
   19.64249992  379.70800781    4.90999985    2.01999998
   19.64388847  423.22100830    4.90999985    2.01999998
   19.64527702  395.21301270    4.90999985    2.01999998
   19.64666748  396.18301392    4.90999985    2.01999998
   19.64805603  426.52700806    4.90999985    2.01999998
   19.64944458  421.48599243    4.90999985    2.01999998
   19.65083313  400.02899170    4.90999985    2.01999998
   19.65222168  395.53500366    4.90999985    2.01999998
   19.65361023  393.02200317    4.90999985    2.01999998
   19.65499878  332.76901245    4.90999985    2.01999998
   19.65638924  329.68798828    4.90999985    2.01999998
   19.65777779  350.44100952    4.90999985    2.01999998
   19.65916634  398.72698975    4.90999985    2.01999998
   19.66055489  373.38800049    4.90999985    2.01999998
   19.66194344  408.82699585    4.90999985    2.01999998
   19.66333389  363.57598877    4.90999985    2.01999998
   19.66472244  355.82800293    4.90999985    2.01999998
   19.66611099  355.58200073    4.90999985    2.01999998
   19.66749954  363.66299438    4.90999985    2.01999998
   19.66888809  373.97601318    4.90999985    2.01999998
   19.67027664  353.48999023    4.90999985    2.01999998
   19.67166519  383.57501221    4.90999985    2.01999998
   19.67305565  379.76300049    4.90999985    2.01999998
   19.67444420  358.55099487    4.90999985    2.01999998
   19.67583275  362.55200195    4.90999985    2.01999998
   19.67722130  349.36999512    4.90999985    2.01999998
   19.67860985  360.79400635    4.90999985    2.01999998
   19.68000031  393.68499756    4.90999985    2.01999998
   19.68138885  376.83499146    4.90999985    2.01999998
   19.68277740  366.18499756    4.90999985    2.01999998
   19.68416595  364.45800781    4.90999985    2.01999998
   19.68555450  363.61499023    4.90999985    2.01999998
   19.68694305  338.50799561    4.90999985    2.01999998
   19.68833160  328.64300537    4.90999985    2.01999998
   19.68972206  369.05700684    4.90999985    2.01999998
   19.69111061  366.05999756    4.90999985    2.01999998
   19.69249916  356.89999390    4.90999985    2.01999998
   19.69388771  380.43600464    4.90999985    2.01999998
   19.69527626  393.13500977    4.90999985    2.01999998
   19.69666672  361.80200195    4.90999985    2.01999998
   19.69805527  353.43301392    4.90999985    2.01999998
   19.69944382  357.14599609    4.90999985    2.01999998
   19.70083427  392.33599854    4.90999985    2.01999998
   19.70222282  387.42700195    4.90999985    2.01999998
   19.70361137  392.09201050    4.90999985    2.01999998
   19.70499992  416.44500732    4.90999985    2.01999998
   19.70639038  373.62298584    4.90999985    2.01999998
   19.70777893  403.55599976    4.90999985    2.01999998
   19.70916748  369.17300415    4.90999985    2.01999998
   19.71055603  365.14199829    4.90999985    2.01999998
   19.71194458  393.11700439    4.90999985    2.01999998
   19.71333504  448.19601440    4.90999985    2.01999998
   19.71472359  388.32199097    4.90999985    2.01999998
   19.71611214  427.66400146    4.90999985    2.01999998
   19.71750069  420.74700928    4.90999985    2.01999998
   19.71888924  388.01998901    4.90999985    2.01999998
   19.72027779  374.90499878    4.90999985    2.01999998
   19.72166634  393.05599976    4.90999985    2.01999998
   19.72305679  372.43499756    4.90999985    2.01999998
   19.72444534  445.76599121    4.90999985    2.01999998
   19.72583389  424.70599365    4.90999985    2.01999998
   19.72722244  365.60598755    4.90999985    2.01999998
   19.72861099  446.62399292    4.90999985    2.01999998
   19.73000145  445.13500977    4.90999985    2.01999998
   19.73139000  408.74499512    4.90999985    2.01999998
   19.73277855  431.24899292    4.90999985    2.01999998
   19.73416710  407.89599609    4.90999985    2.01999998
   19.73555565  405.90899658    4.90999985    2.01999998
   19.73694420  432.67800903    4.90999985    2.01999998
   19.73833275  457.21499634    4.90999985    2.01999998
   19.73972321  401.19500732    4.90999985    2.01999998
   19.74111176  421.84100342    4.90999985    2.01999998
   19.74250031  437.30599976    4.90999985    2.01999998
   19.74388885  416.77999878    4.90999985    2.01999998
   19.74527740  456.32699585    4.90999985    2.01999998
   19.74666786  418.67199707    4.90999985    2.01999998
   19.74805641  430.51800537    4.90999985    2.01999998
   19.74944496  413.91500854    4.90999985    2.01999998
   19.75083351  402.75100708    4.90999985    2.01999998
   19.75222206  420.70199585    4.90999985    2.01999998
   19.75361061  405.68399048    4.90999985    2.01999998
   19.75499916  438.65399170    4.90999985    2.01999998
   19.75638962  401.55700684    4.90999985    2.01999998
   19.75777817  360.60998535    4.90999985    2.01999998
   19.75916672  412.10900879    4.90999985    2.01999998
   19.76055527  391.75799561    4.90999985    2.01999998
   19.76194382  438.27398682    4.90999985    2.01999998
   19.76333427  403.16299438    4.90999985    2.01999998
   19.76472282  404.01300049    4.90999985    2.01999998
   19.76611137  405.05499268    4.90999985    2.01999998
   19.76749992  434.73098755    4.90999985    2.01999998
   19.76888847  449.25900269    4.90999985    2.01999998
   19.77027702  418.98400879    4.90999985    2.01999998
   19.77166557  458.94000244    4.90999985    2.01999998
   19.77305603  446.82800293    4.90999985    2.01999998
   19.77444458  443.88900757    4.90999985    2.01999998
   19.77583313  419.54901123    4.90999985    2.01999998
   19.77722168  478.59201050    4.90999985    2.01999998
   19.77861023  443.96899414    4.90999985    2.01999998
   19.78000069  435.06799316    4.90999985    2.01999998
   19.78138924  419.10400391    4.90999985    2.01999998
   19.78277779  464.82998657    4.90999985    2.01999998
   19.78416634  480.25698853    4.90999985    2.01999998
   19.78555489  412.00000000    4.90999985    2.01999998
   19.78694344  532.15502930    4.90999985    2.01999998
   19.78833199  552.73297119    4.90999985    2.01999998
   19.78972244  590.29602051    4.90999985    2.01999998
   19.79111099  475.82901001    4.90999985    2.01999998
   19.79249954  231.92599487    4.90999985    2.01999998
   19.79249954  182.70599365    4.90999985    2.01999998
   19.79277802  437.80300903    4.90999985    2.01999998
   19.79333305  123.96399689    4.90999985    2.01999998
   19.79638863   83.70220184    4.90999985    2.01999998
   19.79972076   -1.00000000    4.90999985    2.01999998
   19.80277634   -1.00000000    4.90999985    2.01999998
   19.80611038   -1.00000000    4.90999985    2.01999998
   19.80916595   -1.00000000    4.90999985    2.01999998
   19.81750107   -1.00000000    4.90999985    2.01999998
   19.82055664   -1.00000000    4.90999985    2.01999998
   19.82389069   -1.00000000    4.90999985    2.01999998
   19.82750130   -1.00000000    4.90999985    2.01999998
   19.83083344   -1.00000000    4.90999985    2.01999998
   19.83388901   -1.00000000    4.90999985    2.01999998
   19.83722305   -1.00000000    4.90999985    2.01999998
   19.84027863   -1.00000000    4.90999985    2.01999998
   19.84361267   -1.00000000    4.90999985    2.01999998
   19.84666824   -1.00000000    4.90999985    2.01999998
   19.85000038   -1.00000000    4.90999985    2.01999998
   19.86027908   -1.00000000    4.90999985    2.01999998
   19.86361122   -1.00000000    4.90999985    2.01999998
   19.86666679   -1.00000000    4.90999985    2.01999998
   19.87000084   -1.00000000    4.90999985    2.01999998
   19.87305641   -1.00000000    4.90999985    2.01999998
   19.87638855   -1.00000000    4.90999985    2.01999998
   19.87944412   -1.00000000    4.90999985    2.01999998
   19.88277817   -1.00000000    4.90999985    2.01999998
   19.88611031   -1.00000000    4.90999985    2.01999998
   19.88916588   -1.00000000    4.90999985    2.01999998
   19.89249992   -1.00000000    4.90999985    2.01999998
   19.90305519   -1.00000000    4.90999985    2.01999998
   19.90638924   -1.00000000    4.90999985    2.01999998
   19.90944481   -1.00000000    4.90999985    2.01999998
   19.91277695   -1.00000000    4.90999985    2.01999998
   19.91611099   -1.00000000    4.90999985    2.01999998
   19.91916656   -1.00000000    4.90999985    2.01999998
   19.92249870   -1.00000000    4.90999985    2.01999998
   19.92555428   -1.00000000    4.90999985    2.01999998
   19.92916679   -1.00000000    4.90999985    2.01999998
   19.93249893   -1.00000000    4.90999985    2.01999998
   19.93555450   -1.00000000    4.90999985    2.01999998
   19.94610977   -1.00000000    4.90999985    2.01999998
   19.94916534   -1.00000000    4.90999985    2.01999998
   19.95250130   -1.00000000    4.90999985    2.01999998
   19.95555687   -1.00000000    4.90999985    2.01999998
   19.95888901   -1.00000000    4.90999985    2.01999998
   19.96222305   -1.00000000    4.90999985    2.01999998
   19.96555710   -1.00000000    4.90999985    2.01999998
   19.96861076   -1.00000000    4.90999985    2.01999998
   19.97194481   -1.00000000    4.90999985    2.01999998
   19.97500038   -1.00000000    4.90999985    2.01999998
   19.97833443   -1.00000000    4.90999985    2.01999998
   20.00166702   -1.00000000    4.90999985    2.01999998
   20.00472260   -1.00000000    4.90999985    2.01999998
   20.00805473   -1.00000000    4.90999985    2.01999998
   20.01111031   -1.00000000    4.90999985    2.01999998
   20.01444435   -1.00000000    4.90999985    2.01999998
   20.01777840   -1.00000000    4.90999985    2.01999998
   20.02083397   -1.00000000    4.90999985    2.01999998
   20.02416611   -1.00000000    4.90999985    2.01999998
   20.03222275   -1.00000000    4.90999985    2.01999998
   20.03583336   -1.00000000    4.90999985    2.01999998
   20.03916550   -1.00000000    4.90999985    2.01999998
   20.04222107   -1.00000000    4.90999985    2.01999998
   20.04555511   -1.00000000    4.90999985    2.01999998
   20.04861069   -1.00000000    4.90999985    2.01999998
   20.05194283   -1.00000000    4.90999985    2.01999998
   20.05499840   -1.00000000    4.90999985    2.01999998
   20.05833244   -1.00000000    4.90999985    2.01999998
   20.06138802   -1.00000000    4.90999985    2.01999998
   20.06472206   -1.00000000    4.90999985    2.01999998
   20.07500076   -1.00000000    4.90999985    2.01999998
   20.07833481   -1.00000000    4.90999985    2.01999998
   20.08139038   -1.00000000    4.90999985    2.01999998
   20.08472252   -1.00000000    4.90999985    2.01999998
   20.08805656   -1.00000000    4.90999985    2.01999998
   20.09111214   -1.00000000    4.90999985    2.01999998
   20.09444427   -1.00000000    4.90999985    2.01999998
   20.09749985   -1.00000000    4.90999985    2.01999998
   20.10083389   -1.00000000    4.90999985    2.01999998
   20.10416794   -1.00000000    4.90999985    2.01999998
   20.10750008   -1.00000000    4.90999985    2.01999998
   20.11805534   -1.00000000    4.90999985    2.01999998
   20.12111092   -1.00000000    4.90999985    2.01999998
   20.12444496   -1.00000000    4.90999985    2.01999998
   20.12750053   -1.00000000    4.90999985    2.01999998
   20.13083267   -1.00000000    4.90999985    2.01999998
   20.13388824   -1.00000000    4.90999985    2.01999998
   20.13750076   -1.00000000    4.90999985    2.01999998
   20.14083290   -1.00000000    4.90999985    2.01999998
   20.14388847   -1.00000000    4.90999985    2.01999998
   20.14722252   -1.00000000    4.90999985    2.01999998
   20.15055466   -1.00000000    4.90999985    2.01999998
   20.16083336   -1.00000000    4.90999985    2.01999998
   20.16388893   -1.00000000    4.90999985    2.01999998
   20.16722107   -1.00000000    4.90999985    2.01999998
   20.17083359   -1.00000000    4.90999985    2.01999998
   20.17416573   -1.00000000    4.90999985    2.01999998
   20.17722130   -1.00000000    4.90999985    2.01999998
   20.18055534   -1.00000000    4.90999985    2.01999998
   20.18361092   -1.00000000    4.90999985    2.01999998
   20.18694305   -1.00000000    4.90999985    2.01999998
   20.18999863   -1.00000000    4.90999985    2.01999998
   20.19333267   -1.00000000    4.90999985    2.01999998
   20.20361137   -1.00000000    4.90999985    2.01999998
   20.20694542   -1.00000000    4.90999985    2.01999998
   20.21000099   -1.00000000    4.90999985    2.01999998
   20.21333504   -1.00000000    4.90999985    2.01999998
   20.21638870   -1.00000000    4.90999985    2.01999998
   20.21972275   -1.00000000    4.90999985    2.01999998
   20.22277832   -1.00000000    4.90999985    2.01999998
   20.22611237   -1.00000000    4.90999985    2.01999998
   20.22944450   -1.00000000    4.90999985    2.01999998
   20.23250008   -1.00000000    4.90999985    2.01999998
   20.23611069   -1.00000000    4.90999985    2.01999998
   20.24638939   -1.00000000    4.90999985    2.01999998
   20.24972153   -1.00000000    4.90999985    2.01999998
   20.25277710   -1.00000000    4.90999985    2.01999998
   20.25611115   -1.00000000    4.90999985    2.01999998
   20.25944519   -1.00000000    4.90999985    2.01999998
   20.26250076   -1.00000000    4.90999985    2.01999998
   20.26583290   -1.00000000    4.90999985    2.01999998
   20.26916695   -1.00000000    4.90999985    2.01999998
   20.27249908   -1.00000000    4.90999985    2.01999998
   20.27555466   -1.00000000    4.90999985    2.01999998
   20.27888870   -1.00000000    4.90999985    2.01999998
   20.28944397   -1.00000000    4.90999985    2.01999998
   20.29249954   -1.00000000    4.90999985    2.01999998
   20.29583359   -1.00000000    4.90999985    2.01999998
   20.29888916   -1.00000000    4.90999985    2.01999998
   20.30249977   -1.00000000    4.90999985    2.01999998
   20.30583191   -1.00000000    4.90999985    2.01999998
   20.30888748   -1.00000000    4.90999985    2.01999998
   20.31222153   -1.00000000    4.90999985    2.01999998
   20.31527710   -1.00000000    4.90999985    2.01999998
   20.31861115   -1.00000000    4.90999985    2.01999998
   20.32166672   -1.00000000    4.90999985    2.01999998
   20.33222389   -1.00000000    4.90999985    2.01999998
   20.33527756   -1.00000000    4.90999985    2.01999998
   20.33916664   -1.00000000    4.90999985    2.01999998
   20.34222221   -1.00000000    4.90999985    2.01999998
   20.34555626   -1.00000000    4.90999985    2.01999998
   20.34861183   -1.00000000    4.90999985    2.01999998
   20.35194397   -1.00000000    4.90999985    2.01999998
   20.35499954   -1.00000000    4.90999985    2.01999998
   20.35833359   -1.00000000    4.90999985    2.01999998
   20.36138916   -1.00000000    4.90999985    2.01999998
   20.36472321   -1.00000000    4.90999985    2.01999998
   20.37500000   -1.00000000    4.90999985    2.01999998
   20.37833405   -1.00000000    4.90999985    2.01999998
   20.38138962   -1.00000000    4.90999985    2.01999998
   20.38472176   -1.00000000    4.90999985    2.01999998
   20.38777733   -1.00000000    4.90999985    2.01999998
   20.39111137   -1.00000000    4.90999985    2.01999998
   20.39416695   -1.00000000    4.90999985    2.01999998
   20.39749908   -1.00000000    4.90999985    2.01999998
   20.40083313   -1.00000000    4.90999985    2.01999998
   20.40444374   -1.00000000    4.90999985    2.01999998
   20.40749931   -1.00000000    4.90999985    2.01999998
   20.41777802   -1.00000000    4.90999985    2.01999998
   20.42111015   -1.00000000    4.90999985    2.01999998
   20.42444420   -1.00000000    4.90999985    2.01999998
   20.42749977   -1.00000000    4.90999985    2.01999998
   20.43083191   -1.00000000    4.90999985    2.01999998
   20.43416595   -1.00000000    4.90999985    2.01999998
   20.43777657   -1.00000000    4.90999985    2.01999998
   20.44083214   -1.00000000    4.90999985    2.01999998
   20.44416618   -1.00000000    4.90999985    2.01999998
