    HOUR (UT)   FLARE FACTOR    SKY TESTER    SUN TESTER
   11.67527771   -1.00000000   -1.00000000   -1.00000000
   11.72777748  127.16799927    1.00000000    2.09999990
   11.73111057  112.57900238    1.00000000    2.11999989
   11.73416710  114.55100250    1.00000000    2.11999989
   11.73750019  102.62899780    0.98000002    2.09999990
   11.74083328  115.08999634    0.98000002    2.11999989
   11.74388885  118.56500244    0.98000002    2.11999989
   11.74805546  118.56500244    0.98000002    2.11999989
   11.75222206  112.23699951    0.95999998    2.11999989
   11.75555515  113.04699707    0.95999998    2.11999989
   11.75861073  123.94100189    0.98000002    2.13000011
   11.76111126  107.75499725    0.95999998    2.11999989
   11.76249981  105.04499817    0.95999998    2.13000011
   11.76555538  122.77600098    0.98000002    2.13000011
   11.76888847  112.86900330    0.95999998    2.13000011
   11.77222157  122.98899841    0.95999998    2.13000011
   11.77527714  114.72299957    0.95999998    2.13000011
   11.77861118  111.12200165    0.95999998    2.13000011
   11.78166676  120.67600250    0.95999998    2.13000011
   11.78500080  130.04899597    0.95999998    2.13000011
   11.79083347  130.04899597    0.95999998    2.13000011
   11.79500008  126.12200165    0.95999998    2.15000010
   11.79833412  121.38200378    0.95999998    2.15000010
   11.80166721  131.03599548    0.94000000    2.15000010
   11.80472279  138.42599487    0.95999998    2.15000010
   11.80805588  135.48399353    0.95999998    2.15000010
   11.81138897  125.02600098    0.94000000    2.15000010
   11.81444454  122.38200378    0.94000000    2.15000010
   11.81777763  117.15899658    0.94000000    2.15000010
   11.82083321  120.22799683    0.94000000    2.15000010
   11.82416630  121.81099701    0.94000000    2.15000010
   11.82750034  118.67099762    0.94000000    2.17000008
   11.82805538  126.52300262    0.94000000    2.17000008
   11.83388901  126.52300262    0.94000000    2.17000008
   11.83805561  128.11099243    0.94000000    2.17000008
   11.84111118  117.28600311    0.94000000    2.17000008
   11.84444427  124.55400085    0.94000000    2.17000008
   11.84749985  117.52300262    0.92000002    2.17000008
   11.85083389  117.32499695    0.92000002    2.17000008
   11.85416698  118.87000275    0.92000002    2.17000008
   11.85722256  113.01899719    0.92000002    2.17000008
   11.86055565  113.18599701    0.92000002    2.19000006
   11.86138916  122.34300232    0.92000002    2.19000006
   11.86416721  109.30300140    0.92000002    2.19000006
   11.86750031  120.12100220    0.92000002    2.19000006
   11.87083340  121.84600067    0.94000000    2.19000006
   11.87666702  121.84600067    0.94000000    2.19000006
   11.88083363  130.76800537    0.92000002    2.21000004
   11.88388920  120.76300049    0.92000002    2.19000006
   11.88722229  116.33799744    0.92000002    2.19000006
   11.89055538  125.05400085    0.92000002    2.21000004
   11.89361095  128.48500061    0.92000002    2.19000006
   11.89472198  119.85199738    0.92000002    2.19000006
   11.89722252  120.66899872    0.92000002    2.21000004
   11.90055561  119.09300232    0.92000002    2.21000004
   11.90388870  115.10399628    0.89999998    2.21000004
   11.90694427  118.18199921    0.89999998    2.21000004
   11.91027737  113.69300079    0.92000002    2.21000004
   11.91333294  119.61599731    0.89999998    2.23000002
   11.91944504  119.61599731    0.89999998    2.21000004
   11.92361164  112.22299957    0.89999998    2.23000002
   11.92694473  118.24600220    0.89999998    2.23000002
   11.92805576  114.16400146    0.89999998    2.23000002
   11.93027782  123.42099762    0.88000000    2.23000002
   11.93361092  111.75700378    0.89999998    2.23000002
   11.93722248  122.72200012    0.88000000    2.23000002
   11.94027805  111.46099854    0.88000000    2.23000002
   11.94361115  109.55300140    0.88000000    2.25000000
   11.94694424  116.83399963    0.88000000    2.23000002
   11.94999981  111.37599945    0.88000000    2.25000000
   11.95333290  112.71800232    0.88000000    2.25000000
   11.95638847  120.77500153    0.88000000    2.25000000
   11.96222210  120.77500153    0.86000001    2.25000000
   11.96638870  112.06199646    0.86000001    2.25000000
   11.96972179  112.57599640    0.86000001    2.25000000
   11.97305489  128.36999512    0.86000001    2.25000000
   11.97611046  129.66700745    0.86000001    2.25000000
   11.97944355  118.68099976    0.86000001    2.25000000
   11.98277760  112.23500061    0.86000001    2.25000000
   11.98583317  113.98999786    0.86000001    2.26999998
   11.98916721  114.88099670    0.86000001    2.26999998
   11.99250031  114.76899719    0.86000001    2.26999998
   11.99472237  132.05400085    0.86000001    2.25000000
   11.99583340  118.26799774    0.83999997    2.25000000
   11.99916649  115.38500214    0.86000001    2.26999998
   12.00527763  115.38500214    0.86000001    2.26999998
   12.00944424  123.03600311    0.83999997    2.26999998
   12.01249981  115.09799957    0.86000001    2.26999998
   12.01583290  105.43499756    0.83999997    2.28999996
   12.01888847  106.16000366    0.81999999    2.28999996
   12.02222157  119.45899963    0.83999997    2.28999996
   12.02555561  118.87300110    0.81999999    2.26999998
   12.02805519  117.27600098    0.81999999    2.26999998
   12.02888870  111.42900085    0.81999999    2.26999998
   12.03222179  114.34100342    0.83999997    2.28999996
   12.03555584  114.33599854    0.81999999    2.28999996
   12.03861141  110.65100098    0.83999997    2.28999996
   12.04194450  116.95500183    0.81999999    2.28999996
   12.04805565  116.95500183    0.83999997    2.28999996
   12.05222225  122.77500153    0.81999999    2.28999996
   12.05527782  130.30999756    0.83999997    2.28999996
   12.05861092  127.68800354    0.83999997    2.28999996
   12.06138897  135.32400513    0.81999999    2.28999996
   12.06222248  118.70500183    0.81999999    2.28999996
   12.06555557  121.67500305    0.81999999    2.28999996
   12.06888866  114.77400208    0.80000001    2.30999994
   12.07194424  119.40200043    0.81999999    2.30999994
   12.07527733  122.63200378    0.81999999    2.30999994
   12.07833290  122.21900177    0.81999999    2.30999994
   12.08166695  125.15899658    0.80000001    2.30999994
   12.08500004  132.40699768    0.81999999    2.30999994
   12.09083271  132.40699768    0.80000001    2.32999992
   12.09499931  131.08999634    0.81999999    2.30999994
   12.09833336  122.85800171    0.80000001    2.30999994
   12.10138893  118.89399719    0.81999999    2.30999994
   12.10472298  122.01799774    0.80000001    2.30999994
   12.10805607  117.18099976    0.81999999    2.32999992
   12.11138916  104.90000153    0.81999999    2.30999994
   12.11444473  119.19499969    0.81999999    2.30999994
   12.11777782  125.45200348    0.81999999    2.32999992
   12.12111092  115.36100006    0.80000001    2.32999992
   12.12416649  110.11100006    0.81999999    2.32999992
   12.12777805  118.54299927    0.81999999    2.30999994
   12.12833309  115.62999725    0.81999999    2.30999994
   12.13388920  115.62999725    0.80000001    2.32999992
   12.13777733  104.52700043    0.80000001    2.32999992
   12.14111137  115.19699860    0.80000001    2.32999992
   12.14444447  114.29299927    0.80000001    2.32999992
   12.14750004  113.80300140    0.80000001    2.34999990
   12.15083313  116.78700256    0.80000001    2.32999992
   12.15388870  106.40499878    0.80000001    2.34999990
   12.15722179  115.05799866    0.80000001    2.32999992
   12.16055489  111.65499878    0.80000001    2.34999990
   12.16166592  114.73100281    0.80000001    2.34999990
   12.16416645  106.22499847    0.79000002    2.34999990
   12.16722298  104.71499634    0.79000002    2.32999992
   12.17055607   99.06819916    0.79000002    2.34999990
   12.17666721   99.06819916    0.79000002    2.34999990
   12.18083382  106.63300323    0.79000002    2.34999990
   12.18388939  116.19799805    0.79000002    2.34999990
   12.18722248  110.10800171    0.76999998    2.34999990
   12.19027805  105.67199707    0.76999998    2.36999989
   12.19361115  107.99500275    0.75000000    2.36999989
   12.19499969  111.20500183    0.75000000    2.36999989
   12.19722271  106.83799744    0.76999998    2.36999989
   12.20027733  105.33399963    0.75000000    2.36999989
   12.20361137  104.04799652    0.75000000    2.36999989
   12.20694447  108.54199982    0.75000000    2.34999990
   12.21000004  112.12100220    0.76999998    2.36999989
   12.21333313  110.07499695    0.75000000    2.36999989
   12.21944427  110.07499695    0.76999998    2.36999989
   12.22361088  109.93299866    0.76999998    2.36999989
   12.22694397  110.49800110    0.75000000    2.36999989
   12.22833252  112.27200317    0.75000000    2.36999989
   12.23055553  117.95800018    0.75000000    2.39000010
   12.23361111  113.41200256    0.75000000    2.36999989
   12.23694515  106.86599731    0.75000000    2.36999989
   12.24027824  110.53600311    0.75000000    2.36999989
   12.24333382  120.09799957    0.75000000    2.39000010
   12.24666691  109.74500275    0.75000000    2.39000010
   12.25000000  110.30300140    0.75000000    2.39000010
   12.25305557  112.94100189    0.75000000    2.39000010
   12.25638866  124.35099792    0.73000002    2.39000010
   12.26222229  124.35099792    0.73000002    2.39000010
   12.26638889  116.72799683    0.73000002    2.39000010
   12.26972198  118.81999969    0.73000002    2.39000010
   12.27277756  119.10800171    0.73000002    2.39000010
   12.27611065  113.76100159    0.73000002    2.39000010
   12.27944374  119.94200134    0.73000002    2.39000010
   12.28249931  121.98200226    0.73000002    2.39000010
   12.28583336  113.87200165    0.73000002    2.39000010
   12.28888893  113.68199921    0.70999998    2.39000010
   12.29222298  108.86399841    0.70999998    2.40000010
   12.29500008  115.22899628    0.70999998    2.40000010
   12.29583359  111.15200043    0.70999998    2.39000010
   12.29888916  111.20899963    0.70999998    2.40000010
   12.30500031  111.20899963    0.70999998    2.40000010
   12.30916691  110.59100342    0.70999998    2.40000010
   12.31250000  106.48500061    0.70999998    2.40000010
   12.31583309  102.50399780    0.69000000    2.40000010
   12.31888866  115.49900055    0.70999998    2.40000010
   12.32222176  106.55100250    0.70999998    2.40000010
   12.32555580  107.87999725    0.69000000    2.42000008
   12.32833290  104.95300293    0.69000000    2.42000008
   12.32916641  110.64399719    0.69000000    2.42000008
   12.33249950  102.16100311    0.69000000    2.40000010
   12.33555508  114.09300232    0.69000000    2.42000008
   12.33888817  112.70500183    0.69000000    2.40000010
   12.34194374  116.84200287    0.69000000    2.42000008
   12.34805489  116.84200287    0.67000002    2.40000010
   12.35222244  109.14299774    0.69000000    2.42000008
   12.35527802  110.54900360    0.69000000    2.42000008
   12.35861111  115.01599884    0.69000000    2.42000008
   12.36166668  119.40899658    0.69000000    2.42000008
   12.36222267  125.02999878    0.69000000    2.42000008
   12.36527824  111.21399689    0.69000000    2.42000008
   12.36861134  116.94000244    0.69000000    2.42000008
   12.37194443  109.18099976    0.67000002    2.42000008
   12.37500000  115.14600372    0.69000000    2.42000008
   12.37833309  117.74299622    0.67000002    2.42000008
   12.38166714  121.11299896    0.67000002    2.42000008
   12.38472176  115.83799744    0.69000000    2.42000008
   12.39083290  115.83799744    0.67000002    2.42000008
   12.39499950  125.54399872    0.69000000    2.44000006
   12.39555550  124.79399872    0.69000000    2.44000006
   12.39861107  118.16200256    0.69000000    2.42000008
   12.40194416  114.61399841    0.69000000    2.44000006
   12.40527725  114.09100342    0.69000000    2.42000008
   12.40833282  113.74800110    0.67000002    2.44000006
   12.41166592  109.33200073    0.67000002    2.44000006
   12.41499996  112.88700104    0.69000000    2.44000006
   12.41805553  110.62400055    0.67000002    2.44000006
   12.42138958  103.57599640    0.69000000    2.42000008
   12.42444515  109.25700378    0.67000002    2.44000006
   12.42805576  104.29100037    0.67000002    2.44000006
   12.42888927  102.51899719    0.67000002    2.44000006
   12.43361092  102.51899719    0.64999998    2.44000006
   12.43777752  105.89600372    0.64999998    2.44000006
   12.44111156  112.23300171    0.64999998    2.44000006
   12.44416714  109.95099640    0.64999998    2.46000004
   12.44750023  103.61699677    0.64999998    2.46000004
   12.45083332  104.28500366    0.64999998    2.46000004
   12.45388889  114.42500305    0.64999998    2.46000004
   12.45722198  111.24400330    0.64999998    2.44000006
   12.46027756  103.28299713    0.64999998    2.46000004
   12.46222210  106.82599640    0.64999998    2.46000004
   12.46388912  106.88500214    0.64999998    2.46000004
   12.46722221  109.35700226    0.64999998    2.46000004
   12.47055531  113.30599976    0.64999998    2.46000004
   12.47638798  113.30599976    0.63000000    2.46000004
   12.48055553  116.74299622    0.63000000    2.46000004
   12.48388958  125.93699646    0.63000000    2.46000004
   12.48722267  117.31500244    0.63000000    2.46000004
   12.49027824  120.09899902    0.63000000    2.46000004
   12.49361134  120.78900146    0.63000000    2.46000004
   12.49555588  121.57599640    0.63000000    2.46000004
   12.49694443  118.22100067    0.63000000    2.46000004
   12.50027752  124.07599640    0.63000000    2.48000002
   12.50361156  117.36799622    0.63000000    2.46000004
   12.50666714  116.68399811    0.63000000    2.48000002
   12.51000023  114.95300293    0.63000000    2.48000002
   12.51333332  120.26899719    0.64999998    2.48000002
   12.51944447  120.26899719    0.63000000    2.48000002
   12.52361107  118.67700195    0.63000000    2.46000004
   12.52666664  119.26999664    0.63000000    2.48000002
   12.52888870  120.65399933    0.63000000    2.48000002
   12.53027725  119.76200104    0.63000000    2.48000002
   12.53361130  117.41100311    0.64999998    2.46000004
   12.53694534  113.47200012    0.64999998    2.46000004
   12.54000092  118.48600006    0.64999998    2.48000002
   12.54361153  120.78700256    0.63000000    2.48000002
   12.54694462  119.88200378    0.63000000    2.48000002
   12.55000019  125.50800323    0.63000000    2.48000002
   12.55333328  120.41600037    0.63000000    2.48000002
   12.55666733  126.56800079    0.63000000    2.48000002
   12.56222248  126.56800079    0.63000000    2.48000002
   12.56638908  112.47000122    0.61000001    2.48000002
   12.56944466  115.87500000    0.61000001    2.48000002
   12.57277775  109.24400330    0.61000001    2.48000002
   12.57611084  115.72299957    0.61000001    2.48000002
   12.57916641  118.12200165    0.61000001    2.50000000
   12.58249950  114.34100342    0.61000001    2.50000000
   12.58583260  110.45800018    0.58999997    2.48000002
   12.58888817  109.17600250    0.58999997    2.48000002
   12.59222221  113.24299622    0.58999997    2.48000002
   12.59527779  115.17400360    0.56999999    2.50000000
   12.59583282  105.72000122    0.56999999    2.50000000
   12.59916592  125.28900146    0.56999999    2.50000000
   12.60500050  125.28900146    0.55000001    2.48000002
   12.60916710  120.38300323    0.56999999    2.50000000
   12.61250019  114.70899963    0.56999999    2.48000002
   12.61555576  117.62400055    0.56999999    2.50000000
   12.61888885  122.86100006    0.55000001    2.51999998
   12.62222195  116.39299774    0.55000001    2.51999998
   12.62527752  126.68699646    0.56999999    2.50000000
   12.62861156  116.94100189    0.55000001    2.50000000
   12.62916660  120.26899719    0.55000001    2.50000000
   12.63222218  112.81700134    0.55000001    2.50000000
   12.63555527  121.54699707    0.55000001    2.50000000
   12.63861084  117.04499817    0.55000001    2.51999998
   12.64194393  116.29100037    0.55000001    2.51999998
   12.64777756  116.29100037    0.56999999    2.50000000
   12.65194416  120.18299866    0.55000001    2.50000000
   12.65527725  116.92299652    0.56999999    2.50000000
   12.65861034  115.12899780    0.56999999    2.51999998
   12.66166592  115.95600128    0.55000001    2.50000000
   12.66249943  114.10500336    0.55000001    2.50000000
   12.66527748  119.55100250    0.56999999    2.51999998
   12.66861153  118.07800293    0.56999999    2.50000000
   12.67166710  106.09899902    0.55000001    2.50000000
   12.67500019  120.02200317    0.55000001    2.50000000
   12.67833328  117.39800262    0.52999997    2.51999998
   12.68138885  109.23799896    0.55000001    2.51999998
   12.68472195  110.95500183    0.52999997    2.50000000
   12.69083309  110.95500183    0.55000001    2.51999998
   12.69499969  108.33599854    0.55000001    2.51999998
   12.69583321  113.26899719    0.52999997    2.51999998
   12.69861126  101.06300354    0.52999997    2.51999998
   12.70194435  107.79299927    0.52999997    2.51999998
   12.70499992  111.71700287    0.55000001    2.51999998
   12.70833302  103.88600159    0.55000001    2.50000000
   12.71166611  113.51100159    0.55000001    2.51999998
   12.71472168  111.64399719    0.55000001    2.51999998
   12.71805477  124.02700043    0.55000001    2.51999998
   12.72111034  115.01399994    0.55000001    2.51999998
   12.72444439  115.04699707    0.55000001    2.51999998
   12.72777748  114.27200317    0.55000001    2.53999996
   12.74499989  114.45800018    0.56999999    2.53999996
   12.74916649  114.45800018    0.56999999    2.51999998
   12.75333309  115.02500153    0.55000001    2.51999998
   12.75666714  108.44899750    0.55000001    2.53999996
   12.75972176  116.58399963    0.56999999    2.53999996
   12.76305580  111.04799652    0.56999999    2.53999996
   12.76638889  104.55999756    0.52999997    2.53999996
   12.76944447  108.71800232    0.52999997    2.53999996
   12.77277756  106.14099884    0.52999997    2.55999994
   12.77583313  102.84700012    0.52999997    2.53999996
   12.77833271  101.75099945    0.55000001    2.53999996
   12.77972221  103.69000244    0.52999997    2.53999996
   12.78305531  106.73699951    0.51999998    2.53999996
   12.78611183  108.01100159    0.52999997    2.53999996
   12.79194450  108.01100159    0.51999998    2.53999996
   12.79611111  114.16400146    0.51999998    2.53999996
   12.79944515  113.41600037    0.51999998    2.53999996
   12.80277824  120.20700073    0.51999998    2.53999996
   12.80583382  123.79299927    0.50000000    2.55999994
   12.80916691  116.06300354    0.50000000    2.53999996
   12.81166649  107.28199768    0.50000000    2.53999996
   12.81277752  118.57099915    0.50000000    2.53999996
   12.81583309  115.82299805    0.50000000    2.53999996
   12.81916618  113.91899872    0.51999998    2.55999994
   12.82222176  118.25499725    0.50000000    2.55999994
   12.82555580  117.56500244    0.50000000    2.55999994
   12.82888889  116.41500092    0.50000000    2.55999994
   12.83500004  116.41500092    0.50000000    2.55999994
   12.83888817  119.84899902    0.51999998    2.55999994
   12.84222221  117.83399963    0.51999998    2.53999996
   12.84499931  111.15399933    0.51999998    2.55999994
   12.84611034  111.83699799    0.51999998    2.53999996
   12.84916592  121.22100067    0.51999998    2.53999996
   12.85249996  116.07599640    0.51999998    2.55999994
   12.85555553  112.39900208    0.51999998    2.55999994
   12.85888958  109.40899658    0.51999998    2.55999994
   12.86194515  108.94300079    0.52999997    2.55999994
   12.86527824  107.50599670    0.51999998    2.55999994
   12.86861134  113.68299866    0.50000000    2.55999994
   12.87166691  108.36299896    0.51999998    2.55999994
   12.87777805  108.36299896    0.51999998    2.55999994
   12.88194466  111.23699951    0.51999998    2.55999994
   12.88500023  119.46399689    0.51999998    2.55999994
   12.88833332  114.61399841    0.51999998    2.55999994
   12.89166641  120.19400024    0.51999998    2.55999994
   12.89472198  114.90499878    0.51999998    2.55999994
   12.89805508  118.46199799    0.52999997    2.55999994
   12.90111065  107.25199890    0.52999997    2.55999994
   12.90444374  112.11299896    0.51999998    2.55999994
   12.90777779  110.83699799    0.51999998    2.55999994
   12.91083336  100.47399902    0.51999998    2.55999994
   12.91277695  110.40499878    0.51999998    2.55999994
   12.91472149  105.34700012    0.50000000    2.57999992
   12.92055607  105.34700012    0.50000000    2.55999994
   12.92472267  108.00099945    0.47999999    2.57999992
   12.92805576  115.72799683    0.50000000    2.55999994
   12.93111134  113.90000153    0.47999999    2.55999994
   12.93444443  114.14399719    0.47999999    2.55999994
   12.93777752  114.39499664    0.47999999    2.55999994
   12.94083309  113.55000305    0.47999999    2.57999992
   12.94416714  111.40399933    0.50000000    2.57999992
   12.94611073  112.45500183    0.47999999    2.57999992
   12.94777775  114.75299835    0.47999999    2.57999992
   12.95083332  110.13700104    0.50000000    2.57999992
   12.95416641  112.08699799    0.50000000    2.55999994
   12.95749950  105.86199951    0.47999999    2.57999992
   12.96333313  105.86199951    0.47999999    2.57999992
   12.96749973  103.89700317    0.47999999    2.57999992
   12.97083282  100.82599640    0.47999999    2.57999992
   12.97416592  104.06700134    0.47999999    2.57999992
   12.97722149  105.18099976    0.47999999    2.57999992
   12.97972202  106.15599823    0.46000001    2.57999992
   12.98083305   94.98680115    0.46000001    2.57999992
   12.98416710  110.91500092    0.46000001    2.57999992
   12.98750019  101.67800140    0.47999999    2.57999992
   12.99055576  106.50700378    0.47999999    2.59999990
   12.99388885  103.60900116    0.47999999    2.57999992
   12.99722290   95.86769867    0.46000001    2.59999990
   13.00027752   95.43530273    0.46000001    2.59999990
   13.00638866   95.43530273    0.46000001    2.59999990
   13.01027775  100.65899658    0.46000001    2.59999990
   13.01305580  105.07299805    0.46000001    2.57999992
   13.01416683  108.69000244    0.46000001    2.57999992
   13.01722240  111.50800323    0.46000001    2.57999992
   13.02055550  104.32199860    0.44000000    2.59999990
   13.02388859  113.59500122    0.44000000    2.57999992
   13.02694416  105.79799652    0.44000000    2.59999990
   13.03027725  105.40599823    0.44000000    2.59999990
   13.03333378  103.55699921    0.46000001    2.59999990
   13.03666687  105.38700104    0.46000001    2.59999990
   13.04000092  109.25299835    0.46000001    2.59999990
   13.04305553  102.76799774    0.46000001    2.59999990
   13.04916668  102.76799774    0.47999999    2.59999990
   13.05333328  103.56300354    0.47999999    2.57999992
   13.05638885  105.55400085    0.47999999    2.59999990
   13.05972195  107.47299957    0.50000000    2.59999990
   13.06305599  101.90000153    0.47999999    2.59999990
   13.06611156   98.81459808    0.47999999    2.61999989
   13.06944466  106.34400177    0.47999999    2.59999990
   13.07250023  112.82499695    0.50000000    2.59999990
   13.07583332  109.47200012    0.50000000    2.59999990
   13.07916641  108.03600311    0.50000000    2.59999990
   13.07999992  107.19899750    0.50000000    2.59999990
   13.08277798  102.27600098    0.50000000    2.59999990
   13.08583260  103.47599792    0.50000000    2.59999990
   13.09194374  103.47599792    0.47999999    2.59999990
   13.09611034  104.46700287    0.47999999    2.59999990
   13.09944439   99.48300171    0.47999999    2.61999989
   13.10249996  100.63700104    0.47999999    2.61999989
   13.10583401  101.41600037    0.47999999    2.59999990
   13.10888958  100.92099762    0.47999999    2.61999989
   13.11222267   98.97850037    0.47999999    2.59999990
   13.11333370   98.29450226    0.47999999    2.61999989
   13.11583328   99.06109619    0.47999999    2.61999989
   13.11888885  100.70899963    0.47999999    2.59999990
   13.12222195   99.42140198    0.47999999    2.59999990
   13.12555599   99.83820343    0.46000001    2.61999989
   13.12861156  103.50099945    0.46000001    2.59999990
   13.13472176  103.50099945    0.47999999    2.59999990
   13.13888836  106.70400238    0.46000001    2.61999989
   13.14222240  107.80799866    0.46000001    2.59999990
   13.14527798   99.67579651    0.46000001    2.61999989
   13.14694405  101.66500092    0.46000001    2.61999989
   13.14916611  115.34100342    0.46000001    2.57999992
   13.15222168  102.64800262    0.47999999    2.61999989
   13.15555477  105.59600067    0.47999999    2.61999989
   13.15861034  111.56500244    0.47999999    2.61999989
   13.16194439   98.42150116    0.47999999    2.61999989
   13.16527748  102.36599731    0.47999999    2.61999989
   13.16833401  100.93499756    0.47999999    2.59999990
   13.17166710   98.88619995    0.47999999    2.61999989
   13.17777824   98.88619995    0.47999999    2.64000010
   13.18194485   99.89939880    0.47999999    2.59999990
   13.18500042  108.42199707    0.47999999    2.64000010
   13.18833351  103.31199646    0.47999999    2.61999989
   13.19138908  104.46299744    0.47999999    2.61999989
   13.19472218  112.31600189    0.47999999    2.61999989
   13.19805527  102.38300323    0.47999999    2.61999989
   13.20111084   96.25839996    0.47999999    2.61999989
   13.20444393   96.66000366    0.47999999    2.61999989
   13.20777798  102.07099915    0.47999999    2.61999989
   13.21083355   97.96849823    0.50000000    2.64000010
   13.21361065   95.10389709    0.50000000    2.64000010
   13.21472168   99.46379852    0.50000000    2.64000010
   13.22055531   99.46379852    0.50000000    2.64000010
   13.22472191  101.02700043    0.51999998    2.61999989
   13.22777748   98.39170074    0.50000000    2.61999989
   13.23111057   99.64559937    0.51999998    2.61999989
   13.23444462  106.11399841    0.51999998    2.61999989
   13.23750019  106.93199921    0.51999998    2.61999989
   13.24083328  110.31500244    0.51999998    2.61999989
   13.24388885  102.81999969    0.51999998    2.61999989
   13.24694443  105.08999634    0.51999998    2.61999989
   13.24750042  105.86799622    0.51999998    2.64000010
   13.25083351  101.05699921    0.51999998    2.61999989
   13.25416660  104.43299866    0.52999997    2.61999989
   13.25722218   98.31390381    0.51999998    2.64000010
   13.26333332   98.31390381    0.52999997    2.61999989
   13.26749992   94.97740173    0.52999997    2.64000010
   13.27083302  107.94499969    0.52999997    2.61999989
   13.27388859  100.90699768    0.52999997    2.64000010
   13.27722168  101.48100281    0.52999997    2.61999989
   13.28027725   97.33100128    0.52999997    2.64000010
   13.28055573  101.63300323    0.52999997    2.64000010
   13.28388977  106.92900085    0.52999997    2.64000010
   13.28722286  102.57900238    0.52999997    2.64000010
   13.29027843  103.51100159    0.52999997    2.64000010
   13.29361153  108.25599670    0.52999997    2.64000010
   13.29694462   98.71769714    0.51999998    2.61999989
   13.30000019  106.58200073    0.52999997    2.64000010
   13.30611134  106.58200073    0.52999997    2.64000010
   13.31027794   99.89199829    0.55000001    2.64000010
   13.31361103  107.22399902    0.55000001    2.64000010
   13.31388950  103.40899658    0.55000001    2.64000010
   13.31722260  103.41300201    0.55000001    2.64000010
   13.32055569  110.62200165    0.55000001    2.66000009
   13.32361126  101.70899963    0.56999999    2.64000010
   13.32694435  101.73999786    0.55000001    2.61999989
   13.33027744  107.30000305    0.56999999    2.61999989
   13.33333302  109.20200348    0.55000001    2.64000010
   13.33666611  102.75599670    0.56999999    2.64000010
   13.33972168  104.69599915    0.55000001    2.64000010
   13.34305477  107.95500183    0.56999999    2.64000010
   13.34916592  107.95500183    0.55000001    2.64000010
   13.35305595   97.01339722    0.55000001    2.64000010
   13.35638905  103.27200317    0.55000001    2.64000010
   13.35972214   99.60389709    0.56999999    2.64000010
   13.36277771  101.27899933    0.56999999    2.64000010
   13.36611176   94.42600250    0.56999999    2.64000010
   13.36944485  101.86499786    0.56999999    2.64000010
   13.37250042   97.54530334    0.56999999    2.64000010
   13.37583351   98.11129761    0.56999999    2.64000010
   13.37916660   95.05370331    0.58999997    2.64000010
   13.38027763   95.11620331    0.58999997    2.64000010
   13.38277817  100.11799622    0.58999997    2.64000010
   13.38583279   98.28160095    0.58999997    2.66000009
   13.39194393   98.28160095    0.58999997    2.66000009
   13.39611053   99.35669708    0.58999997    2.64000010
   13.39916611   97.81950378    0.58999997    2.64000010
   13.40249920  100.41899872    0.58999997    2.64000010
   13.40583324   98.46779633    0.58999997    2.64000010
   13.40888882   99.59809875    0.56999999    2.64000010
   13.41222191  100.47399902    0.56999999    2.64000010
   13.41361046   98.95739746    0.56999999    2.64000010
   13.41583252  104.64199829    0.56999999    2.64000010
   13.41888905   96.00209808    0.56999999    2.64000010
   13.42222214   94.53749847    0.56999999    2.66000009
   13.42527771   94.13760376    0.56999999    2.64000010
   13.42861176   95.47039795    0.55000001    2.66000009
   13.43472195   95.47039795    0.56999999    2.64000010
   13.43888855   93.79589844    0.56999999    2.64000010
   13.44222260   96.63459778    0.56999999    2.64000010
   13.44527817   93.98699951    0.56999999    2.64000010
   13.44722271   87.19180298    0.56999999    2.64000010
   13.44888878  100.41600037    0.56999999    2.64000010
   13.45222187   99.04090118    0.56999999    2.64000010
   13.45555496   92.65709686    0.56999999    2.66000009
   13.45861053   98.08409882    0.56999999    2.66000009
   13.46194458   98.81479645    0.55000001    2.66000009
   13.46527767   91.17169952    0.55000001    2.64000010
   13.46833324   98.47619629    0.55000001    2.64000010
   13.47166634   97.37319946    0.55000001    2.66000009
   13.47749996   97.37319946    0.55000001    2.66000009
   13.48166656  102.50299835    0.55000001    2.66000009
   13.48500061   95.47699738    0.52999997    2.66000009
   13.48805618   95.50810242    0.55000001    2.66000009
   13.49138927   90.94570160    0.55000001    2.66000009
   13.49472237   97.42259979    0.55000001    2.66000009
   13.49777794   84.34539795    0.52999997    2.66000009
   13.50111103   96.42070007    0.55000001    2.67000008
   13.50444412   93.17539978    0.55000001    2.66000009
   13.50749969   95.70670319    0.55000001    2.66000009
   13.51083374   90.88030243    0.52999997    2.66000009
   13.51388931   97.55629730    0.52999997    2.66000009
   13.51416683  101.45300293    0.52999997    2.66000009
   13.52055550  101.45300293    0.52999997    2.64000010
   13.52444458   91.81569672    0.52999997    2.66000009
   13.52777767   95.81069946    0.52999997    2.66000009
   13.53111076   94.21289825    0.55000001    2.66000009
   13.53416729   99.85780334    0.55000001    2.66000009
   13.53750038   95.46430206    0.55000001    2.67000008
   13.54083347   97.02690125    0.55000001    2.66000009
   13.54388905   92.97119904    0.55000001    2.67000008
   13.54722309   97.06970215    0.55000001    2.66000009
   13.54750061  100.90599823    0.55000001    2.66000009
   13.55083370   94.42919922    0.55000001    2.66000009
   13.55416679   99.42829895    0.52999997    2.67000008
   13.55722237   96.82759857    0.52999997    2.66000009
   13.56333351   96.82759857    0.55000001    2.66000009
   13.56750011   91.82070160    0.55000001    2.66000009
   13.57055569   90.17549896    0.55000001    2.66000009
   13.57388878   92.13899994    0.55000001    2.67000008
   13.57722187   90.35880280    0.55000001    2.66000009
   13.58027744   96.06880188    0.55000001    2.67000008
   13.58083344   99.26059723    0.52999997    2.67000008
   13.58416653   96.33979797    0.55000001    2.66000009
   13.58722210   94.42690277    0.55000001    2.66000009
   13.59055519   93.84259796    0.55000001    2.67000008
   13.59388828   90.95929718    0.56999999    2.67000008
   13.59694386   90.50019836    0.55000001    2.66000009
   13.60027790   92.04589844    0.55000001    2.67000008
   13.60611153   92.04589844    0.55000001    2.66000009
   13.61027813   96.76920319    0.55000001    2.67000008
   13.61361122   92.82189941    0.56999999    2.67000008
   13.61416721  112.64099884    0.56999999    2.69000006
   13.61722279   87.46099854    0.56999999    2.67000008
   13.62027836   94.09040070    0.56999999    2.66000009
   13.62361145   96.38849640    0.56999999    2.67000008
   13.62694454   91.90139771    0.56999999    2.67000008
   13.63000011   93.47460175    0.56999999    2.67000008
   13.63333321   94.07460022    0.56999999    2.67000008
   13.63666630   85.54429626    0.56999999    2.66000009
   13.63972187   92.88880157    0.56999999    2.67000008
   13.64305496   91.29900360    0.56999999    2.67000008
   13.64888859   91.29900360    0.55000001    2.67000008
   13.65305519   91.96959686    0.55000001    2.67000008
   13.65638828   98.13459778    0.55000001    2.67000008
   13.65944386   91.33589935    0.55000001    2.66000009
   13.66277695   92.51999664    0.56999999    2.67000008
   13.66611099  100.00499725    0.55000001    2.67000008
   13.66916656   97.79319763    0.55000001    2.66000009
   13.67250061   94.45529938    0.55000001    2.67000008
   13.67583370   98.82340240    0.55000001    2.66000009
   13.67888927  100.31900024    0.55000001    2.67000008
   13.68083382   91.57119751    0.55000001    2.67000008
   13.68277836   97.43869781    0.55000001    2.67000008
   13.68583298  103.44000244    0.55000001    2.67000008
   13.69166660  103.44000244    0.55000001    2.67000008
   13.69583321   91.31819916    0.55000001    2.69000006
   13.69916630   94.79779816    0.55000001    2.66000009
   13.70249939   98.58139801    0.55000001    2.67000008
   13.70555496   93.37500000    0.55000001    2.66000009
   13.70888901   89.79830170    0.55000001    2.67000008
   13.71194458   91.86699677    0.55000001    2.67000008
   13.71416664   92.33630371    0.52999997    2.69000006
   13.71583271   96.44719696    0.52999997    2.69000006
   13.71888828   88.84839630    0.52999997    2.69000006
   13.72222137   91.70240021    0.52999997    2.67000008
   13.72555542   89.89769745    0.52999997    2.67000008
   13.72861099   91.23670197    0.55000001    2.69000006
   13.73472214   91.23670197    0.55000001    2.69000006
   13.73888874   93.03140259    0.55000001    2.67000008
   13.74194431   95.31359863    0.55000001    2.67000008
   13.74527836   93.81590271    0.52999997    2.69000006
   13.76222229   94.33640289    0.56999999    2.67000008
   13.76527786   95.60659790    0.58999997    2.69000006
   13.76861095   97.45690155    0.56999999    2.67000008
   13.77166653   91.62719727    0.56999999    2.67000008
   13.77777767   91.62719727    0.56999999    2.67000008
   13.78194427   90.79720306    0.56999999    2.67000008
   13.78500080   95.21389771    0.56999999    2.69000006
   13.78833389   95.86509705    0.56999999    2.67000008
   13.79138947   99.46910095    0.56999999    2.69000006
   13.79472256   89.49620056    0.56999999    2.69000006
   13.79555607   90.25710297    0.56999999    2.67000008
   13.79833412   86.30049896    0.55000001    2.69000006
   13.80166721   94.45570374    0.55000001    2.69000006
   13.80500031   89.05310059    0.55000001    2.67000008
   13.80805588   94.71779633    0.55000001    2.67000008
   13.81138897   97.77010345    0.55000001    2.67000008
   13.81472206   93.34439850    0.55000001    2.69000006
   13.82055569   93.34439850    0.55000001    2.69000006
   13.82472229   87.01309967    0.55000001    2.69000006
   13.82777786   83.87490082    0.55000001    2.69000006
   13.82888889   91.14540100    0.55000001    2.69000006
   13.83138847   86.58460236    0.55000001    2.69000006
   13.83472157   88.40249634    0.55000001    2.69000006
   13.83805561   90.12750244    0.55000001    2.69000006
   13.84111118   95.94519806    0.55000001    2.69000006
   13.84444427   98.06220245    0.55000001    2.69000006
   13.84777737   90.42189789    0.55000001    2.69000006
   13.85083389   89.64430237    0.55000001    2.69000006
   13.85416698   87.00229645    0.55000001    2.69000006
   13.85722256  100.91799927    0.55000001    2.69000006
   13.86333370  100.91799927    0.55000001    2.69000006
   13.86750031   92.67350006    0.55000001    2.69000006
   13.87083340   94.76339722    0.55000001    2.71000004
   13.87388897   93.80590057    0.55000001    2.71000004
   13.87722206   94.28379822    0.55000001    2.69000006
   13.88055611   97.40640259    0.55000001    2.69000006
   13.88361073   94.89569855    0.55000001    2.69000006
   13.88694477   94.45169830    0.55000001    2.69000006
   13.89000034   91.46350098    0.56999999    2.71000004
   13.89333344   90.49269867    0.56999999    2.69000006
   13.89555550   95.99970245    0.56999999    2.69000006
   13.89694405   97.94730377    0.56999999    2.69000006
   13.90027714   91.99210358    0.56999999    2.69000006
   13.90611076   91.99210358    0.56999999    2.71000004
   13.91027737   92.90779877    0.56999999    2.71000004
   13.91361046   94.55770111    0.56999999    2.71000004
   13.91694450   87.27269745    0.55000001    2.71000004
   13.92000008   87.67870331    0.55000001    2.69000006
   13.92333412   89.26409912    0.55000001    2.71000004
   13.92638874   94.80870056    0.55000001    2.69000006
   13.92888927   91.08159637    0.55000001    2.71000004
   13.93000031   96.74179840    0.55000001    2.69000006
   13.93333340   89.47419739    0.55000001    2.69000006
   13.93666649   88.01190186    0.55000001    2.69000006
   13.93972206   94.32109833    0.55000001    2.71000004
   13.94305515   90.83599854    0.55000001    2.71000004
   13.94916630   90.83599854    0.55000001    2.71000004
   13.95305538  101.79799652    0.55000001    2.69000006
   13.95638847   95.70320129    0.52999997    2.71000004
   13.95972157   86.28179932    0.55000001    2.69000006
   13.96222210   93.47810364    0.52999997    2.69000006
   13.96305561   96.94730377    0.52999997    2.71000004
   13.96638870   94.55010223    0.52999997    2.71000004
   13.96972179   92.40789795    0.52999997    2.69000006
   13.97277737   93.35189819    0.52999997    2.67000008
   13.97611046   92.60140228    0.52999997    2.69000006
   13.97944355   94.29479980    0.52999997    2.71000004
   13.98249912   90.18389893    0.52999997    2.69000006
   13.98583317   91.89569855    0.52999997    2.69000006
   13.99194431   91.89569855    0.51999998    2.69000006
   13.99611092   90.31099701    0.51999998    2.71000004
   13.99916649   95.24829865    0.52999997    2.69000006
   14.00249958   90.33460236    0.51999998    2.71000004
   14.00583363   79.30039978    0.51999998    2.71000004
   14.00888920   87.37689972    0.51999998    2.73000002
   14.01222229   89.91819763    0.51999998    2.71000004
   14.01555538   91.98419952    0.51999998    2.71000004
   14.01861095   89.77819824    0.50000000    2.71000004
   14.02194405   90.27230072    0.51999998    2.71000004
   14.02527714   92.43250275    0.50000000    2.71000004
   14.02833271   92.21230316    0.51999998    2.73000002
   14.02888870   90.30590057    0.51999998    2.71000004
   14.03472233   90.30590057    0.51999998    2.71000004
   14.03888893   99.32800293    0.51999998    2.71000004
   14.04222298   92.75749969    0.50000000    2.71000004
   14.04527855   91.46710205    0.50000000    2.71000004
   14.04861164   98.10759735    0.50000000    2.71000004
   14.05194473   97.56680298    0.50000000    2.71000004
   14.05500031  102.65899658    0.50000000    2.69000006
   14.05833340   96.65480042    0.50000000    2.71000004
   14.06138897   97.35939789    0.50000000    2.71000004
   14.06222248   94.53160095    0.50000000    2.71000004
   14.06527805   92.68389893    0.50000000    2.71000004
   14.06833363   96.42780304    0.47999999    2.71000004
   14.07166672   94.78749847    0.50000000    2.73000002
   14.07750034   94.78749847    0.47999999    2.71000004
   14.08166695   98.39109802    0.47999999    2.69000006
   14.08500004   94.98809814    0.47999999    2.71000004
   14.08833313  100.36399841    0.50000000    2.71000004
   14.09138870   96.69409943    0.47999999    2.71000004
   14.09472179   96.70570374    0.47999999    2.71000004
   14.09555531   98.90950012    0.47999999    2.73000002
   14.09833336   96.84429932    0.50000000    2.71000004
   14.10138893   96.23220062    0.50000000    2.73000002
   14.10472298   93.40650177    0.50000000    2.71000004
   14.10805607   94.36540222    0.50000000    2.73000002
   14.11111164  101.08200073    0.50000000    2.73000002
   14.11444473   93.09020233    0.50000000    2.71000004
   14.12055588   93.09020233    0.50000000    2.71000004
   14.12444496   91.77780151    0.50000000    2.71000004
   14.12777805   92.83190155    0.50000000    2.71000004
   14.12888908   92.20790100    0.47999999    2.71000004
   14.13138866   91.14640045    0.47999999    2.71000004
   14.13444424   91.49479675    0.47999999    2.71000004
   14.13777733   91.11239624    0.47999999    2.71000004
   14.14111137   96.98650360    0.47999999    2.71000004
   14.14416695   91.86150360    0.47999999    2.73000002
   14.14750004   92.72149658    0.47999999    2.71000004
   14.15083313   96.52999878    0.47999999    2.73000002
   14.15388870   85.39250183    0.46000001    2.71000004
   14.15722179   94.86450195    0.46000001    2.71000004
   14.16333294   94.86450195    0.46000001    2.71000004
   14.16750050   91.29380035    0.46000001    2.73000002
   14.17055607   91.22339630    0.46000001    2.69000006
   14.17388916   91.46610260    0.47999999    2.75000000
   14.17722225   93.59500122    0.46000001    2.73000002
   14.18027782   99.86769867    0.46000001    2.73000002
   14.18361092   89.93489838    0.47999999    2.73000002
   14.18694496   94.92690277    0.47999999    2.71000004
   14.19000053   95.61350250    0.47999999    2.71000004
   14.19333363   94.86660004    0.47999999    2.73000002
   14.19555569   89.15740204    0.47999999    2.71000004
   14.19694424   91.12599945    0.47999999    2.71000004
   14.19999981   91.66410065    0.50000000    2.73000002
   14.20611095   91.66410065    0.47999999    2.73000002
   14.21027756   88.37169647    0.47999999    2.71000004
   14.21361065   93.77459717    0.47999999    2.73000002
   14.21666622   86.62940216    0.47999999    2.71000004
   14.21999931   85.80729675    0.47999999    2.73000002
   14.22333336   89.87670135    0.47999999    2.73000002
   14.22638798   87.28450012    0.46000001    2.73000002
   14.22888851   89.59120178    0.47999999    2.73000002
   14.22999954   84.17009735    0.46000001    2.71000004
   14.23305511   86.45220184    0.47999999    2.71000004
   14.23638916   86.12239838    0.46000001    2.75000000
   14.23972225   93.48750305    0.46000001    2.75000000
   14.24277782   93.63909912    0.46000001    2.73000002
   14.24888897   93.63909912    0.47999999    2.73000002
   14.25305557   94.24800110    0.47999999    2.75000000
   14.25638866   89.28739929    0.47999999    2.71000004
   14.25972176   89.85759735    0.47999999    2.75000000
   14.26222229   88.23349762    0.47999999    2.73000002
   14.26333332   89.05339813    0.46000001    2.71000004
   14.26638889   93.13880157    0.47999999    2.71000004
   14.26972198   86.66040039    0.47999999    2.73000002
   14.27305508   92.97329712    0.47999999    2.69000006
   14.27611065   93.76229858    0.47999999    2.71000004
   14.27944374   90.62809753    0.47999999    2.73000002
   14.28277779   94.49150085    0.47999999    2.73000002
   14.28583336   90.55130005    0.50000000    2.71000004
   14.29194450   90.55130005    0.50000000    2.73000002
   14.29611111   94.44869995    0.50000000    2.73000002
   14.29916668   91.89679718    0.50000000    2.73000002
   14.30249977   83.87909698    0.47999999    2.73000002
   14.30583382   99.44120026    0.47999999    2.73000002
   14.30888939   90.24009705    0.47999999    2.73000002
   14.31222248   90.57170105    0.50000000    2.73000002
   14.31527805   92.39589691    0.50000000    2.73000002
   14.31861115   92.92459869    0.50000000    2.71000004
   14.32194424   85.53500366    0.47999999    2.75000000
   14.32499981   85.54589844    0.47999999    2.75000000
   14.32833290   87.78749847    0.47999999    2.71000004
   14.32888889   79.17389679    0.47999999    2.73000002
   14.33472157   79.17389679    0.50000000    2.73000002
   14.33888817   91.80809784    0.47999999    2.71000004
   14.34222221   87.48149872    0.47999999    2.73000002
   14.34527779   89.30760193    0.46000001    2.73000002
   14.34861088   87.35440063    0.46000001    2.71000004
   14.35166740   92.53420258    0.46000001    2.71000004
   14.35500050   86.99330139    0.46000001    2.73000002
   14.35833359   93.36440277    0.47999999    2.73000002
   14.36138916   96.82759857    0.46000001    2.73000002
   14.36222267   88.28240204    0.46000001    2.73000002
   14.36500072   90.03970337    0.47999999    2.73000002
   14.36805534   94.09819794    0.46000001    2.73000002
   14.37138939   96.54070282    0.47999999    2.73000002
   14.37750053   96.54070282    0.46000001    2.73000002
   14.38166714   96.86540222    0.46000001    2.73000002
   14.38500023   95.79499817    0.46000001    2.75000000
   14.38805580   92.40760040    0.46000001    2.73000002
   14.39138889   88.03299713    0.46000001    2.73000002
   14.39444447   93.43879700    0.46000001    2.75000000
   14.39555550   95.00189972    0.46000001    2.75000000
   14.39833355   94.80290222    0.46000001    2.73000002
   14.40138817   95.13539886    0.46000001    2.75000000
   14.40472221   86.25939941    0.47999999    2.73000002
   14.40805531   91.60820007    0.47999999    2.75000000
   14.41111088   89.67539978    0.47999999    2.73000002
   14.41444397   93.96269989    0.47999999    2.73000002
   14.42027855   93.96269989    0.46000001    2.73000002
   14.42444515   83.48449707    0.40000001    2.75000000
   14.42777824   87.65579987    0.38000000    2.75000000
   14.42888927   95.55139923    0.38000000    2.75000000
   14.43138885   91.85630035    0.38000000    2.75000000
   14.43472195   93.09069824    0.38000000    2.75000000
   14.43777752   91.08409882    0.38000000    2.75000000
   14.44111156   90.33290100    0.40000001    2.75000000
   14.44416714   92.09429932    0.40000001    2.75000000
   14.44750023   94.07879639    0.40000001    2.75000000
   14.45083332   91.30539703    0.40000001    2.75000000
   14.45388889   92.54219818    0.38000000    2.75000000
   14.45722198   90.50890350    0.36000001    2.75000000
   14.46333313   90.50890350    0.36000001    2.75000000
   14.46749973   96.34480286    0.36000001    2.73000002
   14.47055531   97.31739807    0.38000000    2.75000000
   14.47388840   89.14669800    0.38000000    2.75000000
   14.47694397   98.20590210    0.38000000    2.75000000
   14.48027706   97.93219757    0.38000000    2.73000002
   14.48361111  100.78199768    0.38000000    2.73000002
   14.48666668   95.24739838    0.38000000    2.75000000
   14.49000072   96.89959717    0.40000001    2.75000000
   14.49305534   94.17060089    0.38000000    2.75000000
   14.49555588   94.83740234    0.38000000    2.75000000
   14.49694443   94.26239777    0.38000000    2.75000000
   14.50027752   92.84279633    0.36000001    2.75000000
   14.50611115   92.84279633    0.38000000    2.73000002
   14.51027775   94.88330078    0.38000000    2.73000002
   14.51333332   85.78489685    0.38000000    2.75000000
   14.51666641   90.65529633    0.38000000    2.75000000
   14.51999950   88.21559906    0.38000000    2.75000000
   14.52305508   96.12439728    0.38000000    2.75000000
   14.52638817   97.59400177    0.40000001    2.75000000
   14.52888870   91.50389862    0.38000000    2.75000000
   14.52999973   91.59159851    0.38000000    2.75000000
   14.53305531   93.46459961    0.38000000    2.75000000
   14.53638935   90.40239716    0.38000000    2.75000000
   14.53972244   97.12090302    0.38000000    2.75000000
   14.54277802   98.73079681    0.38000000    2.75000000
   14.54888916   98.73079681    0.40000001    2.76999998
   14.55305576   95.71430206    0.38000000    2.73000002
   14.55638885   90.88880157    0.38000000    2.75000000
   14.55944443   98.99069977    0.38000000    2.75000000
   14.56222248   99.80629730    0.38000000    2.76999998
   14.56305599   98.55680084    0.38000000    2.75000000
   14.56611156   95.64679718    0.38000000    2.75000000
   14.56944466   98.85810089    0.40000001    2.75000000
   14.57277775   95.46800232    0.40000001    2.75000000
   14.57583332   92.47059631    0.40000001    2.73000002
   14.57916641   92.90470123    0.40000001    2.75000000
   14.58249950   90.60179901    0.40000001    2.75000000
   14.58555508   88.52059937    0.41999999    2.75000000
   14.59166622   88.52059937    0.41999999    2.75000000
   14.59583282   85.61009979    0.41999999    2.75000000
   14.59916592   82.44819641    0.41999999    2.75000000
   14.60249996   89.29660034    0.41999999    2.75000000
   14.60555553   90.98239899    0.44000000    2.75000000
   14.60888958   90.87750244    0.41999999    2.75000000
   14.61194515   86.74919891    0.44000000    2.75000000
   14.61527824   88.34660339    0.41999999    2.75000000
   14.61861134   84.35630035    0.41999999    2.75000000
   14.62166691   88.83580017    0.40000001    2.75000000
   14.62500000   85.76280212    0.41999999    2.75000000
   14.62833309   93.85549927    0.41999999    2.75000000
   14.62888908   88.19609833    0.41999999    2.75000000
   14.63472176   88.19609833    0.41999999    2.75000000
   14.63861084   93.24530029    0.40000001    2.73000002
   14.64194393   92.34570313    0.41999999    2.76999998
   14.64527798   94.69770050    0.41999999    2.76999998
   14.64833355   94.46060181    0.41999999    2.75000000
   14.65166664   92.36859894    0.41999999    2.75000000
   14.65499973   93.35070038    0.41999999    2.75000000
   14.65805531   91.66649628    0.40000001    2.75000000
   14.66138840   90.26090240    0.38000000    2.76999998
   14.66222191   96.13379669    0.40000001    2.73000002
   14.66499996   94.30970001    0.38000000    2.75000000
   14.66833401   90.72139740    0.38000000    2.76999998
   14.67138958  103.88500214    0.40000001    2.75000000
   14.67750072  103.88500214    0.38000000    2.75000000
   14.68166733   93.35829926    0.38000000    2.76999998
   14.68472195   90.35449982    0.38000000    2.76999998
   14.68805599   90.44390106    0.40000001    2.76999998
   14.69138908  101.80300140    0.38000000    2.75000000
   14.69444466   94.90239716    0.40000001    2.78999996
   14.69555569   95.93450165    0.40000001    2.76999998
   14.69805527   92.92859650    0.40000001    2.75000000
   14.70138836   92.33489990    0.40000001    2.78999996
   14.70444393   98.24639893    0.40000001    2.76999998
   14.70777798   97.75389862    0.40000001    2.75000000
   14.71083355   93.64540100    0.40000001    2.75000000
   14.71416664   96.21279907    0.40000001    2.75000000
   14.72027779   96.21279907    0.40000001    2.76999998
   14.72444439   96.53730011    0.40000001    2.76999998
   14.72777748   92.40170288    0.40000001    2.75000000
   14.72888851   96.67539978    0.40000001    2.76999998
   14.73138809  100.29100037    0.40000001    2.75000000
   14.73472214   95.97360229    0.40000001    2.75000000
   14.73777771   95.70449829    0.41999999    2.76999998
   14.74111176   92.17079926    0.41999999    2.75000000
   14.74416733   98.41059875    0.41999999    2.76999998
   14.74750042   89.92379761    0.40000001    2.76999998
   14.75083351   99.42369843    0.40000001    2.75000000
   14.75388908   97.26290131    0.38000000    2.78999996
   14.75722218   93.07319641    0.38000000    2.76999998
   14.77944374   98.24430084    0.40000001    2.76999998
   14.77999973   94.83940125    0.40000001    2.76999998
   14.78305531   92.25910187    0.38000000    2.78999996
   14.78638935   91.90129852    0.40000001    2.76999998
   14.78972244  100.85600281    0.36000001    2.76999998
   14.79277802   94.59169769    0.36000001    2.76999998
   14.79555607   90.11969757    0.36000001    2.76999998
   14.79638958   94.82530212    0.36000001    2.76999998
   14.79972267   95.43270111    0.34000000    2.78999996
   14.80611134   95.43270111    0.36000001    2.76999998
   14.81027794   97.11969757    0.34000000    2.76999998
   14.81333351   93.93460083    0.34000000    2.76999998
   14.81666660   92.08020020    0.34000000    2.76999998
   14.81972218   94.29859924    0.36000001    2.78999996
   14.82305527   97.51950073    0.36000001    2.76999998
   14.82638836   97.59799957    0.36000001    2.76999998
   14.82888889   95.25749969    0.36000001    2.76999998
   14.82999992   91.25700378    0.34000000    2.76999998
   14.83333302   96.45010376    0.36000001    2.76999998
   14.83638859   98.00409698    0.38000000    2.76999998
   14.83972168   96.02809906    0.36000001    2.75000000
   14.84277725   98.92070007    0.38000000    2.75000000
   14.84888840   98.92070007    0.38000000    2.76999998
   14.85305595   99.69059753    0.38000000    2.75000000
   14.85611153  100.41600037    0.41999999    2.76999998
   14.85944462  100.12599945    0.40000001    2.78999996
   14.86222267  101.48200226    0.40000001    2.75000000
   14.86305618   98.86180115    0.40000001    2.76999998
   14.86638927   90.28109741    0.40000001    2.78999996
   14.86944485   95.93849945    0.40000001    2.75000000
   14.87277794   98.10119629    0.41999999    2.76999998
   14.87583351  100.66400146    0.41999999    2.76999998
   14.87916660   99.47339630    0.40000001    2.75000000
   14.88249969   94.22609711    0.40000001    2.78999996
   14.88555527  104.06800079    0.40000001    2.76999998
   14.89166641  104.06800079    0.40000001    2.76999998
   14.89583302   92.77380371    0.40000001    2.76999998
   14.89916611   98.63760376    0.40000001    2.76999998
   14.90222168  100.42600250    0.41999999    2.76999998
   14.90555477   96.45439911    0.41999999    2.76999998
   14.90888882   90.60919952    0.41999999    2.75000000
   14.91194439   93.82530212    0.41999999    2.78999996
   14.91527748   90.15609741    0.41999999    2.76999998
   14.91833401   92.72329712    0.41999999    2.76999998
   14.92166710   94.35399628    0.40000001    2.78999996
   14.92500019   96.90080261    0.41999999    2.78999996
   14.92805576   96.39790344    0.41999999    2.78999996
   14.92888927   92.70110321    0.41999999    2.76999998
   14.93472195   92.70110321    0.41999999    2.75000000
   14.93861103  100.61599731    0.44000000    2.76999998
   14.94194412  111.59799957    0.41999999    2.75000000
   14.94527817   98.55529785    0.41999999    2.75000000
   14.94833374   94.73509979    0.41999999    2.76999998
   14.95166683  101.36100006    0.41999999    2.76999998
   14.95472240  102.04599762    0.41999999    2.78999996
   14.95805550  129.76600647    0.41999999    2.76999998
   14.96138859  119.77200317    0.41999999    2.78999996
   14.96222210  131.80599976    0.41999999    2.78999996
   14.96500015  101.31700134    0.41999999    2.76999998
   14.96833324  145.06500244    0.41999999    2.76999998
   14.97138882  135.36199951    0.41999999    2.76999998
   14.97749996  135.36199951    0.44000000    2.76999998
   14.98166656  174.64300537    0.44000000    2.76999998
   14.98472214  162.40899658    0.41999999    2.76999998
   14.98805618  164.52600098    0.41999999    2.75000000
   14.99111176  166.16499329    0.41999999    2.76999998
   14.99444485  234.49800110    0.41999999    2.76999998
   14.99583340  236.50300598    0.41999999    2.76999998
   14.99805546  191.84700012    0.44000000    2.78999996
   15.00138855  181.15800476    0.41999999    2.76999998
   15.00444412  207.12300110    0.41999999    2.78999996
   15.00777817  208.43200684    0.44000000    2.76999998
   15.01111126  192.78199768    0.41999999    2.76999998
   15.01416683  180.72700500    0.44000000    2.76999998
   15.02027798  180.72700500    0.41999999    2.76999998
   15.02444458  161.21899414    0.41999999    2.76999998
   15.02750015  172.31500244    0.41999999    2.76999998
   15.02916622  155.39199829    0.41999999    2.76999998
   15.03111076  127.23699951    0.41999999    2.76999998
   15.03444481  124.52899933    0.40000001    2.78999996
   15.03750038  128.12600708    0.41999999    2.76999998
   15.04083347  122.96499634    0.41999999    2.75000000
   15.04416752  111.45099640    0.41999999    2.75000000
   15.04722309  107.02999878    0.41999999    2.78999996
   15.05055618  100.09400177    0.41999999    2.76999998
   15.05388927  105.49500275    0.41999999    2.76999998
   15.05694485   92.84359741    0.44000000    2.76999998
   15.06305599   92.84359741    0.41999999    2.76999998
   15.06722260  111.96700287    0.41999999    2.76999998
   15.17194462   -1.00000000   -1.00000000   -1.00000000
   15.55416679   -1.00000000   -1.00000000   -1.00000000
   15.69277763   -1.00000000   -1.00000000   -1.00000000
   15.82666683  115.07599640    0.31999999    2.78999996
   15.82999992  106.98699951    0.31999999    2.80999994
   15.83333302  105.51200104    0.30000001    2.78999996
   15.83638859  106.01999664    0.31999999    2.80999994
   15.83972168  109.50800323    0.30000001    2.78999996
   15.84277725  103.41100311    0.30000001    2.80999994
   15.84694386  103.41100311    0.30000001    2.80999994
   15.85111141  102.04900360    0.31999999    2.78999996
   15.85444450  104.91899872    0.30000001    2.80999994
   15.85750008  104.13899994    0.30000001    2.80999994
   15.86000061  103.25800323    0.30000001    2.80999994
   15.86138916  108.77500153    0.28000000    2.82999992
   15.86472225  106.29499817    0.30000001    2.80999994
   15.86777782  104.65699768    0.31999999    2.80999994
   15.87111092  103.02100372    0.30000001    2.80999994
   15.87416649  109.65100098    0.30000001    2.78999996
   15.87750053   98.48600006    0.30000001    2.78999996
   15.88083363  102.73200226    0.31999999    2.78999996
   15.88388920   99.55829620    0.30000001    2.78999996
   15.89000034   99.55829620    0.31999999    2.78999996
   15.89388847  107.95300293    0.30000001    2.80999994
   15.89722252  106.50099945    0.30000001    2.82999992
   15.90055561  102.66200256    0.31999999    2.80999994
   15.90361118  103.12100220    0.30000001    2.78999996
   15.90694427  108.08000183    0.30000001    2.80999994
   15.91027737   97.62490082    0.30000001    2.80999994
   15.91333294   95.10079956    0.30000001    2.80999994
   15.91666698   99.92569733    0.30000001    2.80999994
   15.91972256  103.36900330    0.30000001    2.80999994
   15.92305565  100.09100342    0.30000001    2.80999994
   15.92638874   95.89189911    0.28000000    2.80999994
   15.92694473   98.81929779    0.28000000    2.80999994
   15.93277836   98.81929779    0.28000000    2.80999994
   15.93694496  101.21299744    0.28000000    2.78999996
   15.94000053  101.17299652    0.28000000    2.82999992
   15.94333363   99.79779816    0.30000001    2.80999994
   15.94666672   98.77149963    0.28000000    2.80999994
   15.94972229  105.17800140    0.28000000    2.80999994
   15.95305538  109.16799927    0.28000000    2.80999994
   15.95611095   97.11710358    0.30000001    2.80999994
   15.95944405  102.39099884    0.30000001    2.80999994
   15.96027756  101.87599945    0.30000001    2.80999994
   15.96305561   96.38899994    0.30000001    2.78999996
   15.96638870  108.65499878    0.28000000    2.80999994
   15.96972179  102.53500366    0.28000000    2.80999994
   15.97555542  102.53500366    0.30000001    2.80999994
   15.97972202  105.44400024    0.30000001    2.80999994
   15.98305511  103.03299713    0.30000001    2.80999994
   15.98611164   99.78199768    0.30000001    2.80999994
   15.98944473  106.69499969    0.30000001    2.78999996
   15.99250031  108.44999695    0.30000001    2.80999994
   15.99361134   95.86180115    0.30000001    2.80999994
   15.99611092  109.33000183    0.30000001    2.80999994
   15.99944496   98.17729950    0.31999999    2.80999994
   16.00277710   89.60199738    0.30000001    2.80999994
   16.00583267   94.00679779    0.31999999    2.78999996
   16.00916672   96.68990326    0.31999999    2.80999994
   16.01222229  100.86499786    0.31999999    2.80999994
   16.01833344  100.86499786    0.31999999    2.80999994
   16.02249908   96.14739990    0.31999999    2.78999996
   16.02583313   92.18710327    0.31999999    2.80999994
   16.02694511  101.44999695    0.31999999    2.80999994
   16.02944374  100.12400055    0.34000000    2.80999994
   16.03277779  102.37699890    0.34000000    2.78999996
   16.03610992   97.67340088    0.34000000    2.80999994
   16.03916550   96.86229706    0.34000000    2.80999994
   16.04249954  101.67800140    0.34000000    2.80999994
   16.04555511   94.94689941    0.34000000    2.80999994
   16.04888916   99.24739838    0.34000000    2.80999994
   16.05222130  109.22100067    0.34000000    2.80999994
   16.05527687   96.85440063    0.31999999    2.80999994
   16.06138802   96.85440063    0.34000000    2.80999994
   16.06527710  104.37400055    0.34000000    2.80999994
   16.06861115  107.29399872    0.34000000    2.80999994
   16.07194519   97.77290344    0.34000000    2.80999994
   16.07500076  104.23999786    0.34000000    2.78999996
   16.07833481  103.88700104    0.36000001    2.82999992
   16.08166695   94.84649658    0.36000001    2.78999996
   16.08472252  103.08999634    0.34000000    2.80999994
   16.08805656  101.53800201    0.34000000    2.78999996
   16.09111214   97.82839966    0.34000000    2.80999994
   16.09361267  105.69400024    0.34000000    2.80999994
   16.09472275   95.36239624    0.34000000    2.80999994
   16.09805679   97.97219849    0.34000000    2.80999994
   16.10416794   97.97219849    0.34000000    2.80999994
   16.10833359  101.83300018    0.34000000    2.80999994
   16.11138916  102.88999939    0.34000000    2.80999994
   16.11472321   96.51090240    0.34000000    2.78999996
   16.11805534  104.91600037    0.36000001    2.78999996
   16.12111092  100.08599854    0.34000000    2.80999994
   16.12444496  101.37300110    0.36000001    2.78999996
   16.12694550   96.86250305    0.34000000    2.82999992
   16.12805557  100.85600281    0.36000001    2.82999992
   16.13138962   94.12500000    0.36000001    2.80999994
   16.13472176  102.62699890    0.36000001    2.80999994
   16.13777733   98.82409668    0.36000001    2.80999994
   16.14111137  105.02600098    0.36000001    2.80999994
   16.14694405  105.02600098    0.36000001    2.80999994
   16.15111160   97.65769958    0.40000001    2.80999994
   16.15444374  103.21800232    0.38000000    2.80999994
   16.15749931  105.40599823    0.40000001    2.80999994
   16.16027832  102.89499664    0.40000001    2.80999994
   16.16110992   95.34079742    0.40000001    2.80999994
   16.16444397   95.57849884    0.40000001    2.80999994
   16.16777802  102.36699677    0.40000001    2.80999994
   16.17083359   95.89140320    0.40000001    2.80999994
   16.17416573   94.86109924    0.40000001    2.80999994
   16.17749977   91.00099945    0.40000001    2.78999996
   16.18055534  103.04299927    0.40000001    2.80999994
   16.18388748  101.97699738    0.38000000    2.80999994
   16.18972206  101.97699738    0.38000000    2.80999994
   16.19388771   99.61229706    0.36000001    2.80999994
   16.19722176   93.98719788    0.36000001    2.82999992
   16.20027924  103.60900116    0.38000000    2.80999994
   16.20361137   93.60119629    0.36000001    2.80999994
   16.20694542   97.43710327    0.36000001    2.80999994
   16.21000099   96.49970245    0.36000001    2.80999994
   16.21333504   94.74720001    0.36000001    2.80999994
   16.21666718  101.44899750    0.36000001    2.80999994
   16.21972275  103.53700256    0.38000000    2.82999992
   16.22305679  100.17800140    0.38000000    2.78999996
   16.22611237  102.05500031    0.38000000    2.80999994
   16.22694588   99.54540253    0.38000000    2.80999994
   16.23250008   99.54540253    0.38000000    2.78999996
   16.23666763  104.19599915    0.38000000    2.80999994
   16.23999977  104.16899872    0.38000000    2.80999994
   16.24333382  111.01200104    0.36000001    2.80999994
   16.24638939  100.27600098    0.36000001    2.80999994
   16.24972153  103.49600220    0.36000001    2.80999994
   16.25305557   97.23670197    0.34000000    2.80999994
   16.25611115  106.74800110    0.34000000    2.78999996
   16.25944519  104.36900330    0.31999999    2.80999994
   16.26027870  106.35600281    0.31999999    2.80999994
   16.26305580  104.07900238    0.31999999    2.82999992
   16.26638794   99.08180237    0.30000001    2.80999994
   16.26972198  103.12699890    0.31999999    2.80999994
   16.27555466  103.12699890    0.31999999    2.82999992
   16.27972221   96.70570374    0.31999999    2.80999994
   16.28277779  103.95400238    0.34000000    2.80999994
   16.28610992  101.52700043    0.31999999    2.80999994
   16.28944397  103.60299683    0.31999999    2.80999994
   16.29249954  101.71099854    0.31999999    2.80999994
   16.29361153   97.64939880    0.31999999    2.80999994
   16.29611015   96.62079620    0.31999999    2.80999994
   16.29944420   92.70339966    0.31999999    2.78999996
   16.30277634  100.41400146    0.31999999    2.80999994
   16.30583191   96.17659760    0.31999999    2.80999994
   16.30916595   96.36900330    0.34000000    2.80999994
   16.31250000   97.66439819    0.36000001    2.80999994
   16.31833458   97.66439819    0.36000001    2.80999994
   16.32250023  103.75499725    0.38000000    2.80999994
   16.32583427   99.48539734    0.38000000    2.80999994
   16.32694626  101.20400238    0.38000000    2.80999994
   16.32916832  104.69300079    0.38000000    2.80999994
   16.33250046  102.06099701    0.40000001    2.80999994
   16.33583450   98.31590271    0.40000001    2.78999996
   16.33916664   98.57859802    0.40000001    2.80999994
   16.34222221   94.13320160    0.38000000    2.80999994
   16.34555626  103.76699829    0.40000001    2.80999994
   16.34861183   99.78389740    0.38000000    2.80999994
   16.35194397   85.94920349    0.38000000    2.82999992
   16.35527802   95.04789734    0.38000000    2.80999994
   16.36111069   95.04789734    0.38000000    2.78999996
   16.36527824   98.57990265    0.38000000    2.80999994
   16.36861038  106.62799835    0.38000000    2.78999996
   16.37166595  105.12400055    0.36000001    2.80999994
   16.37500000   97.95780182    0.36000001    2.80999994
   16.37833405  103.95700073    0.36000001    2.80999994
   16.38138962   98.46880341    0.36000001    2.80999994
   16.38472176   96.32820129    0.36000001    2.80999994
   16.38805580   99.86589813    0.36000001    2.80999994
   16.39111137   96.70719910    0.38000000    2.80999994
   16.39361191   88.11810303    0.36000001    2.78999996
   16.39472198   98.51049805    0.38000000    2.80999994
   16.39805603   96.29789734    0.34000000    2.80999994
   16.40388870   96.29789734    0.34000000    2.80999994
   16.40805435  100.16300201    0.34000000    2.80999994
   16.41138840  115.45099640    0.34000000    2.80999994
   16.41472244   97.79830170    0.34000000    2.80999994
   16.41777802  102.84500122    0.34000000    2.82999992
   16.42111015   93.86859894    0.34000000    2.80999994
   16.42444420   95.78279877    0.34000000    2.80999994
   16.42694473  104.37400055    0.31999999    2.82999992
   16.42777634  101.37500000    0.34000000    2.82999992
   16.43111038  105.48000336    0.34000000    2.80999994
   16.43444443   93.88420105    0.34000000    2.80999994
   16.43750000  104.00199890    0.34000000    2.80999994
   16.44083214   96.59829712    0.34000000    2.80999994
   16.44694328   96.59829712    0.34000000    2.80999994
   16.45111275   98.75180054    0.34000000    2.80999994
   16.45416832   97.48549652    0.36000001    2.80999994
   16.45750046  101.47000122    0.36000001    2.80999994
   16.46027946   98.52670288    0.36000001    2.80999994
   16.46111107   95.99810028    0.36000001    2.80999994
   16.46416664   84.46749878    0.36000001    2.80999994
   16.46750069  100.25499725    0.36000001    2.80999994
   16.47055626   99.21929932    0.36000001    2.80999994
   16.47389030   96.75730133    0.36000001    2.80999994
   16.47722244   95.56150055    0.36000001    2.80999994
   16.48027802  100.70300293    0.36000001    2.82999992
   16.48361206  100.09300232    0.36000001    2.80999994
   16.48972321  100.09300232    0.36000001    2.80999994
   16.49388885   95.47669983    0.36000001    2.80999994
   16.49694443   94.43280029    0.36000001    2.80999994
   16.50027847   92.39409637    0.34000000    2.78999996
   16.50361061   94.69329834    0.34000000    2.82999992
   16.50666618   93.78919983    0.34000000    2.80999994
   16.51000023   96.95860291    0.34000000    2.80999994
   16.51333427   94.33380127    0.34000000    2.80999994
   16.51638794   96.70610046    0.34000000    2.80999994
   16.51972198   98.00409698    0.34000000    2.78999996
   16.52277756  101.71399689    0.36000001    2.80999994
   16.52611160   94.70960236    0.34000000    2.82999992
   16.52694511   93.47019958    0.34000000    2.82999992
   16.53249931   93.47019958    0.34000000    2.80999994
   16.53666687  105.57399750    0.34000000    2.80999994
   16.53999901  100.81300354    0.31999999    2.82999992
   16.54305458   98.16149902    0.31999999    2.80999994
   16.54638863   93.52210236    0.34000000    2.80999994
   16.54972076   90.58100128    0.34000000    2.78999996
   16.55277634   98.50140381    0.34000000    2.80999994
   16.55638885   93.27439880    0.34000000    2.80999994
   16.55972099   98.39759827    0.34000000    2.80999994
   16.56027794   97.24389648    0.34000000    2.80999994
   16.56333351   99.42400360    0.36000001    2.80999994
   16.56638718   99.87779999    0.34000000    2.82999992
   16.56972313   98.13739777    0.36000001    2.80999994
   16.57527924   98.13739777    0.36000001    2.82999992
   16.57944489   93.65440369    0.36000001    2.80999994
   16.58277893   92.97059631    0.36000001    2.80999994
   16.58611107  100.86799622    0.36000001    2.80999994
   16.58916664   96.01260376    0.36000001    2.80999994
   16.59250069   96.00150299    0.36000001    2.80999994
   16.59361267   97.44640350    0.38000000    2.80999994
   16.59611130   94.72709656    0.36000001    2.80999994
   16.59916687  102.31800079    0.38000000    2.80999994
   16.60250092   94.87709808    0.36000001    2.78999996
   16.60583305   94.07820129    0.36000001    2.80999994
   16.60888863   96.39399719    0.36000001    2.82999992
   16.61222267   95.64270020    0.38000000    2.78999996
   16.61833382   95.64270020    0.38000000    2.80999994
   16.62249947  100.08599854    0.38000000    2.78999996
   16.62555504  103.93000031    0.38000000    2.80999994
   16.62694550  102.31199646    0.38000000    2.80999994
   16.62944412  104.06500244    0.38000000    2.80999994
   16.63249969   97.42620087    0.36000001    2.82999992
   16.63583374   99.83370209    0.38000000    2.80999994
   16.63888931  100.85199738    0.36000001    2.80999994
   16.64222145  103.20300293    0.36000001    2.78999996
   16.64555550   94.64469910    0.36000001    2.80999994
   16.64861107   86.29799652    0.36000001    2.80999994
   16.65194321   94.39369965    0.36000001    2.82999992
   16.65527725   94.28759766    0.38000000    2.82999992
   16.66110992   94.28759766    0.36000001    2.80999994
   16.66527748   95.01010132    0.36000001    2.80999994
   16.66833305   96.23619843    0.36000001    2.78999996
   16.67166519   95.32240295    0.36000001    2.82999992
   16.67499924   98.57510376    0.34000000    2.80999994
   16.67805481  106.56700134    0.34000000    2.80999994
   16.68138885  102.22000122    0.34000000    2.80999994
   16.68472099   96.05139923    0.34000000    2.80999994
   16.68777657   93.21459961    0.34000000    2.82999992
   16.69111061   94.41369629    0.34000000    2.82999992
   16.69361115  102.45400238    0.34000000    2.80999994
   16.69472122   95.96900177    0.34000000    2.80999994
   16.69777679   98.27960205    0.34000000    2.82999992
   16.70388985   98.27960205    0.34000000    2.78999996
   16.70805550  106.37200165    0.34000000    2.80999994
   16.71138954  104.78399658    0.34000000    2.82999992
   16.71444511   95.45079803    0.34000000    2.78999996
   16.71777916   99.35320282    0.31999999    2.80999994
   16.72111130  100.27999878    0.34000000    2.80999994
   16.72416687  104.82199860    0.31999999    2.80999994
   16.72694588   96.13300323    0.31999999    2.82999992
   16.72805595   95.02069855    0.31999999    2.82999992
   16.73111153  106.61399841    0.34000000    2.80999994
   16.73444557   95.25240326    0.31999999    2.82999992
   16.73777771  100.73699951    0.31999999    2.80999994
   16.74083328   98.67739868    0.34000000    2.80999994
   16.74666786   98.67739868    0.34000000    2.80999994
   16.75083351   96.59999847    0.34000000    2.80999994
   16.75416756   97.85659790    0.34000000    2.78999996
   16.75749969  100.34500122    0.31999999    2.80999994
   16.76027870   96.48970032    0.34000000    2.80999994
   16.76111031   96.62550354    0.34000000    2.80999994
   16.76416588   98.92849731    0.34000000    2.80999994
   16.76749992  101.43199921    0.31999999    2.80999994
   16.77083397   93.87550354    0.34000000    2.82999992
   16.77388954   94.73539734    0.34000000    2.80999994
   16.77722168  103.46700287    0.34000000    2.80999994
   16.78027725  100.71800232    0.31999999    2.80999994
   16.78361130   96.03500366    0.31999999    2.80999994
   16.78972244   96.03500366    0.31999999    2.80999994
   16.79388809   97.14589691    0.34000000    2.80999994
   16.79694366  102.03099823    0.31999999    2.80999994
   16.80027771   98.15519714    0.34000000    2.80999994
   16.80360985  101.94999695    0.34000000    2.82999992
   16.80666542  105.83399963    0.34000000    2.82999992
   16.80999947   96.71859741    0.31999999    2.80999994
   16.81305504   96.87799835    0.34000000    2.80999994
   16.81638718   91.74040222    0.31999999    2.80999994
   16.81972313   99.12719727    0.34000000    2.80999994
   16.82277870   95.49520111    0.34000000    2.82999992
   16.82611275  102.88999939    0.31999999    2.80999994
   16.82694626  106.01699829    0.31999999    2.82999992
   16.84777832  106.01699829    0.31999999    2.80999994
   16.85166740   97.46669769    0.34000000    2.80999994
   16.85499954   98.48049927    0.31999999    2.80999994
   16.85833359   96.42919922    0.31999999    2.80999994
   16.86027908   94.44490051    0.31999999    2.80999994
   16.86194420   89.86569977    0.34000000    2.82999992
   16.86499977   93.15470123    0.34000000    2.82999992
   16.86833382   91.98200226    0.34000000    2.80999994
   16.87166595   95.87509918    0.34000000    2.80999994
   16.87500000   97.59130096    0.34000000    2.80999994
   16.87805557   96.20970154    0.31999999    2.78999996
   16.88138962   87.72920227    0.34000000    2.78999996
   16.88472176   93.16449738    0.31999999    2.80999994
   16.89027786   93.16449738    0.34000000    2.80999994
   16.89444351   95.52989960    0.31999999    2.80999994
   16.89777756   93.23010254    0.31999999    2.80999994
   16.90111160   97.61769867    0.31999999    2.80999994
   16.90416718   89.73999786    0.31999999    2.80999994
   16.90749931   96.31970215    0.31999999    2.80999994
   16.91083336   94.41840363    0.31999999    2.80999994
   16.91388893   96.20819855    0.31999999    2.82999992
   16.91722107   96.10620117    0.31999999    2.80999994
   16.92027664   92.30110168    0.31999999    2.82999992
   16.92361069   95.99420166    0.31999999    2.82999992
   16.92694473   95.78289795    0.34000000    2.80999994
   16.92749977   95.17510223    0.34000000    2.80999994
   16.93333244   95.17510223    0.34000000    2.80999994
   16.93750000  103.73400116    0.34000000    2.80999994
   16.94055557   99.97959900    0.34000000    2.80999994
   16.94388771   97.89579773    0.34000000    2.80999994
   16.94694328   97.46160126    0.34000000    2.82999992
   16.95027924  103.73600006    0.36000001    2.80999994
   16.95361137   94.43540192    0.34000000    2.80999994
   16.95666695  103.50599670    0.34000000    2.82999992
   16.96000099  100.88999939    0.34000000    2.80999994
   16.96083450   94.46320343    0.34000000    2.80999994
   16.96361160   97.29570007    0.34000000    2.80999994
   16.96694565   96.53759766    0.34000000    2.80999994
   16.97000122   99.03050232    0.34000000    2.80999994
   16.97611237   99.03050232    0.34000000    2.82999992
   16.98027802   92.78479767    0.34000000    2.80999994
   16.98333359  100.88700104    0.34000000    2.82999992
   16.98666763   95.77960205    0.34000000    2.82999992
   16.98999977  100.41899872    0.34000000    2.84999990
   16.99305534   96.00879669    0.34000000    2.80999994
   16.99416733   94.01889801    0.34000000    2.80999994
   16.99666786  103.08899689    0.34000000    2.80999994
   17.00000000   94.62460327    0.34000000    2.80999994
   17.00333405   98.54170227    0.34000000    2.82999992
   17.00638962   96.14050293    0.36000001    2.80999994
   17.00972176   99.72959900    0.36000001    2.80999994
   17.01277733  102.43900299    0.36000001    2.80999994
   17.01888847  102.43900299    0.38000000    2.80999994
   17.02305603   94.37400055    0.38000000    2.80999994
   17.02638817   95.03859711    0.40000001    2.78999996
   17.02750015   99.97480011    0.40000001    2.78999996
   17.02972221   90.50109863    0.40000001    2.80999994
   17.03305435   97.46540070    0.38000000    2.78999996
   17.03638840  100.00900269    0.38000000    2.80999994
   17.03944397   99.24169922    0.38000000    2.80999994
   17.04277802   98.25550079    0.38000000    2.80999994
   17.04583359   95.83489990    0.40000001    2.80999994
   17.04916573   90.10569763    0.40000001    2.80999994
   17.05249977   95.25710297    0.40000001    2.80999994
   17.05555534   98.49739838    0.40000001    2.80999994
   17.06166649   98.49739838    0.44000000    2.80999994
   17.06583214   94.80429840    0.44000000    2.82999992
   17.06916809   92.98300171    0.44000000    2.78999996
   17.07250023   95.99880219    0.44000000    2.82999992
   17.07555580   99.30930328    0.44000000    2.80999994
   17.07888985   91.72109985    0.44000000    2.80999994
   17.08194542   95.95120239    0.44000000    2.82999992
   17.08527756   96.93099976    0.44000000    2.80999994
   17.08861160   91.63430023    0.41999999    2.80999994
   17.09166718   91.27529907    0.44000000    2.80999994
   17.09416771   97.62059784    0.41999999    2.80999994
   17.09527779   95.57250214    0.41999999    2.80999994
   17.09861183   96.73899841    0.40000001    2.80999994
   17.10472298   96.73899841    0.40000001    2.80999994
   17.10888863   96.55229950    0.40000001    2.82999992
   17.11194420   94.97560120    0.40000001    2.80999994
   17.11527824   90.08260345    0.40000001    2.80999994
   17.11833382   91.04889679    0.38000000    2.80999994
   17.12166595   98.74500275    0.38000000    2.78999996
   17.12500000   88.15390015    0.40000001    2.78999996
   17.12750053   88.84290314    0.38000000    2.80999994
   17.12833405   92.48619843    0.40000001    2.80999994
   17.13166618   93.65200043    0.40000001    2.80999994
   17.13500023   94.65550232    0.40000001    2.80999994
   17.13805580   94.62850189    0.40000001    2.82999992
   17.14138794   95.89140320    0.40000001    2.78999996
   17.14749908   95.89140320    0.40000001    2.80999994
   17.15166664  100.60500336    0.40000001    2.80999994
   17.15472221   94.72619629    0.40000001    2.80999994
   17.15805435   96.61990356    0.40000001    2.80999994
   17.16083336   91.57679749    0.40000001    2.80999994
   17.16166687   98.74559784    0.40000001    2.78999996
   17.16499901  101.82900238    0.40000001    2.80999994
   17.16833305  102.72100067    0.40000001    2.80999994
   17.17138863   99.33010101    0.40000001    2.80999994
   17.17472076   98.81549835    0.40000001    2.82999992
   17.17777634   98.67610168    0.40000001    2.80999994
   17.18111038   94.22519684    0.40000001    2.82999992
   17.18444443   98.79129791    0.40000001    2.69000006
   17.19027710   98.79129791    0.40000001    2.80999994
   17.19444275   95.32589722    0.40000001    2.80999994
   17.19777679   95.10649872    0.40000001    2.80999994
   17.20083427   93.40550232    0.40000001    2.80999994
   17.20416832   97.59950256    0.40000001    2.80999994
   17.20750046   94.14479828    0.41999999    2.80999994
   17.21055603  100.96099854    0.40000001    2.80999994
   17.21389008  101.41600037    0.40000001    2.80999994
   17.21722221   95.64839935    0.40000001    2.80999994
   17.22027779  102.69000244    0.40000001    2.80999994
   17.22361183  104.27300262    0.40000001    2.80999994
   17.22666740   97.47550201    0.40000001    2.78999996
   17.22750092   99.60649872    0.40000001    2.78999996
   17.23305511   99.60649872    0.40000001    2.80999994
   17.23722267   97.11489868    0.40000001    2.82999992
   17.24055672  102.94499969    0.40000001    2.80999994
   17.24388885  100.95300293    0.40000001    2.80999994
   17.24694443   96.57150269    0.41999999    2.80999994
   17.25027847  101.72399902    0.40000001    2.80999994
   17.25333405  100.39600372    0.40000001    2.80999994
   17.25666618   97.47070313    0.40000001    2.78999996
   17.26000023   92.36100006    0.40000001    2.80999994
   17.26083374   95.32939911    0.40000001    2.80999994
   17.26361084   96.00559998    0.40000001    2.78999996
   17.26666641   91.43650055    0.40000001    2.80999994
   17.27000046  100.29599762    0.38000000    2.80999994
   17.27611160  100.29599762    0.38000000    0.01000000
   17.28027725   96.42179871    0.38000000    2.80999994
   17.28333282   98.50990295    0.38000000    2.80999994
   17.28666687   94.47799683    0.38000000    2.80999994
   17.28972244   95.40499878    0.38000000    2.78999996
   17.29305458   96.69930267    0.38000000    2.78999996
   17.29416656   99.59190369    0.38000000    2.80999994
   17.29666710  103.78900146    0.38000000    2.80999994
   17.29999924   90.81860352    0.38000000    2.80999994
   17.30333328   97.42459869    0.38000000    2.80999994
   17.30638885  100.11699677    0.36000001    2.78999996
   17.30972099   99.03330231    0.36000001    2.78999996
   17.31277657   94.88860321    0.38000000    2.78999996
   17.31888962   94.88860321    0.36000001    2.78999996
   17.32305717   97.53559875    0.38000000    2.80999994
   17.32611275  101.69200134    0.38000000    2.80999994
   17.32750130   93.47360229    0.38000000    2.80999994
   17.32972336   98.94840240    0.38000000    2.80999994
   17.33305550  100.36900330    0.36000001    2.80999994
   17.33638954   97.01480103    0.38000000    2.82999992
   17.33944511   98.59279633    0.36000001    2.80999994
   17.34277916   98.01609802    0.36000001    2.80999994
   17.34583473  101.31900024    0.34000000    2.78999996
   17.34916687  105.99500275    0.34000000    2.80999994
   17.35250092  106.30100250    0.34000000    2.80999994
   17.35555649   94.66089630    0.34000000    2.78999996
   17.36166763   94.66089630    0.34000000    2.80999994
   17.36583328   98.78340149    0.34000000    2.80999994
   17.36916733   97.21710205    0.34000000    2.78999996
   17.37222290   98.49220276    0.34000000    2.80999994
   17.37555504  100.12500000    0.34000000    2.78999996
   17.37861061   99.29920197    0.34000000    2.80999994
   17.38194466  100.07800293    0.34000000    2.80999994
   17.38527679   97.50260162    0.34000000    2.80999994
   17.38833237   99.05950165    0.34000000    2.78999996
   17.39166641   94.00099945    0.34000000    2.78999996
   17.39416695  103.60299683    0.34000000    2.78999996
   17.39527702  100.91500092    0.34000000    2.78999996
   17.39861107  100.18800354    0.36000001    2.80999994
   17.40444374  100.18800354    0.34000000    2.80999994
   17.40861130  102.22100067    0.34000000    2.80999994
   17.41194344  106.56700134    0.34000000    2.78999996
   17.41527748  100.32299805    0.36000001    2.80999994
   17.41833305  106.42800140    0.34000000    2.78999996
   17.42166519  109.30200195    0.34000000    2.78999996
   17.42472076  102.33999634    0.36000001    2.78999996
   17.42749977  106.80899811    0.34000000    2.78999996
   17.42833328  101.62599945    0.36000001    2.78999996
   17.43166542  101.53500366    0.36000001    2.80999994
   17.43499947  101.43099976    0.36000001    2.80999994
   17.43833160  101.73799896    0.36000001    2.78999996
   17.44138718   98.26850128    0.38000000    2.78999996
   17.44749832   98.26850128    0.36000001    2.78999996
   17.45166779   99.63210297    0.38000000    2.82999992
   17.45472336   95.66049957    0.40000001    2.78999996
   17.45805550   95.16259766    0.38000000    2.80999994
   17.46083450   97.18840027    0.38000000    2.78999996
   17.46138954   99.84970093    0.38000000    2.78999996
   17.46472359   93.35859680    0.40000001    2.78999996
   17.46805573   98.72000122    0.38000000    2.78999996
   17.47111130   99.60549927    0.40000001    2.78999996
   17.47444534  102.11499786    0.40000001    2.78999996
   17.47777748   93.91439819    0.40000001    2.78999996
   17.48083305   97.81849670    0.40000001    2.78999996
   17.48416710  102.58499908    0.40000001    2.80999994
   17.49027824  102.58499908    0.40000001    2.78999996
   17.49444389   93.74479675    0.40000001    2.78999996
   17.49749947   98.46479797    0.40000001    2.78999996
   17.50083351   98.75189972    0.40000001    2.78999996
   17.50416756   96.03540039    0.40000001    2.80999994
   17.50722313   96.75180054    0.38000000    2.78999996
   17.51055527   96.46109772    0.40000001    2.78999996
   17.51388931   97.93659973    0.38000000    2.80999994
   17.51694489  101.72299957    0.38000000    2.78999996
   17.52027702  105.86499786    0.38000000    2.78999996
   17.52333260   97.67050171    0.36000001    2.78999996
   17.52666664  100.97299957    0.38000000    2.80999994
   17.52750015   99.03730011    0.38000000    2.80999994
   17.53305435   99.03730011    0.38000000    2.80999994
   17.53722191   99.99140167    0.38000000    2.82999992
   17.54055595   95.41799927    0.38000000    2.80999994
   17.54361153  101.40200043    0.36000001    2.78999996
   17.54694366  100.94799805    0.38000000    2.80999994
   17.55027771   96.70300293    0.38000000    2.80999994
   17.55333328   93.18789673    0.40000001    2.78999996
   17.55666542   97.86270142    0.40000001    2.78999996
   17.55972099   99.98229980    0.40000001    2.78999996
   17.56083298  101.76399994    0.40000001    2.78999996
   17.56361008  102.73400116    0.40000001    2.78999996
   17.56666756  100.55699921    0.40000001    2.78999996
   17.57000160   96.04650116    0.40000001    2.78999996
   17.57583427   96.04650116    0.38000000    2.78999996
   17.58000183  102.40699768    0.40000001    2.78999996
   17.58333397   95.27670288    0.40000001    2.78999996
   17.58666801  102.20700073    0.38000000    2.78999996
   17.58972359  101.03900146    0.38000000    2.78999996
   17.59305573   97.51480103    0.38000000    2.80999994
   17.59416771  106.03900146    0.38000000    2.78999996
   17.59666824  106.16100311    0.38000000    2.78999996
   17.59972191  100.98699951    0.38000000    2.78999996
   17.60305595   94.74520111    0.38000000    2.78999996
   17.60611153   97.42649841    0.40000001    2.78999996
   17.60944557   95.36309814    0.40000001    2.80999994
   17.61277771   98.46279907    0.40000001    2.78999996
   17.61888885   98.46279907    0.41999999    2.78999996
   17.62305641   99.29910278    0.40000001    2.78999996
   17.62611198   99.16239929    0.41999999    2.78999996
   17.62750053   98.45539856    0.40000001    2.78999996
   17.63000107  102.55999756    0.41999999    2.78999996
   17.63305473   98.02929688    0.41999999    2.78999996
   17.63638878   98.31250000    0.41999999    2.78999996
   17.63944435   95.40830231    0.41999999    2.78999996
   17.64277840   96.75509644    0.44000000    2.78999996
   17.64611053  100.74500275    0.44000000    2.78999996
   17.64916611  100.10800171    0.44000000    2.78999996
   17.65250015   94.82879639    0.44000000    2.80999994
   17.65555573   96.96369934    0.44000000    2.78999996
   17.66166687   96.96369934    0.44000000    2.78999996
   17.66583252   96.51889801    0.44000000    2.78999996
   17.66888809   99.88220215    0.44000000    2.78999996
   17.67222214  103.30599976    0.44000000    2.78999996
   17.67555428   99.29090118    0.44000000    2.78999996
   17.67860985  104.99700165    0.44000000    2.80999994
   17.68194389  100.08100128    0.44000000    2.80999994
   17.68527603  105.77200317    0.41999999    2.78999996
   17.68833160  101.85199738    0.44000000    2.78999996
   17.69166565   96.53720093    0.44000000    2.78999996
   17.69416618   96.29969788    0.44000000    2.78999996
   17.69527626   98.30419922    0.44000000    2.78999996
   17.69833183   99.88980103    0.44000000    2.78999996
   17.70444489   99.88980103    0.44000000    2.78999996
   17.70861244  101.12599945    0.41999999    2.78999996
   17.71194458   92.76239777    0.41999999    2.78999996
   17.71500015   95.89969635    0.41999999    2.80999994
   17.71833420   95.63339996    0.41999999    2.78999996
   17.72138977   96.39320374    0.44000000    2.78999996
   17.72472191   96.19349670    0.44000000    2.78999996
   17.72750092  101.33599854    0.44000000    2.78999996
   17.72861099  101.93299866    0.44000000    2.78999996
   17.73166656   95.59860229    0.41999999    2.78999996
   17.73500061  102.80500031    0.44000000    2.78999996
   17.73805618   97.37539673    0.41999999    2.78999996
   17.74138832  100.25800323    0.41999999    2.78999996
   17.74722290  100.25800323    0.41999999    2.78999996
   17.75138855   98.64579773    0.41999999    2.78999996
   17.75472260  101.85299683    0.41999999    2.78999996
   17.75805473  104.44499969    0.41999999    2.76999998
   17.76083374   97.97319794    0.44000000    2.78999996
   17.76166725   97.16490173    0.41999999    2.78999996
   17.76472282  101.24800110    0.41999999    2.78999996
   17.76805496   99.61609650    0.41999999    2.78999996
   17.77111053   97.41380310    0.40000001    2.78999996
   17.77444458   99.75489807    0.40000001    2.78999996
   17.77777672  104.63899994    0.40000001    2.78999996
   17.78083229   97.12039948    0.41999999    2.78999996
   17.78416634  101.42099762    0.40000001    2.78999996
   17.79027748  101.42099762    0.40000001    2.78999996
   17.79416656   94.18879700    0.40000001    2.78999996
   17.79749870   93.35140228    0.40000001    2.78999996
   17.80083275   96.80940247    0.41999999    2.78999996
   17.80388832   98.42680359    0.44000000    2.78999996
   17.80722237   92.38439941    0.44000000    2.78999996
   17.81055450   95.45269775    0.41999999    2.78999996
   17.81361008   90.87500000    0.41999999    2.80999994
   17.81694603   98.84850311    0.41999999    2.80999994
   17.82000160   99.11039734    0.41999999    2.80999994
   17.82333374   97.91960144    0.41999999    2.82999992
   17.82666779   93.50360107    0.44000000    0.07000000
   17.82750130   91.24810028    0.44000000    0.03000000
   17.83305550   91.24810028    0.44000000    0.01000000
   17.83722305   87.61440277    0.44000000    2.78999996
   17.84027863   88.80629730    0.44000000    2.78999996
   17.84361267   90.07440186    0.44000000    2.78999996
   17.86111069   88.50360107    0.44000000    2.78999996
   17.86361122   93.34079742    0.44000000    2.80999994
   17.86694527   89.61820221    0.44000000    2.78999996
   17.87000084   90.22730255    0.44000000    2.78999996
   17.87611198   90.22730255    0.46000001    2.80999994
   17.88027763   93.52249908    0.44000000    2.78999996
   17.88333321   94.88649750    0.46000001    2.78999996
   17.88666725   91.41210175    0.44000000    2.78999996
   17.88999939   93.69319916    0.44000000    2.80999994
   17.89305496   91.39320374    0.44000000    2.80999994
   17.89444351   85.65409851    0.44000000    2.80999994
   17.89694405   95.06809998    0.44000000    2.78999996
   17.89999962   90.13970184    0.44000000    2.80999994
   17.90333366   90.01869965    0.46000001    2.80999994
   17.90638924   91.92949677    0.44000000    2.78999996
   17.90972137   94.62270355    0.46000001    2.80999994
   17.91305542   89.67199707    0.44000000    2.78999996
   17.91888809   89.67199707    0.44000000    2.78999996
   17.92305565   91.96040344    0.44000000    2.78999996
   17.92611122   95.81369781    0.44000000    2.80999994
   17.92777634   93.84899902    0.44000000    2.78999996
   17.93000031   91.94090271    0.44000000    2.78999996
   17.93305397   94.22530365    0.44000000    2.78999996
   17.93638802   90.59110260    0.44000000    2.80999994
   17.93972206   96.57659912    0.44000000    2.78999996
   17.94305420   90.09159851    0.44000000    2.78999996
   17.94610977   86.12249756    0.44000000    2.80999994
   17.94944382   91.74349976    0.41999999    2.78999996
   17.95277786   94.89640045    0.44000000    2.78999996
   17.95583344   92.19450378    0.44000000    2.80999994
   17.96166801   92.19450378    0.44000000    2.78999996
   17.96583366   92.68209839    0.44000000    2.78999996
   17.96916771   89.88909912    0.44000000    2.78999996
   17.97222328   95.44239807    0.41999999    2.78999996
   17.97555542   93.18360138    0.41999999    2.78999996
   17.97888947   95.34069824    0.44000000    2.80999994
   17.98194504   95.99909973    0.44000000    2.78999996
   17.98527718   97.98069763    0.44000000    2.78999996
   17.98833275  108.71099854    0.44000000    2.80999994
   17.99166679   91.53389740    0.44000000    2.78999996
   17.99444389   97.33809662    0.44000000    2.78999996
   17.99555588   91.68659973    0.41999999    2.78999996
   17.99861145  101.94000244    0.44000000    2.78999996
   18.00444412  101.94000244    0.41999999    2.78999996
   18.00861168   99.34100342    0.41999999    2.78999996
   18.01194382   93.50440216    0.41999999    2.78999996
   18.01527786   94.74949646    0.41999999    2.78999996
   18.01833344   92.73159790    0.41999999    2.78999996
   18.02166557   93.19840240    0.41999999    2.78999996
   18.02472115   92.50499725    0.41999999    2.78999996
   18.02777672   89.57679749    0.41999999    2.76999998
   18.02861023   89.91280365    0.41999999    2.76999998
   18.03194427   92.65589905    0.41999999    2.78999996
   18.03499985   97.12280273    0.40000001    2.78999996
   18.03833199   86.94329834    0.41999999    2.78999996
   18.04138756   90.20539856    0.41999999    2.78999996
   18.04749870   90.20539856    0.41999999    2.78999996
   18.05166626   93.38140106    0.41999999    2.78999996
   18.05472183   93.04160309    0.41999999    2.78999996
   18.05805397   90.83309937    0.41999999    2.76999998
   18.06110954   88.97229767    0.41999999    2.78999996
   18.06166649  101.78700256    0.41999999    2.78999996
   18.06499863   89.98110199    0.41999999    2.78999996
   18.06805611   93.02790070    0.40000001    2.78999996
   18.07139015   90.05650330    0.41999999    2.78999996
   18.07472229   93.07890320    0.41999999    2.78999996
   18.07777786   94.39299774    0.41999999    2.80999994
   18.08111191   96.03510284    0.40000001    2.78999996
   18.08444595   93.11160278    0.41999999    2.78999996
   18.09027863   93.11160278    0.41999999    2.80999994
   18.09444427   93.26560211    0.41999999    2.78999996
   18.09500122   95.71800232    0.41999999    2.78999996
   18.09805679   88.14649963    0.41999999    2.78999996
   18.10138893   92.69689941    0.41999999    2.80999994
   18.10444450   93.89540100    0.41999999    2.78999996
   18.10777855   91.77529907    0.41999999    2.78999996
   18.11111069   86.02839661    0.41999999    2.78999996
   18.11416626   94.24410248    0.41999999    2.78999996
   18.11750031   97.77089691    0.41999999    2.78999996
   18.12083435   99.70790100    0.41999999    2.80999994
   18.12388992   89.20400238    0.41999999    2.78999996
   18.12722206   93.11569977    0.41999999    2.78999996
   18.12833405   99.19349670    0.41999999    2.78999996
   18.13305473   99.19349670    0.41999999    2.78999996
   18.13722229  100.04499817    0.41999999    2.78999996
   18.14055634   92.79810333    0.41999999    2.78999996
   18.14361191   97.74800110    0.41999999    2.78999996
   18.14694405   93.78320313    0.41999999    2.78999996
   18.14999962   93.16510010    0.41999999    2.78999996
   18.15333366   97.29540253    0.41999999    2.78999996
   18.15666580   90.95339966    0.41999999    2.78999996
   18.15972137   93.02140045    0.41999999    2.78999996
   18.16166687   95.64409637    0.41999999    2.78999996
   18.16333389   93.24179840    0.41999999    2.78999996
   18.16666603   87.92890167    0.41999999    2.78999996
   18.16972160   90.90350342    0.41999999    2.78999996
   18.17583275   90.90350342    0.41999999    2.76999998
   18.18000031   91.42790222    0.41999999    2.78999996
   18.18333244   89.46289825    0.41999999    2.78999996
   18.18666649   90.66829681    0.41999999    2.78999996
   18.18972206   92.13780212    0.41999999    2.78999996
   18.19305420   89.25969696    0.41999999    2.78999996
   18.19499969   94.17289734    0.41999999    2.80999994
   18.19666672   95.37640381    0.41999999    2.78999996
   18.20000076   90.20749664    0.41999999    2.78999996
   18.20333481   87.33290100    0.40000001    2.78999996
   18.20639038   93.85739899    0.40000001    2.78999996
   18.20972252   96.05419922    0.40000001    2.78999996
   18.21277809   99.55729675    0.40000001    2.78999996
   18.21888924   99.55729675    0.40000001    2.78999996
   18.22305679   91.93240356    0.38000000    2.78999996
   18.22611237   92.49659729    0.40000001    2.76999998
   18.22833443   91.29910278    0.40000001    2.76999998
   18.22972298   94.02829742    0.40000001    2.76999998
   18.23305511   90.57610321    0.40000001    2.78999996
   18.23638916   95.38439941    0.40000001    2.78999996
   18.23944473   92.25879669    0.40000001    2.76999998
   18.24277878  103.09300232    0.38000000    2.78999996
   18.24611092   94.66390228    0.38000000    2.78999996
   18.24916649   92.61340332    0.38000000    2.76999998
   18.25250053   92.55380249    0.38000000    2.78999996
   18.25555611   89.95610046    0.38000000    2.78999996
   18.26166725   89.95610046    0.38000000    2.78999996
   18.26583290   94.93430328    0.40000001    2.78999996
   18.26888847   94.91639709    0.38000000    2.78999996
   18.27222252   92.05419922    0.38000000    2.76999998
   18.27555466   95.49269867    0.38000000    2.76999998
   18.27861023   94.19170380    0.38000000    2.78999996
   18.28194427   88.80919647    0.40000001    2.78999996
   18.28527641   94.66549683    0.40000001    2.78999996
   18.28833199   93.52970123    0.40000001    2.78999996
   18.29166603   95.06050110    0.41999999    2.78999996
   18.29472160   88.29100037    0.41999999    2.78999996
   18.29527664   91.85579681    0.41999999    2.78999996
   18.29861069   92.58059692    0.40000001    2.78999996
   18.30444336   92.58059692    0.40000001    2.76999998
   18.30861092   94.58280182    0.40000001    2.78999996
   18.31194305   86.95159912    0.38000000    2.78999996
   18.31499863   96.17960358    0.38000000    2.78999996
   18.31833458   91.14029694    0.40000001    2.78999996
   18.32139015   91.79730225    0.40000001    2.76999998
   18.32472229   93.96579742    0.40000001    2.78999996
   18.32805634   90.57620239    0.40000001    2.76999998
   18.32861137   96.57640076    0.40000001    2.78999996
   18.33166695   95.23739624    0.38000000    2.78999996
   18.33500099   96.99939728    0.40000001    2.78999996
   18.33805656   91.32050323    0.40000001    2.76999998
   18.34138870   92.32409668    0.41999999    2.78999996
   18.34722328   92.32409668    0.40000001    2.76999998
   18.35138893   90.72109985    0.41999999    2.78999996
   18.35472298   88.09200287    0.41999999    2.78999996
   18.35777855   90.52079773    0.41999999    2.78999996
   18.36111069   97.24160004    0.40000001    2.76999998
   18.36194420   94.36309814    0.40000001    2.76999998
   18.36472321   96.93450165    0.40000001    2.76999998
   18.36805534   89.69789886    0.41999999    2.78999996
   18.37111092   90.63439941    0.41999999    2.76999998
   18.37444496   92.73130035    0.41999999    2.78999996
   18.37777710  100.43599701    0.40000001    2.78999996
   18.38083267   92.66139984    0.40000001    2.78999996
   18.38416672   87.81490326    0.41999999    2.78999996
   18.39027786   87.81490326    0.41999999    2.78999996
   18.39416695   96.87139893    0.41999999    2.78999996
   18.39527702   94.75879669    0.44000000    2.78999996
   18.39777756   90.30059814    0.44000000    2.78999996
   18.40111160   92.92259979    0.44000000    2.78999996
   18.40416718   91.36560059    0.44000000    2.76999998
   18.40749931   95.08869934    0.44000000    2.76999998
   18.41083336   99.54019928    0.44000000    2.76999998
   18.41388893   93.89230347    0.46000001    2.76999998
   18.41722107   94.28269958    0.46000001    2.76999998
   18.42027664   96.66629791    0.44000000    2.78999996
   18.42361069   99.84390259    0.44000000    2.76999998
   18.42694473   96.83059692    0.44000000    2.78999996
   18.42860985   93.63559723    0.41999999    2.76999998
   18.43305397   93.63559723    0.44000000    2.78999996
   18.43722153   96.56680298    0.41999999    2.76999998
   18.44027710   93.08860016    0.41999999    2.78999996
   18.44361115   91.91169739    0.44000000    2.78999996
   18.44694328   99.77709961    0.44000000    2.78999996
   18.45000076   93.65239716    0.46000001    2.76999998
   18.45333481   92.26470184    0.46000001    2.76999998
   18.45666695   95.63790131    0.46000001    2.76999998
   18.45972252   88.91100311    0.46000001    2.76999998
   18.46194458   91.28299713    0.46000001    2.76999998
   18.46333504   91.79090118    0.46000001    2.76999998
   18.46666718  101.01899719    0.46000001    2.76999998
   18.46972275   97.21920013    0.46000001    2.76999998
   18.47583389   97.21920013    0.50000000    2.76999998
   18.48000145   92.83219910    0.52999997    2.76999998
   18.48333359   93.58959961    0.56999999    2.76999998
   18.48638916   91.40560150    0.56999999    2.76999998
   18.48972321   94.47959900    0.56999999    2.76999998
   18.49277878   94.00420380    0.56999999    2.76999998
   18.49527740   93.67539978    0.56999999    2.76999998
   18.49638939   95.61350250    0.56999999    2.76999998
   18.49972153   97.14360046    0.56999999    2.76999998
   18.50277710   91.16819763    0.56999999    2.76999998
   18.50611115   88.49500275    0.56999999    2.76999998
   18.50944519   88.79340363    0.61000001    2.76999998
   18.51250076   93.55870056    0.61000001    2.76999998
   18.51861000   93.55870056    0.58999997    2.76999998
   18.52277756   93.38210297    0.56999999    2.76999998
   18.52611160   95.76450348    0.56999999    2.76999998
   18.52861023   94.46900177    0.52999997    2.76999998
   18.52972221  100.87300110    0.52999997    2.76999998
   18.53305435   92.29100037    0.52999997    2.76999998
   18.53610992   94.98030090    0.52999997    2.76999998
   18.53944397   93.57450104    0.51999998    2.76999998
   18.54277802   91.81999969    0.51999998    2.76999998
   18.54583359   95.44360352    0.51999998    2.76999998
   18.54916573   96.56120300    0.51999998    2.76999998
   18.55249977   91.03980255    0.51999998    2.76999998
   18.55555534   96.40470123    0.52999997    2.76999998
   18.56166649   96.40470123    0.52999997    2.76999998
   18.56555557   98.87940216    0.51999998    2.76999998
   18.56888962   93.89050293    0.51999998    2.76999998
   18.57222366   94.24729919    0.51999998    2.76999998
   18.57527924   91.42089844    0.51999998    2.76999998
   18.57861137   89.84889984    0.50000000    2.76999998
   18.58194542   97.24109650    0.50000000    2.76999998
   18.58500099   93.86299896    0.50000000    2.76999998
   18.58833313   89.22319794    0.47999999    2.76999998
   18.59138870   91.70020294    0.47999999    2.76999998
   18.59472275   97.83950043    0.46000001    2.76999998
   18.59666824   96.70580292    0.47999999    2.76999998
   18.59861183   95.51180267    0.46000001    2.76999998
   18.60444450   95.51180267    0.44000000    2.76999998
   18.60861206   97.68579865    0.44000000    2.76999998
   18.61166763   93.02570343    0.41999999    2.76999998
   18.61499977  102.80000305    0.41999999    2.76999998
   18.61833382   96.59770203    0.41999999    2.76999998
   18.62138939   92.17669678    0.41999999    2.76999998
   18.62472153   99.88860321    0.41999999    2.76999998
   18.62777710   96.02249908    0.41999999    2.76999998
   18.63000107   96.79470062    0.41999999    2.76999998
   18.63138962   95.54119873    0.41999999    2.76999998
   18.63472176   96.26999664    0.40000001    2.76999998
   18.63805580   96.38639832    0.41999999    2.75000000
   18.64111137   95.42209625    0.40000001    2.76999998
   18.64722252   95.42209625    0.40000001    2.76999998
   18.65138817   95.63420105    0.38000000    2.76999998
   18.65472221   94.06140137    0.40000001    2.76999998
   18.65777779   91.11609650    0.40000001    2.76999998
   18.66110992   91.69619751    0.40000001    2.76999998
   18.66361046   99.19550323    0.40000001    2.76999998
   18.66472244   98.05519867    0.40000001    2.76999998
   18.66805458   97.27850342    0.40000001    2.76999998
   18.67111015   94.95610046    0.40000001    2.75000000
   18.67444420   93.46150208    0.38000000    2.76999998
   18.67777634   96.35299683    0.38000000    2.75000000
   18.68083191   95.25779724    0.38000000    2.76999998
   18.68416595   97.12319946    0.40000001    2.76999998
   18.68999863   97.12319946    0.40000001    2.76999998
   18.69416618   95.52459717    0.40000001    2.76999998
   18.69694328   96.47650146    0.38000000    2.76999998
   18.69777679   93.72720337    0.40000001    2.76999998
   18.70111275   95.75170135    0.40000001    2.76999998
   18.70416832   92.33000183    0.40000001    2.76999998
   18.70750046   94.04949951    0.38000000    2.76999998
   18.71083450   94.42510223    0.40000001    2.75000000
   18.71389008   96.52890015    0.40000001    2.76999998
   18.71722221   93.57350159    0.40000001    2.76999998
   18.72027779   92.92549896    0.40000001    2.76999998
   18.72361183   96.03639984    0.40000001    2.76999998
   18.72694588  102.15599823    0.40000001    2.76999998
   18.73305511  102.15599823    0.40000001    2.76999998
   18.73694420   94.34179688    0.40000001    2.75000000
   18.74027824   97.50340271    0.41999999    2.76999998
   18.74361229   94.21009827    0.41999999    2.76999998
   18.74666786   94.50689697    0.41999999    2.76999998
   18.75000000   95.74549866    0.44000000    2.76999998
   18.75333405   93.61319733    0.41999999    2.76999998
   18.75638962   98.69969940    0.44000000    2.75000000
   18.75972176   98.24680328    0.44000000    2.76999998
   18.76277733   98.91100311    0.44000000    2.75000000
   18.76388931   93.96720123    0.44000000    2.75000000
   18.76638794   97.22949982    0.44000000    2.76999998
   18.76972198   96.45469666    0.44000000    2.76999998
   18.77583313   96.45469666    0.46000001    2.76999998
   18.78000069   93.62680054    0.46000001    2.76999998
   18.78305435   94.31639862    0.46000001    2.76999998
   18.78638840   97.98329926    0.44000000    2.73000002
   18.78972244   96.59629822    0.46000001    2.75000000
   18.79277802   96.73329926    0.44000000    2.76999998
   18.79611015   95.50939941    0.44000000    2.75000000
   18.79722214   94.02269745    0.44000000    2.76999998
   18.79972076   99.10569763    0.44000000    2.75000000
   18.80305481   95.90299988    0.44000000    2.75000000
   18.80638885  100.68099976    0.44000000    2.76999998
   18.80944443   97.79129791    0.46000001    2.76999998
   18.81277657   97.69409943    0.44000000    2.76999998
   18.81861115   97.69409943    0.44000000    2.75000000
   18.82277870   94.78389740    0.46000001    2.75000000
   18.82611275   93.12599945    0.47999999    2.73000002
   18.82916832   95.35230255    0.47999999    2.75000000
   18.83083344   95.09040070    0.50000000    2.75000000
   18.83277893   90.67939758    0.51999998    2.75000000
   18.83611107   94.74680328    0.51999998    2.75000000
   18.83916664  102.24500275    0.55000001    2.75000000
   18.84250069   98.34760284    0.55000001    2.75000000
   18.84583473   97.15550232    0.56999999    2.75000000
   18.84889030   98.26869965    0.56999999    2.76999998
   18.85222244   97.58360291    0.58999997    2.76999998
   18.85555649  105.14800262    0.58999997    2.75000000
   18.86138916  105.14800262    0.58999997    2.73000002
   18.88000107   96.17379761    0.58999997    2.75000000
   18.88305473   93.20240021    0.58999997    2.75000000
   18.88638878   95.23819733    0.56999999    2.75000000
   18.88972282   99.96790314    0.58999997    2.75000000
   18.89277840   96.56359863    0.56999999    2.75000000
   18.89611053   98.38449860    0.56999999    2.73000002
   18.89916611   97.44889832    0.55000001    2.75000000
   18.90444374   97.44889832    0.55000001    2.75000000
   18.90861130   98.03440094    0.52999997    2.75000000
   18.91194344   99.01840210    0.52999997    2.75000000
   18.91305542   91.53250122    0.52999997    2.75000000
   18.91555595   94.49179840    0.51999998    2.75000000
   18.91888809   95.96659851    0.51999998    2.75000000
   18.92194366   95.79750061    0.52999997    2.75000000
   18.92527771   98.96530151    0.52999997    2.75000000
   18.92860985   93.21350098    0.52999997    2.75000000
   18.93166542   94.80120087    0.52999997    2.73000002
   18.93499947   95.91549683    0.52999997    2.75000000
   18.93833160   98.01799774    0.52999997    2.75000000
   18.94138718   93.46749878    0.52999997    2.73000002
   18.94749832   93.46749878    0.52999997    2.73000002
   18.95166779   97.37550354    0.55000001    2.73000002
   18.95472336   96.29660034    0.55000001    2.75000000
   18.95805550   96.68199921    0.55000001    2.73000002
   18.96111107   94.14350128    0.55000001    2.75000000
   18.96444511   97.99659729    0.56999999    2.73000002
   18.96777916   97.46549988    0.56999999    2.73000002
   18.97083473   95.36519623    0.56999999    2.73000002
   18.97416687   96.46340179    0.56999999    2.73000002
   18.97750092  104.42199707    0.56999999    2.73000002
   18.97972298   97.53289795    0.56999999    2.75000000
   18.98083305   87.79039764    0.56999999    2.75000000
   18.98416710   97.35449982    0.56999999    2.75000000
   18.99027824   97.35449982    0.56999999    2.73000002
   18.99444389   94.79669952    0.56999999    2.73000002
   18.99777794   98.32109833    0.56999999    2.73000002
   19.00083351   94.84500122    0.56999999    2.75000000
   19.00416756  100.87000275    0.56999999    2.75000000
   19.00722313   94.73120117    0.56999999    2.75000000
   19.01055527   93.40650177    0.56999999    2.75000000
   19.01305580   96.05680084    0.56999999    2.73000002
   19.01416588  104.30300140    0.56999999    2.73000002
   19.01749992  100.83000183    0.56999999    2.75000000
   19.02055550   97.47820282    0.56999999    2.75000000
   19.02388954  100.63099670    0.56999999    2.73000002
   19.02722168   95.98320007    0.56999999    2.73000002
   19.03305435   95.98320007    0.58999997    2.75000000
   19.03722191  103.73600006    0.56999999    2.75000000
   19.04055595   95.95819855    0.56999999    2.75000000
   19.04361153   97.18560028    0.56999999    2.73000002
   19.04638863  101.29599762    0.55000001    2.73000002
   19.04722214   95.58080292    0.56999999    2.76999998
   19.05055428   98.63150024    0.55000001    2.73000002
   19.05388832   98.81430054    0.55000001    2.73000002
   19.05694389   98.71080017    0.55000001    2.75000000
   19.06027794  102.91799927    0.55000001    2.75000000
   19.06333351   92.58409882    0.55000001    2.75000000
   19.06666756   95.86540222    0.55000001    2.75000000
   19.07000160   92.43589783    0.55000001    2.75000000
   19.07583427   92.43589783    0.55000001    2.75000000
   19.08000183   91.65720367    0.55000001    2.75000000
   19.08333397   97.42199707    0.55000001    2.73000002
   19.08666801   91.46640015    0.58999997    2.75000000
   19.08972359   94.75080109    0.58999997    2.73000002
   19.09305573   90.48860168    0.58999997    2.75000000
   19.09611130   96.56529999    0.61000001    2.75000000
   19.09944534  100.09799957    0.58999997    2.73000002
   19.10277748  101.84600067    0.61000001    2.75000000
   19.10583305   98.34690094    0.61000001    2.75000000
   19.10916710   93.21250153    0.58999997    2.75000000
   19.11250114   94.83820343    0.58999997    2.73000002
   19.11305618   94.61519623    0.58999997    2.73000002
   19.11888885   94.61519623    0.56999999    2.73000002
   19.12305641   96.17880249    0.56999999    2.73000002
   19.12611198   94.37699890    0.56999999    2.73000002
   19.12944412   95.18260193    0.56999999    2.73000002
   19.13277817   90.86260223    0.56999999    2.73000002
   19.13583374   92.49520111    0.56999999    2.75000000
   19.13916588   95.73709869    0.55000001    2.73000002
   19.14249992   93.94539642    0.55000001    2.75000000
   19.14555550   92.18329620    0.56999999    2.73000002
   19.14638901   92.32250214    0.56999999    2.73000002
   19.14916611   87.94470215    0.55000001    2.73000002
   19.15250015   91.81040192    0.56999999    2.71000004
   19.15555573   94.33450317    0.56999999    2.73000002
   19.16166687   94.33450317    0.58999997    2.71000004
   19.16583252   88.04409790    0.61000001    2.73000002
   19.16888809   89.71929932    0.56999999    2.73000002
   19.17222214   92.04949951    0.55000001    2.73000002
   19.17555428   91.82170105    0.56999999    2.73000002
   19.17860985   92.74870300    0.56999999    2.73000002
   19.17972183   93.82910156    0.56999999    2.73000002
   19.18222237   94.53099823    0.55000001    2.73000002
   19.18555450   95.37519836    0.55000001    2.73000002
   19.18888855   88.07520294    0.55000001    2.73000002
   19.19194412   96.13259888    0.55000001    2.73000002
   19.19527626   93.32869720    0.55000001    2.73000002
   19.19833183   91.68520355    0.55000001    2.73000002
   19.20444489   91.68520355    0.55000001    2.73000002
   19.20861244   92.92120361    0.52999997    2.73000002
   19.21194458   90.84020233    0.52999997    2.73000002
   19.21305656   90.10800171    0.52999997    2.73000002
   19.21527863   93.94719696    0.52999997    2.73000002
   19.21861076   95.83889771    0.55000001    2.73000002
   19.22194481   94.49559784    0.52999997    2.73000002
   19.22500038   92.03929901    0.55000001    2.71000004
   19.22833443   91.89579773    0.55000001    2.73000002
   19.23139000   97.62509918    0.55000001    2.73000002
   19.23472214   87.13059998    0.55000001    2.73000002
   19.23805618   93.47750092    0.55000001    2.71000004
   19.24111176   89.35500336    0.55000001    2.73000002
   19.24749947   89.35500336    0.55000001    2.73000002
   19.25138855   91.91549683    0.55000001    2.73000002
   19.25472260   92.70680237    0.55000001    2.73000002
   19.25805473   97.29489899    0.55000001    2.73000002
   19.26111031   92.66750336    0.55000001    2.71000004
   19.26444435   94.73020172    0.56999999    2.71000004
   19.26749992   93.06580353    0.56999999    2.71000004
   19.27083397   91.13760376    0.55000001    2.73000002
   19.27416611   92.94879913    0.56999999    2.73000002
   19.27722168   86.23439789    0.56999999    2.73000002
   19.27972221   86.59320068    0.56999999    2.71000004
   19.28083229   92.99690247    0.61000001    2.71000004
   19.28416634   90.20339966    0.61000001    2.73000002
   19.29027748   90.20339966    0.56999999    2.73000002
   19.29444313   94.40110016    0.55000001    2.73000002
   19.29749870   90.90920258    0.52999997    2.71000004
   19.30083275   99.43720245    0.51999998    2.71000004
   19.30388832   87.84539795    0.51999998    2.71000004
   19.30722237   93.33399963    0.50000000    2.73000002
   19.31055450   94.20639801    0.50000000    2.71000004
   19.31305504   93.18109894    0.51999998    2.73000002
   19.31388855   95.40019989    0.51999998    2.71000004
   19.31722260   96.89289856    0.52999997    2.71000004
   19.32055664   93.67710114    0.52999997    2.71000004
   19.32361221   97.11540222    0.51999998    2.71000004
   19.32694626   96.27480316    0.47999999    2.73000002
   19.33305550   96.27480316    0.47999999    2.73000002
   19.33722305   97.34059906    0.47999999    2.73000002
   19.34055710   92.83290100    0.47999999    2.71000004
   19.34361267   97.06250000    0.47999999    2.71000004
   19.34638977   93.00620270    0.47999999    2.71000004
   19.34722328  101.54199982    0.47999999    2.71000004
   19.35083389   98.73370361    0.47999999    2.71000004
   19.35388947   98.81809998    0.47999999    2.71000004
   19.35722351   95.24019623    0.47999999    2.73000002
   19.36027908   98.23590088    0.47999999    2.71000004
   19.36361122   96.11550140    0.47999999    2.71000004
   19.36694527   94.55729675    0.47999999    2.71000004
   19.37000084   97.51599884    0.47999999    2.71000004
   19.37583351   97.51599884    0.47999999    2.71000004
   19.38000107   91.99269867    0.50000000    2.71000004
   19.38333321   95.81629944    0.50000000    2.71000004
   19.38638878   92.47889709    0.51999998    2.71000004
   19.38972282   90.75849915    0.52999997    2.71000004
   19.39305496   89.19539642    0.52999997    2.73000002
   19.39611053   93.80660248    0.55000001    2.71000004
   19.39944458   95.98780060    0.52999997    2.71000004
   19.40277672   97.12770081    0.52999997    2.71000004
   19.40583229   96.40480042    0.52999997    2.69000006
   19.40916634  102.51399994    0.51999998    2.71000004
   19.41222191   96.42030334    0.51999998    2.71000004
   19.41305542  101.11199951    0.51999998    2.71000004
   19.41860962  101.11199951    0.51999998    2.71000004
   19.42277718   99.00839996    0.51999998    2.71000004
   19.42611122   94.86869812    0.51999998    2.71000004
   19.42944336  101.54399872    0.51999998    2.73000002
   19.43249893   97.16649628    0.51999998    2.71000004
   19.43583298   95.33799744    0.52999997    2.71000004
   19.43888855  101.54499817    0.52999997    2.71000004
   19.44222069  102.87799835    0.52999997    2.71000004
   19.44555473   93.62809753    0.52999997    2.71000004
   19.44638824   99.11900330    0.52999997    2.71000004
   19.44888878   95.57879639    0.51999998    2.71000004
   19.45222282   92.14350128    0.51999998    2.71000004
   19.45555687   91.32540131    0.50000000    2.69000006
   19.46166801   91.32540131    0.50000000    2.71000004
   19.46583366   94.80059814    0.50000000    2.71000004
   19.46888924   99.77749634    0.50000000    2.71000004
   19.47222328  100.61000061    0.50000000    2.71000004
   19.47527885   95.95610046    0.50000000    2.71000004
   19.47861099   95.85070038    0.50000000    2.71000004
   19.47972298   94.42019653    0.50000000    2.71000004
   19.48222351   96.00019836    0.50000000    2.69000006
   19.48555565   93.97669983    0.50000000    2.69000006
   19.48888969   98.80970001    0.50000000    2.69000006
   19.49194527   94.03209686    0.50000000    2.69000006
   19.49527740   92.65160370    0.50000000    2.71000004
   19.49861145   96.37609863    0.50000000    2.71000004
   19.50444412   96.37609863    0.51999998    2.69000006
   19.50861168  107.84600067    0.51999998    2.71000004
   19.51166725   95.18879700    0.50000000    2.71000004
   19.51305580   96.27030182    0.50000000    2.71000004
   19.51527786   96.59140015    0.50000000    2.71000004
   19.51861000   92.53679657    0.51999998    2.71000004
   19.52194405   95.09700012    0.50000000    2.69000006
   19.52499962   95.85070038    0.51999998    2.69000006
   19.52833366   98.16439819    0.76999998    2.69000006
   19.53166580   96.06629944    0.98000002    2.69000006
   19.53472137   93.42199707    1.83000004    2.67000008
   19.53805542   96.25610352    1.80999994    2.69000006
   19.54111099   99.36280060    1.07000005    2.69000006
   19.54722214   99.36280060    0.86000001    2.69000006
   19.55138779  100.67600250    0.69000000    2.69000006
   19.55472183   90.94539642    0.56999999    2.71000004
   19.55777740   90.46990204    0.51999998    2.69000006
   19.56110954  103.03700256    0.51999998    2.69000006
   19.56444359   97.78150177    0.52999997    2.69000006
   19.56777954   94.41069794    0.52999997    2.69000006
   19.57083511  102.62100220    0.52999997    2.69000006
   19.57416725   93.76429749    0.52999997    2.69000006
   19.57750130   95.43669891    0.61000001    2.69000006
   19.57972336  102.04299927    0.64999998    2.69000006
   19.58111191  100.15399933    0.64999998    2.69000006
   19.58444595  100.49400330    0.95999998    2.69000006
   19.59000015  100.49400330    2.30999994    2.66000009
   19.59416771   94.35459900    2.39000010    2.61999989
   19.59749985   92.41459656    2.32999992    2.71000004
   19.60083389   98.35109711    1.14999998    2.69000006
   19.60388947   95.61029816    0.92000002    2.69000006
   19.60722351  100.30200195    0.83999997    2.71000004
   19.61027908  101.33899689    2.46000004    2.64000010
   19.61305618   95.86920166    3.32999992    2.64000010
   19.61388969   95.99800110    3.59999990    2.66000009
   19.61722183   99.92479706    3.43000007    2.69000006
   19.62055588   96.25509644    3.66000009    2.73000002
   19.62361145   87.42759705    3.45000005    2.67000008
   19.62694550   99.86090088    4.01999998    2.57999992
   19.63305473   99.86090088    0.64999998    2.69000006
   19.63722229   99.37439728    0.61000001    2.69000006
   19.64027786   92.42320251    0.63000000    2.69000006
   19.64361191  101.12899780    0.88000000    2.69000006
   19.64638901  102.27200317    0.80000001    2.71000004
   19.64694405  100.58699799    0.80000001    2.69000006
   19.65027809   97.99130249    0.79000002    2.67000008
   19.65361023   97.35849762    0.69000000    2.69000006
   19.65666580   96.74030304    0.67000002    2.71000004
   19.65999985   99.93669891    0.76999998    2.67000008
   19.66333389   97.86750031    0.79000002    2.69000006
   19.66638756   93.48739624    0.81999999    2.69000006
   19.66972160  100.43399811    0.95999998    2.66000009
   19.67583275  100.43399811    0.94000000    2.67000008
   19.68000031   94.57579803    0.95999998    2.67000008
   19.68333244   93.18959808    1.09000003    2.69000006
   19.68638802  103.51000214    3.34999990    2.64000010
   19.68972206   93.97450256    3.34999990    2.51999998
   19.69277763  103.43900299    2.84999990    2.55999994
   19.69610977   97.47899628    1.50000000    2.67000008
   19.69944382  100.55200195    1.11000001    2.66000009
   19.70250130  106.51100159    1.01999998    2.59999990
   19.70583344   98.48690033    1.03999996    2.67000008
   19.70916748  101.14299774    1.14999998    2.67000008
   19.71222305  100.77999878    1.19000006    2.67000008
   19.71305656   94.41149902    1.21000004    2.67000008
   19.71861076   94.41149902    1.38000000    2.67000008
   19.72277832  101.81900024    1.38000000    2.67000008
   19.72611237   95.19370270    1.26999998    2.69000006
   19.72916794   95.11879730    0.92000002    2.69000006
   19.73250008  105.80200195    0.63000000    2.69000006
   19.73583412   98.36139679    0.75000000    2.69000006
   19.73888969   95.00460052    1.28999996    2.67000008
   19.74222183   98.45420074    1.89999998    2.61999989
   19.74555588  103.99500275    2.50000000    2.59999990
   19.74638939   94.50569916    2.50000000    2.59999990
   19.74916649   98.31369781    2.36999989    2.67000008
   19.75222206   93.09089661    0.94000000    2.69000006
   19.75555611  106.02200317    1.03999996    2.67000008
   19.76138878  106.02200317    1.83000004    2.64000010
   19.76555634   94.14299774    1.61000001    2.66000009
   19.76888847   99.17800140    1.16999996    2.66000009
   19.77222252   95.79599762    1.09000003    2.67000008
   19.77527809   99.11229706    0.67000002    2.67000008
   19.77861023  103.99800110    0.69000000    2.67000008
   19.77972221  101.13500214    0.73000002    2.67000008
   19.78222275  104.20099640    0.94000000    2.67000008
   19.78527641  101.02100372    1.03999996    2.66000009
   19.78861046  107.94400024    2.32999992    2.67000008
   19.79166603   99.30400085    4.23999977    2.50000000
   19.79500008   98.70539856    3.39000010    2.67000008
   19.79833221  101.37999725    1.88000000    2.67000008
   19.80444336  101.37999725    1.13000000    2.67000008
   19.80861092  100.01200104    1.51999998    2.67000008
   19.81166649   95.07810211    2.26999998    2.67000008
   19.81305504   96.09619904    2.57999992    2.66000009
   19.81555557  103.82599640    3.43000007    2.66000009
   19.81861115   97.00150299    4.90999985    2.57999992
   19.82194519  101.25800323    4.90999985    2.55999994
   19.82500076  100.49199677    4.90999985    2.61999989
   19.82833481   97.30860138    4.90999985    2.64000010
   19.83166695  101.08200073    4.90999985    2.66000009
   19.83472252  111.77300262    4.90999985    2.51999998
   19.83805656  141.37699890    4.90999985    2.21000004
   19.84138870   -1.00000000    4.90999985    2.01999998
   19.84722328   -1.00000000    4.90999985    1.94000006
   19.85138893  115.40599823    4.90999985    2.44000006
   19.85444450  116.54900360    4.90999985    2.53999996
   19.85777855  105.45700073    4.61999989    2.67000008
   19.86111069  111.01899719    4.90999985    2.59999990
   19.86416626  137.00000000    4.90999985    2.55999994
   19.86750031   -1.00000000    4.90999985    1.73000002
   19.87083435   -1.00000000    4.90999985    1.36000001
   19.87388992   -1.00000000    4.90999985    1.76999998
   19.87722206  275.42898560    4.90999985    1.88000000
   19.87972260  144.21699524    4.90999985    1.98000002
   19.90027809  144.21699524    4.90999985    2.51999998
   19.90444374  152.86799622    4.90999985    2.17000008
   19.90777779   65.52339935    4.90999985    2.01999998
   19.91083336  128.04600525    4.90999985    2.13000011
   19.91305542  164.91200256    4.90999985    2.25000000
   19.91472244  103.22399902    4.90999985    2.19000006
   19.91777802  120.25700378    4.90999985    2.64000010
   19.92111015  107.78800201    4.90999985    2.64000010
   19.92444420  129.82200623    4.90999985    1.91999996
   19.92749977   -1.00000000    4.90999985    1.71000004
   19.93083191   87.97910309    4.90999985    1.89999998
   19.93416595   99.89459991    4.90999985    2.19000006
   19.93722153  102.09400177    4.90999985    2.67000008
   19.94305420  102.09400177    4.90999985    2.48000002
   19.94722176  115.92600250    4.90999985    2.09999990
   19.95055580  106.83100128    4.90999985    2.42000008
   19.95361137   98.87729645    4.90999985    2.53999996
   19.95694542  105.28399658    4.90999985    2.57999992
   19.96027946  124.87799835    4.90999985    2.46000004
   19.96333504   23.57019997    4.90999985    1.09000003
   19.96666718   -1.00000000    4.90999985    1.36000001
   19.96972275   -1.00000000    4.90999985    1.21000004
   19.97305679   -1.00000000    4.90999985    1.66999996
   19.97638893   -1.00000000    4.90999985    1.61000001
   19.97944450   -1.00000000    4.90999985    1.60000002
   19.98999977   -1.00000000    4.90999985    1.30999994
   19.99333382   -1.00000000    4.90999985    1.01999998
   19.99638939   -1.00000000    4.90999985    0.98000002
   19.99972153   91.24220276    4.90999985    1.09000003
   20.00277710   -1.00000000    4.90999985    1.36000001
   20.00611115   -1.00000000    4.90999985    1.01999998
   20.00944519  123.87000275    4.90999985    1.14999998
   20.01250076   -1.00000000    4.90999985    1.51999998
   20.01611137   -1.00000000    4.90999985    0.50000000
   20.01916695   -1.00000000    4.90999985    0.44000000
   20.02249908   -1.00000000    4.90999985    0.70999998
   20.02888870   -1.00000000    4.90999985    1.76999998
   20.03277779  101.46800232    4.90999985    2.66000009
   20.03610992   96.87449646    4.90999985    2.67000008
   20.03944397  124.27999878    4.90999985    2.59999990
   20.04249954  115.47699738    4.90999985    1.75000000
   20.04583359   -1.00000000    4.90999985    1.63000000
   20.04666710  141.19900513    4.90999985    1.50000000
   20.04944420   98.88690186    4.90999985    2.50000000
   20.05277634   95.56400299    4.90999985    2.64000010
   20.05583191   93.99379730    3.45000005    2.61999989
   20.05916595  105.63800049    2.39000010    2.57999992
   20.06222153  103.02799988    2.67000008    2.59999990
   20.06555557  100.54399872    3.48000002    2.61999989
   20.07166672  100.54399872    4.11999989    2.61999989
   20.07583427  100.54699707    3.93000007    2.61999989
   20.07888985   97.06860352    3.72000003    2.61999989
   20.08000183  103.06199646    3.53999996    2.61999989
   20.08250046   97.92960358    3.01999998    2.61999989
   20.08583450  106.52999878    1.86000001    2.61999989
   20.08889008  100.63200378    1.96000004    2.66000009
   20.09222221  104.87100220    2.03999996    2.66000009
   20.09527779   98.32640076    2.03999996    2.66000009
   20.09861183   99.88990021    2.36999989    2.64000010
   20.10194397  102.08000183    1.89999998    2.66000009
   20.10499954  106.42299652    1.51999998    2.66000009
   20.10833359  108.35399628    1.83000004    2.66000009
   20.11444473  108.35399628    4.90999985    2.64000010
   20.11861038  182.66499329    4.90999985    2.42000008
   20.12194443  128.25799561    4.90999985    2.01999998
   20.12500000   -1.00000000    4.90999985    1.83000004
   20.12833405   -1.00000000    4.90999985    1.64999998
   20.13138962   -1.00000000    4.90999985    1.11000001
   20.13472176   -1.00000000    4.90999985    0.80000001
   20.13805580   -1.00000000    4.90999985    0.47999999
   20.14111137   -1.00000000    4.90999985    0.51999998
   20.14444351   -1.00000000    4.90999985    0.36000001
   20.14805603   -1.00000000    4.90999985    0.55000001
   20.15111160   -1.00000000    4.90999985    0.56999999
   20.15722275   -1.00000000    4.90999985    1.96000004
   20.16138840  171.40699768    4.90999985    2.40000010
   20.16472244  171.65600586    4.90999985    2.03999996
   20.16805458  147.34800720    4.90999985    2.28999996
   20.17111015  135.57099915    4.90999985    2.53999996
   20.17444420  210.06599426    3.91000009    2.66000009
   20.17805481   -1.00000000    4.90999985    2.26999998
   20.18166542   -1.00000000    4.90999985    2.03999996
   20.18472099   -1.00000000    4.90999985    2.00000000
   20.18805504   -1.00000000    4.90999985    1.34000003
