    HOUR (UT)   FLARE FACTOR    SKY TESTER    SUN TESTER
   11.69527817   -1.00000000   -1.00000000   -1.00000000
   11.72388840  124.33599854    4.86999989    1.85000002
   11.72722149  135.13099670    4.86999989    1.86000001
   11.73027706  116.06300354    4.84999990    1.85000002
   11.73361111  134.75500488    4.82999992    1.86000001
   11.73694515  129.81599426    4.82999992    1.86000001
   11.74000072  117.59200287    4.82999992    1.86000001
   11.74416733  117.59200287    4.80999994    1.86000001
   11.74833393  119.90000153    4.80999994    1.86000001
   11.75166702  127.32599640    4.80000019    1.86000001
   11.75472260  133.91400146    4.80000019    1.88000000
   11.75722218  140.63900757    4.78000021    1.88000000
   11.75833321  137.89399719    4.78000021    1.88000000
   11.76166630  132.81599426    4.76000023    1.88000000
   11.76500034  141.27000427    4.76000023    1.88000000
   11.76805496  133.90699768    4.76000023    1.88000000
   11.77138901  127.46600342    4.73999977    1.88000000
   11.77472210  130.16299438    4.73999977    1.89999998
   11.77777767  121.70200348    4.71999979    1.89999998
   11.78111076  131.40199280    4.71999979    1.89999998
   11.78694534  131.40199280    4.69999981    1.89999998
   11.79111195  119.60600281    4.67999983    1.89999998
   11.79444504  137.84100342    4.67999983    1.91999996
   11.79750061  133.22500610    4.67999983    1.91999996
   11.80083370  120.65000153    4.65999985    1.91999996
   11.80416679  122.73999786    4.65999985    1.91999996
   11.80722237  132.36999512    4.63999987    1.91999996
   11.81055546  121.50199890    4.63999987    1.91999996
   11.81388950  129.10499573    4.61999989    1.91999996
   11.81694412  133.00700378    4.61999989    1.91999996
   11.82027817  118.32199860    4.61999989    1.94000006
   11.82333374  121.53399658    4.59999990    1.94000006
   11.82388878  119.21499634    4.59999990    1.94000006
   11.82999992  119.21499634    4.57999992    1.94000006
   11.83388901  119.50399780    4.55999994    1.94000006
   11.83722210  125.42700195    4.53999996    1.94000006
   11.84055519  114.83200073    4.53999996    1.96000004
   11.84361076  121.96900177    4.53000021    1.96000004
   11.84694386  113.52700043    4.51000023    1.96000004
   11.85027790  128.51199341    4.51000023    1.98000002
   11.85333347  121.55500031    4.48999977    1.98000002
   11.85666752  130.42199707    4.46999979    1.98000002
   11.85722256  116.89399719    4.46999979    1.98000002
   11.86027813  119.23300171    4.46999979    1.98000002
   11.86361122  110.12999725    4.44999981    1.98000002
   11.86666679  123.54199982    4.42999983    1.98000002
   11.87277794  123.54199982    4.40999985    1.98000002
   11.87694454  124.79499817    4.38999987    1.98000002
   11.88027763  122.83899689    4.36999989    1.98000002
   11.88333321  119.13600159    4.34999990    2.00000000
   11.88666630  127.74199677    4.34999990    2.00000000
   11.88972187  126.49199677    4.32999992    2.01999998
   11.89055538  128.13900757    4.32999992    2.01999998
   11.89333344  123.04000092    4.30999994    2.01999998
   11.89666653  119.16600037    4.30999994    2.01999998
   11.89972210  122.04699707    4.28999996    2.01999998
   11.90305519  116.65100098    4.28999996    2.01999998
   11.90638828  123.99800110    4.26999998    2.01999998
   11.90944386  123.31199646    4.26000023    2.01999998
   11.91555500  123.31199646    4.23999977    2.01999998
   11.91972256  119.12999725    4.21999979    2.01999998
   11.92305565  119.14299774    4.21999979    2.03999996
   11.92388916  112.54699707    4.19999981    2.01999998
   11.92666721  107.63600159    4.19999981    2.03999996
   11.93000031  117.60700226    4.17999983    2.03999996
   11.93305588  111.43800354    4.15999985    2.03999996
   11.93638897  106.47599792    4.15999985    2.03999996
   11.93972206  111.05599976    4.15999985    2.03999996
   11.94277763  111.01300049    4.13999987    2.03999996
   11.94611073  106.40899658    4.13999987    2.03999996
   11.94916630  114.56300354    4.13999987    2.03999996
   11.95249939  118.65599823    4.11999989    2.05999994
   11.95833302  118.65599823    4.09999990    2.05999994
   11.96249962  122.95600128    4.09999990    2.05999994
   11.96583271  113.75700378    4.09999990    2.05999994
   11.96888828  121.29599762    4.09999990    2.05999994
   11.97222137  112.89399719    4.07999992    2.05999994
   11.97555542  108.67700195    4.07999992    2.05999994
   11.97861099  104.23000336    4.07999992    2.05999994
   11.98194408  116.63200378    4.07999992    2.07999992
   11.98527813  111.05200195    4.07999992    2.07999992
   11.98833370  117.68699646    4.05999994    2.07999992
   11.99055576  112.03600311    4.05999994    2.07999992
   11.99194431  107.62899780    4.05999994    2.07999992
   11.99527836  113.49199677    4.05999994    2.07999992
   12.00138855  113.49199677    4.03999996    2.07999992
   12.00527763  113.05400085    4.03999996    2.07999992
   12.00861073  112.34999847    4.03999996    2.07999992
   12.01194477  113.48799896    4.01999998    2.09999990
   12.01500034  108.11299896    4.01999998    2.07999992
   12.01833344  109.71700287    4.00000000    2.07999992
   12.02166653  108.66000366    4.00000000    2.09999990
   12.02388859  106.62500000    3.99000001    2.09999990
   12.02527714  116.07499695    3.99000001    2.09999990
   12.02861118  112.05400085    3.99000001    2.11999989
   12.03166676  104.44400024    3.97000003    2.11999989
   12.03500080  110.61100006    3.97000003    2.09999990
   12.03805637  111.42099762    3.95000005    2.11999989
   12.04416752  111.42099762    3.95000005    2.11999989
   12.04833412  106.76200104    3.91000009    2.11999989
   12.05138874  119.71600342    3.91000009    2.11999989
   12.05472279  105.15299988    3.89000010    2.11999989
   12.05722237  109.32900238    3.89000010    2.11999989
   12.05833340  101.54699707    3.89000010    2.11999989
   12.06166649  117.75800323    3.86999989    2.11999989
   12.06472206  109.45600128    3.84999990    2.13000011
   12.06805515  119.26300049    3.84999990    2.13000011
   12.07111073  120.87999725    3.82999992    2.13000011
   12.07444477  112.88800049    3.82999992    2.13000011
   12.07777786  109.01100159    3.80999994    2.13000011
   12.08083344  103.75700378    3.80999994    2.13000011
   12.08694458  103.75700378    3.76999998    2.13000011
   12.09111118  103.25800323    3.76999998    2.13000011
   12.09416676   99.60399628    3.75000000    2.13000011
   12.09749985  104.94100189    3.75000000    2.15000010
   12.10083389  102.48400116    3.73000002    2.15000010
   12.10388947  100.86000061    3.73000002    2.15000010
   12.10722256  109.54100037    3.73000002    2.15000010
   12.11055565  103.95700073    3.72000003    2.15000010
   12.11361122  103.51499939    3.72000003    2.15000010
   12.11694431   94.52030182    3.70000005    2.15000010
   12.11999989  103.84700012    3.70000005    2.17000008
   12.12333393  114.96900177    3.68000007    2.17000008
   12.12388897  106.27799988    3.68000007    2.15000010
   12.12972260  106.27799988    3.68000007    2.17000008
   12.13388920  107.86000061    3.66000009    2.17000008
   12.13722229  104.13200378    3.66000009    2.17000008
   12.14027786  103.86299896    3.66000009    2.17000008
   12.14361095  102.46099854    3.66000009    2.17000008
   12.14694405  113.25800323    3.68000007    2.17000008
   12.14999962   99.06569672    3.66000009    2.17000008
   12.15333271  107.37999725    3.66000009    2.17000008
   12.15638828  102.08899689    3.66000009    2.17000008
   12.15722179  101.07499695    3.66000009    2.17000008
   12.15999985   99.78600311    3.68000007    2.17000008
   12.16333294  107.83799744    3.66000009    2.19000006
   12.16638851   98.52290344    3.66000009    2.17000008
   12.17277813   98.52290344    3.66000009    2.19000006
   12.17666721  101.69300079    3.66000009    2.19000006
   12.18000031  110.36100006    3.66000009    2.19000006
   12.18333340  101.74900055    3.64000010    2.19000006
   12.18638897  107.97200012    3.64000010    2.19000006
   12.18972206  106.15299988    3.64000010    2.19000006
   12.19055557  105.95300293    3.64000010    2.19000006
   12.19333363   97.80480194    3.61999989    2.19000006
   12.19666672  105.75599670    3.61999989    2.19000006
   12.19972229  101.29900360    3.61999989    2.21000004
   12.20305538  107.14800262    3.59999990    2.19000006
   12.20638847  103.25900269    3.59999990    2.21000004
   12.20944405  111.04699707    3.57999992    2.21000004
   12.21555519  111.04699707    3.55999994    2.21000004
   12.21972179  108.61199951    3.53999996    2.21000004
   12.22277737  109.01799774    3.51999998    2.21000004
   12.22388840  101.00199890    3.51999998    2.21000004
   12.22638798  103.95099640    3.50000000    2.21000004
   12.22972202  102.23100281    3.50000000    2.21000004
   12.23277760  102.61799622    3.48000002    2.21000004
   12.23611164  102.63700104    3.46000004    2.23000002
   12.23944473   94.77549744    3.46000004    2.23000002
   12.24250031   94.58260345    3.45000005    2.23000002
   12.24583340  100.73300171    3.45000005    2.23000002
   12.24888897   97.07279968    3.43000007    2.23000002
   12.25222206   96.89489746    3.43000007    2.23000002
   12.25833321   96.89489746    3.41000009    2.23000002
   12.26249981  100.97799683    3.41000009    2.23000002
   12.26555538  104.98899841    3.39000010    2.25000000
   12.26888847  103.32499695    3.39000010    2.25000000
   12.27222157   98.58180237    3.36999989    2.25000000
   12.27527714   95.83570099    3.36999989    2.25000000
   12.27861118  100.08000183    3.34999990    2.25000000
   12.28194427  108.72799683    3.34999990    2.25000000
   12.28500080  102.24500275    3.34999990    2.25000000
   12.28833389   94.68170166    3.34999990    2.25000000
   12.29055595   90.94799805    3.34999990    2.25000000
   12.29194450   93.28669739    3.34999990    2.25000000
   12.29527855   91.40139771    3.34999990    2.25000000
   12.30111122   91.40139771    3.34999990    2.26999998
   12.30527782   94.02950287    3.34999990    2.25000000
   12.30861092   97.09380341    3.34999990    2.25000000
   12.31166649   93.75720215    3.34999990    2.26999998
   12.31500053  101.22499847    3.32999992    2.26999998
   12.31833363  100.52600098    3.32999992    2.26999998
   12.32138920  104.39700317    3.32999992    2.26999998
   12.32388878   98.37049866    3.32999992    2.26999998
   12.32499981   96.66320038    3.32999992    2.26999998
   12.32833290   92.22200012    3.32999992    2.26999998
   12.33138847   98.28189850    3.30999994    2.26999998
   12.33472157   90.09680176    3.30999994    2.26999998
   12.33805561   94.10980225    3.28999996    2.26999998
   12.34388828   94.10980225    3.28999996    2.26999998
   12.34805489   91.30439758    3.28999996    2.28999996
   12.35138893   99.04029846    3.28999996    2.28999996
   12.35472298   93.77130127    3.26999998    2.28999996
   12.35750008   91.84110260    3.26999998    2.26999998
   12.35833359   98.06749725    3.25000000    2.28999996
   12.36166668   97.30449677    3.25000000    2.28999996
   12.36472225   89.26429749    3.25000000    2.28999996
   12.36805534   93.88790131    3.25000000    2.28999996
   12.37138939   92.70780182    3.21000004    2.28999996
   12.37444496   96.86750031    3.21000004    2.28999996
   12.37777805   94.41190338    3.20000005    2.28999996
   12.38111115   91.70510101    3.20000005    2.28999996
   12.38694477   91.70510101    3.18000007    2.30999994
   12.39111137   89.97070313    3.16000009    2.30999994
   12.39416695   87.50360107    3.16000009    2.30999994
   12.39750004   94.27239990    3.14000010    2.30999994
   12.40083313   98.10299683    3.14000010    2.32999992
   12.40388870   91.39710236    3.11999989    2.30999994
   12.40722179   90.12689972    3.09999990    2.30999994
   12.41027737   91.30850220    3.09999990    2.30999994
   12.41361046   95.72640228    3.07999992    2.30999994
   12.41694450   89.08470154    3.05999994    2.32999992
   12.42000008   96.65930176    3.05999994    2.32999992
   12.42333412   88.92430115    3.05999994    2.32999992
   12.42416668   91.51629639    3.05999994    2.30999994
   12.42972279   91.51629639    3.05999994    2.32999992
   12.43388939   87.35929871    3.03999996    2.32999992
   12.43722248   95.08039856    3.03999996    2.32999992
   12.44027805   91.40119934    3.03999996    2.32999992
   12.44361115   91.25150299    3.03999996    2.32999992
   12.44666672   93.43419647    3.03999996    2.32999992
   12.44999981   92.66470337    3.03999996    2.32999992
   12.45333290   82.95629883    3.03999996    2.32999992
   12.45638847   96.86450195    3.03999996    2.32999992
   12.45749950   84.45149994    3.03999996    2.32999992
   12.46000004   87.48950195    3.03999996    2.32999992
   12.46333313   82.98930359    3.03999996    2.32999992
   12.46638870   86.73259735    3.03999996    2.32999992
   12.47249985   86.73259735    3.03999996    2.32999992
   12.47666645   84.28919983    3.03999996    2.32999992
   12.47999954   88.28189850    3.03999996    2.32999992
   12.48305511   88.53489685    3.03999996    2.34999990
   12.48638916   93.16200256    3.03999996    2.34999990
   12.48972225   91.41790009    3.03999996    2.32999992
   12.49083328   88.82730103    3.03999996    2.34999990
   12.49305534   89.29979706    3.03999996    2.32999992
   12.49638939   86.56860352    3.03999996    2.34999990
   12.49944496   88.45020294    3.01999998    2.34999990
   12.50277805   83.29350281    3.01999998    2.34999990
   12.50611115   83.79499817    3.01999998    2.34999990
   12.50916672   87.15599823    3.01999998    2.34999990
   12.51555538   87.15599823    3.00000000    2.34999990
   12.51944447   96.49410248    2.98000002    2.34999990
   12.52277756   93.12149811    2.98000002    2.36999989
   12.52416611   84.60350037    2.98000002    2.36999989
   12.52638817   86.47799683    2.96000004    2.36999989
   12.52972221   88.80039978    2.96000004    2.36999989
   12.53277779   93.49449921    2.94000006    2.36999989
   12.53611183   87.17489624    2.94000006    2.36999989
   12.53944492   86.97280121    2.93000007    2.36999989
   12.54250050   87.58889771    2.91000009    2.36999989
   12.54583359   84.28630066    2.91000009    2.36999989
   12.54916668   89.10340118    2.89000010    2.36999989
   12.55222225   88.09919739    2.86999989    2.36999989
   12.55833340   88.09919739    2.84999990    2.39000010
   12.56250000   89.51219940    2.82999992    2.39000010
   12.56555557   88.72290039    2.82999992    2.39000010
   12.56888866   84.34049988    2.80999994    2.36999989
   12.57194424   88.86689758    2.80999994    2.39000010
   12.57527733   81.72299957    2.80999994    2.39000010
   12.57861137   90.83830261    2.80999994    2.39000010
   12.58166695   80.69419861    2.78999996    2.39000010
   12.58500004   88.94460297    2.78999996    2.39000010
   12.58833313   84.06950378    2.78999996    2.39000010
   12.59083271   80.08689880    2.76999998    2.39000010
   12.59166622   82.47810364    2.76999998    2.39000010
   12.59499931   84.63500214    2.76999998    2.39000010
   12.60111141   84.63500214    2.75000000    2.39000010
   12.60527802   81.14270020    2.75000000    2.40000010
   12.60833359   91.31529999    2.75000000    2.39000010
   12.61166668   87.03939819    2.73000002    2.40000010
   12.61500072   83.89369965    2.73000002    2.40000010
   12.61805534   84.92040253    2.71000004    2.39000010
   12.62138939   84.01670074    2.69000006    2.40000010
   12.62416649   84.61170197    2.69000006    2.40000010
   12.62500000   91.07039642    2.69000006    2.40000010
   12.62833309   85.96700287    2.67000008    2.40000010
   12.63138866   86.98390198    2.69000006    2.40000010
   12.63472176   81.70390320    2.67000008    2.40000010
   12.63805580   84.96289825    2.66000009    2.40000010
   12.64388847   84.96289825    2.64000010    2.40000010
   12.64805508   87.41169739    2.64000010    2.40000010
   12.65138817   88.64199829    2.61999989    2.40000010
   12.65444374   90.49379730    2.61999989    2.40000010
   12.65749931   82.80020142    2.61999989    2.42000008
   12.65805531   91.17960358    2.61999989    2.42000008
   12.66138840   84.61730194    2.59999990    2.40000010
   12.66444397   85.31500244    2.59999990    2.40000010
   12.66777802   80.72370148    2.59999990    2.42000008
   12.67111111   86.55770111    2.59999990    2.40000010
   12.67416668   86.34919739    2.59999990    2.42000008
   12.67750072   87.44940186    2.61999989    2.40000010
   12.68083382   88.30570221    2.59999990    2.42000008
   12.68694496   88.30570221    2.59999990    2.42000008
   12.69083309   91.12129974    2.59999990    2.42000008
   12.69416714   90.37819672    2.59999990    2.42000008
   12.69750023   88.09480286    2.61999989    2.42000008
   12.70055580   82.95169830    2.59999990    2.42000008
   12.70388889   92.44329834    2.59999990    2.44000006
   12.70694447   81.35679626    2.59999990    2.44000006
   12.71027756   87.43920135    2.59999990    2.42000008
   12.71361065   85.26589966    2.61999989    2.42000008
   12.71666622   83.29039764    2.64000010    2.42000008
   12.71999931   84.57689667    2.64000010    2.42000008
   12.72305489   85.71420288    2.61999989    2.44000006
   12.72416592   89.81469727    2.61999989    2.42000008
   12.74472237   89.81469727    2.59999990    2.44000006
   12.74888897   83.26229858    2.61999989    2.44000006
   12.75222206   88.14689636    2.61999989    2.44000006
   12.75527763   88.94989777    2.61999989    2.44000006
   12.75749969   89.09169769    2.59999990    2.44000006
   12.75888920   87.67510223    2.59999990    2.46000004
   12.76222229   87.00289917    2.59999990    2.42000008
   12.76527786   86.09230042    2.57999992    2.44000006
   12.76861095   90.22429657    2.57999992    2.44000006
   12.77194405   87.91480255    2.55999994    2.44000006
   12.77499962   83.08699799    2.55999994    2.46000004
   12.77833271   85.82640076    2.55999994    2.44000006
   12.78166676   81.25669861    2.55999994    2.46000004
   12.78750038   81.25669861    2.55999994    2.44000006
   12.79166698   86.68979645    2.55999994    2.44000006
   12.79500008   83.19709778    2.53999996    2.46000004
   12.79805565   81.87699890    2.53999996    2.46000004
   12.80138874   78.43859863    2.53999996    2.46000004
   12.80444431   85.52410126    2.53999996    2.46000004
   12.80777836   84.24839783    2.53999996    2.44000006
   12.81111145   95.03299713    2.53999996    2.46000004
   12.81416702   89.57689667    2.53999996    2.46000004
   12.81750011   81.86309814    2.53999996    2.46000004
   12.82083321   84.79350281    2.53999996    2.46000004
   12.82388878   87.40850067    2.55999994    2.46000004
   12.82444477   91.83239746    2.53999996    2.46000004
   12.83027744   91.83239746    2.51999998    2.46000004
   12.83444405   90.31420135    2.51999998    2.46000004
   12.83777714   87.00710297    2.51999998    2.46000004
   12.84083271   78.67299652    2.50000000    2.46000004
   12.84416676   85.04029846    2.50000000    2.46000004
   12.84749985   95.79209900    2.50000000    2.46000004
   12.85055637   85.29910278    2.50000000    2.46000004
   12.85388947   86.34809875    2.50000000    2.46000004
   12.85722256   83.19730377    2.48000002    2.46000004
   12.85777855   79.66819763    2.48000002    2.46000004
   12.86083412   87.82029724    2.48000002    2.46000004
   12.86388969   77.50150299    2.48000002    2.46000004
   12.86722279   82.94719696    2.48000002    2.48000002
   12.87333393   82.94719696    2.48000002    2.48000002
   12.87722206   81.17859650    2.46000004    2.48000002
   12.88055611   88.80799866    2.46000004    2.48000002
   12.88388920   82.33540344    2.44000006    2.48000002
   12.88694477   83.78949738    2.42000008    2.46000004
   12.89027786   93.37660217    2.42000008    2.48000002
   12.89111137   91.45950317    2.42000008    2.48000002
   12.89388847   91.33000183    2.42000008    2.48000002
   12.89694405   85.27010345    2.40000010    2.46000004
   12.90027714   84.61250305    2.40000010    2.48000002
   12.90361118   80.34249878    2.39000010    2.48000002
   12.90666676   88.50710297    2.39000010    2.48000002
   12.90999985   79.44419861    2.39000010    2.48000002
   12.91611099   79.44419861    2.39000010    2.48000002
   12.92027855   86.98280334    2.36999989    2.48000002
   12.92333412   87.28929901    2.36999989    2.48000002
   12.92444515   86.74430084    2.36999989    2.50000000
   12.92722225   85.31150055    2.39000010    2.50000000
   12.93027782   86.90630341    2.39000010    2.48000002
   12.93361092   83.74279785    2.36999989    2.48000002
   12.93694496   87.40540314    2.36999989    2.48000002
   12.94000053   84.95410156    2.36999989    2.50000000
   12.94333363   93.13760376    2.34999990    2.48000002
   12.94666672   82.58110046    2.36999989    2.48000002
   12.94972229   79.89379883    2.34999990    2.48000002
   12.95305538   87.99369812    2.34999990    2.48000002
   12.95888901   87.99369812    2.34999990    2.50000000
   12.96305561   79.73059845    2.34999990    2.50000000
   12.96638870   81.39420319    2.34999990    2.50000000
   12.96944427   87.19159698    2.32999992    2.50000000
   12.97277737   80.15989685    2.32999992    2.48000002
   12.97583294   89.55419922    2.32999992    2.48000002
   12.97916603   83.91970062    2.32999992    2.50000000
   12.98249912   83.46910095    2.32999992    2.50000000
   12.98555565   89.30989838    2.32999992    2.50000000
   12.98888874   83.51580048    2.32999992    2.50000000
   12.99111176   82.83370209    2.32999992    2.50000000
   12.99250031   88.02300262    2.32999992    2.50000000
   12.99555588   95.02549744    2.32999992    2.50000000
   13.00166702   95.02549744    2.30999994    2.50000000
   13.00583363   91.45449829    2.30999994    2.50000000
   13.00916672   87.92379761    2.30999994    2.50000000
   13.01222229   83.62039948    2.30999994    2.50000000
   13.01555538   85.09950256    2.30999994    2.51999998
   13.01888847   86.13739777    2.30999994    2.51999998
   13.02194405   95.27829742    2.28999996    2.50000000
   13.02444458   86.99990082    2.28999996    2.51999998
   13.02583313   92.38079834    2.30999994    2.50000000
   13.02888870   92.39489746    2.28999996    2.50000000
   13.03222179   82.67720032    2.30999994    2.50000000
   13.03555584   92.04810333    2.28999996    2.50000000
   13.03861141   87.74340057    2.30999994    2.50000000
   13.04472256   87.74340057    2.28999996    2.51999998
   13.04861164   80.88289642    2.28999996    2.50000000
   13.05194473   84.48339844    2.28999996    2.51999998
   13.05527782   94.25599670    2.28999996    2.51999998
   13.05777836   78.99310303    2.26999998    2.51999998
   13.05888939   92.88320160    2.26999998    2.51999998
   13.06194496   85.62259674    2.26999998    2.51999998
   13.06527805   83.92220306    2.25000000    2.50000000
   13.06861115   90.62599945    2.25000000    2.51999998
   13.07166672   88.02480316    2.23000002    2.51999998
   13.07499981   83.58899689    2.23000002    2.51999998
   13.07833290   93.25250244    2.23000002    2.51999998
   13.08138847   79.07160187    2.21000004    2.51999998
   13.08749962   79.07160187    2.23000002    2.51999998
   13.09166622   91.91880035    2.23000002    2.53999996
   13.09472179   78.47850037    2.23000002    2.51999998
   13.09805489   86.48860168    2.23000002    2.51999998
   13.10138893   87.14990234    2.23000002    2.51999998
   13.10444450   88.40879822    2.25000000    2.53999996
   13.10777855   88.05169678    2.26999998    2.53999996
   13.11083412   81.47609711    2.26999998    2.51999998
   13.11416721   77.02439880    2.25000000    2.51999998
   13.11750031   87.69200134    2.25000000    2.53999996
   13.12055588   79.67469788    2.25000000    2.51999998
   13.12388897   80.26920319    2.25000000    2.55999994
   13.12444496   84.72550201    2.25000000    2.53999996
   13.13027763   84.72550201    2.26999998    2.53999996
   13.13444424   81.67910004    2.26999998    2.53999996
   13.13777733   83.96700287    2.28999996    2.53999996
   13.14083290   84.71810150    2.26999998    2.53999996
   13.14416695   90.43769836    2.26999998    2.53999996
   13.14722252   80.46469879    2.25000000    2.53999996
   13.15055561   79.59700012    2.25000000    2.53999996
   13.15388870   88.28849792    2.25000000    2.53999996
   13.15694427   88.00399780    2.25000000    2.53999996
   13.15777779   86.34140015    2.25000000    2.53999996
   13.16055489   83.18779755    2.25000000    2.53999996
   13.16388893   87.97619629    2.23000002    2.53999996
   13.16694450   81.24449921    2.21000004    2.53999996
   13.17305565   81.24449921    2.21000004    2.53999996
   13.17722225   84.19460297    2.21000004    2.53999996
   13.18055630   81.90840149    2.19000006    2.53999996
   13.18361092   83.39179993    2.17000008    2.53999996
   13.18694496   84.57479858    2.17000008    2.53999996
   13.19027805   84.91390228    2.17000008    2.53999996
   13.19111156   86.05899811    2.17000008    2.55999994
   13.19388866   85.94280243    2.17000008    2.55999994
   13.19722271   84.70130157    2.19000006    2.55999994
   13.20027733   83.41429901    2.17000008    2.55999994
   13.20361137   90.38569641    2.17000008    2.53999996
   13.20666695   87.35919952    2.17000008    2.53999996
   13.21000004   88.48549652    2.17000008    2.55999994
   13.21611118   88.48549652    2.15000010    2.55999994
   13.21999931   90.83000183    2.15000010    2.53999996
   13.22333336   82.37550354    2.13000011    2.53999996
   13.22444439   87.42189789    2.13000011    2.55999994
   13.22694397   80.17780304    2.13000011    2.55999994
   13.23027706   81.03029633    2.13000011    2.53999996
   13.23333359   86.01210022    2.13000011    2.55999994
   13.23666668   84.90950012    2.13000011    2.55999994
   13.23972225   79.80719757    2.13000011    2.55999994
   13.24305534   80.24710083    2.13000011    2.55999994
   13.24638939   86.70960236    2.13000011    2.55999994
   13.24972248   81.24990082    2.13000011    2.55999994
   13.25277805   84.59069824    2.13000011    2.55999994
   13.25888920   84.59069824    2.13000011    2.55999994
   13.26305580   86.61370087    2.15000010    2.55999994
   13.26611137   81.41960144    2.13000011    2.53999996
   13.26944447   80.83049774    2.13000011    2.55999994
   13.27277756   80.13670349    2.13000011    2.55999994
   13.27583313   84.27999878    2.13000011    2.55999994
   13.27916622   93.36940002    2.11999989    2.55999994
   13.28222179   84.00379944    2.13000011    2.55999994
   13.28555584   83.16840363    2.11999989    2.55999994
   13.28888893   94.03759766    2.11999989    2.55999994
   13.29111195   85.37680054    2.11999989    2.53999996
   13.29250050   87.52970123    2.11999989    2.55999994
   13.29583359   92.38659668    2.11999989    2.55999994
   13.30166721   92.38659668    2.11999989    2.55999994
   13.30583382   83.84680176    2.11999989    2.55999994
   13.30916691   82.52179718    2.11999989    2.55999994
   13.31222248   82.87500000    2.13000011    2.55999994
   13.31555557   89.34559631    2.11999989    2.55999994
   13.31861115   89.99579620    2.11999989    2.57999992
   13.32194424   86.74810028    2.09999990    2.57999992
   13.32444477   87.08070374    2.11999989    2.55999994
   13.32555580   83.45890045    2.11999989    2.55999994
   13.32888889   82.80419922    2.09999990    2.55999994
   13.33194447   84.91770172    2.09999990    2.57999992
   13.33527756   94.90239716    2.09999990    2.57999992
   13.33833313   90.80870056    2.11999989    2.55999994
   13.34444427   90.80870056    2.09999990    2.55999994
   13.34861088   86.48750305    2.09999990    2.57999992
   13.35194492   86.92710114    2.09999990    2.57999992
   13.35500050   86.28510284    2.11999989    2.57999992
   13.35777855   86.67710114    2.13000011    2.57999992
   13.35861111   85.76069641    2.11999989    2.57999992
   13.36194515   87.59729767    2.13000011    2.57999992
   13.36500072   87.22820282    2.15000010    2.57999992
   13.36833382   79.84439850    2.15000010    2.57999992
   13.37138939   91.37270355    2.15000010    2.57999992
   13.37472248   86.72730255    2.15000010    2.57999992
   13.37805557   81.66880035    2.15000010    2.57999992
   13.38111115   85.71379852    2.15000010    2.57999992
   13.38749981   85.71379852    2.13000011    2.57999992
   13.39138889   88.34809875    2.15000010    2.57999992
   13.39472198   85.84709930    2.15000010    2.57999992
   13.39805508   86.28209686    2.13000011    2.57999992
   13.40111065   86.90390015    2.13000011    2.57999992
   13.40444374   80.17910004    2.11999989    2.57999992
   13.40749931   85.81120300    2.11999989    2.57999992
   13.41083336   84.10669708    2.11999989    2.57999992
   13.41416645   79.04409790    2.11999989    2.57999992
   13.41722298   80.95639801    2.11999989    2.57999992
   13.42055607   80.56520081    2.11999989    2.57999992
   13.42388916   85.90859985    2.11999989    2.57999992
   13.42444515   86.69120026    2.11999989    2.57999992
   13.43027782   86.69120026    2.11999989    2.57999992
   13.43444443   80.47389984    2.09999990    2.57999992
   13.43750000   76.15570068    2.09999990    2.59999990
   13.44083309   87.52369690    2.11999989    2.59999990
   13.44388866   85.93460083    2.11999989    2.57999992
   13.44722271   85.82879639    2.13000011    2.59999990
   13.45055580   87.19239807    2.11999989    2.59999990
   13.45361137   90.19680023    2.11999989    2.59999990
   13.45694447   85.90429688    2.11999989    2.57999992
   13.45777798   83.13379669    2.11999989    2.59999990
   13.46055508   81.83920288    2.09999990    2.57999992
   13.46388912   93.53220367    2.09999990    2.59999990
   13.46694374   87.98840332    2.09999990    2.57999992
   13.47305489   87.98840332    2.11999989    2.57999992
   13.47722149   96.09329987    2.13000011    2.59999990
   13.48027706   91.11730194    2.13000011    2.59999990
   13.48361111   86.44280243    2.13000011    2.59999990
   13.48694515   94.49040222    2.15000010    2.57999992
   13.49000072   84.62640381    2.15000010    2.59999990
   13.49111176  100.80599976    2.17000008    2.59999990
   13.49361134   78.85079956    2.17000008    2.57999992
   13.49694443   85.27449799    2.17000008    2.59999990
   13.50000000   82.91899872    2.17000008    2.59999990
   13.50333309   86.01380157    2.17000008    2.59999990
   13.50666714   87.20529938    2.15000010    2.59999990
   13.50972176   82.04129791    2.15000010    2.59999990
   13.51583290   82.04129791    2.15000010    2.59999990
   13.51999950   92.75000000    2.19000006    2.59999990
   13.52333355   80.77780151    2.17000008    2.59999990
   13.52444458   79.61569977    2.19000006    2.59999990
   13.52694416   79.35729980    2.17000008    2.59999990
   13.53027725   76.79239655    2.17000008    2.59999990
   13.53333378   74.83730316    2.17000008    2.57999992
   13.53666687   93.83529663    2.19000006    2.59999990
   13.54000092   84.37969971    2.21000004    2.57999992
   13.54305553   86.92870331    2.21000004    2.59999990
   13.54638958   87.09220123    2.23000002    2.61999989
   13.54944515   95.43830109    2.23000002    2.59999990
   13.55277824   92.15019989    2.21000004    2.59999990
   13.55861092   92.15019989    2.19000006    2.59999990
   13.56277752   94.19840240    2.17000008    2.57999992
   13.56611156   92.69460297    2.17000008    2.59999990
   13.56944466   94.17910004    2.17000008    2.61999989
   13.57250023   97.53389740    2.17000008    2.59999990
   13.57583332   87.45520020    2.19000006    2.59999990
   13.57916641   93.33860016    2.17000008    2.59999990
   13.58222198   84.35269928    2.17000008    2.61999989
   13.58555508   92.47969818    2.15000010    2.59999990
   13.58861065   89.63220215    2.13000011    2.59999990
   13.59111118   95.50990295    2.13000011    2.59999990
   13.59222221   86.03099823    2.13000011    2.59999990
   13.59555531   92.49729919    2.11999989    2.59999990
   13.60166740   92.49729919    2.11999989    2.59999990
   13.60583401   93.13390350    2.13000011    2.59999990
   13.60888958   78.60919952    2.11999989    2.61999989
   13.61222267   84.27619934    2.11999989    2.59999990
   13.61527824   84.11019897    2.09999990    2.61999989
   13.61861134   86.76499939    2.09999990    2.61999989
   13.62194443   95.79229736    2.11999989    2.61999989
   13.62472248   91.59310150    2.09999990    2.61999989
   13.62555599   89.48429871    2.09999990    2.59999990
   13.62888908   88.56109619    2.07999992    2.61999989
   13.63194466   83.66490173    2.07999992    2.61999989
   13.63527775   87.82610321    2.05999994    2.61999989
   13.63861084   95.15840149    2.03999996    2.61999989
   13.64444447   95.15840149    2.01999998    2.61999989
   13.64861107   82.65769958    2.01999998    2.61999989
   13.65166664  101.22599792    2.00000000    2.61999989
   13.65499973  100.23100281    2.00000000    2.61999989
   13.65805531   88.44370270    2.00000000    2.61999989
   13.65861034  104.18800354    2.00000000    2.61999989
   13.66194439  100.73100281    1.80999994    2.61999989
   13.66499996   98.96600342    1.80999994    2.61999989
   13.66833401   92.44869995    1.80999994    2.61999989
   13.67166710   86.34210205    1.80999994    2.61999989
   13.67472267   81.70939636    1.80999994    2.61999989
   13.67805576   94.16339874    1.78999996    2.64000010
   13.68138885   88.72810364    1.78999996    2.61999989
   13.68722248   88.72810364    1.78999996    2.61999989
   13.69138908   85.96540070    1.78999996    2.61999989
   13.69472218   86.94689941    1.80999994    2.61999989
   13.69777775   95.42970276    1.80999994    2.61999989
   13.70111084   89.74479675    1.78999996    2.61999989
   13.70444393   93.02130127    1.78999996    2.61999989
   13.70749950   97.08380127    1.78999996    2.61999989
   13.71083355   97.93499756    1.80999994    2.61999989
   13.71388912   91.55979919    1.80999994    2.64000010
   13.71722221   98.72299957    1.83000004    2.64000010
   13.72055531   91.21669769    1.83000004    2.61999989
   13.72361088   99.87899780    1.83000004    2.61999989
   13.72472191  104.64800262    1.83000004    2.61999989
   13.72999954  104.64800262    1.86000001    2.59999990
   13.73416710   88.76149750    1.86000001    2.61999989
   13.73750019   84.84010315    1.88000000    2.61999989
   13.74083328   85.30829620    1.88000000    2.61999989
   13.75833321   95.90329742    1.88000000    2.61999989
   13.76083374   81.58799744    1.88000000    2.61999989
   13.76388931   89.08959961    1.88000000    2.61999989
   13.76722240   84.25659943    1.89999998    2.61999989
   13.77305508   84.25659943    1.88000000    2.61999989
   13.77722168   94.93720245    1.89999998    2.61999989
   13.78055573   82.67240143    1.88000000    2.61999989
   13.78361130   86.00509644    1.88000000    2.61999989
   13.78694534   92.08760071    1.88000000    2.61999989
   13.79027843   93.00759888    1.88000000    2.61999989
   13.79166698   87.90940094    1.88000000    2.61999989
   13.79388905   88.38390350    1.86000001    2.61999989
   13.79722309   89.28170013    1.86000001    2.61999989
   13.80027771   82.92400360    1.85000002    2.61999989
   13.80361176   90.29010010    1.80999994    2.61999989
   13.80694485   98.89379883    1.80999994    2.64000010
   13.81000042   77.07769775    1.78999996    2.61999989
   13.81611156   77.07769775    1.75000000    2.64000010
   13.81999969   91.71679688    1.73000002    2.61999989
   13.82333374   93.45420074    1.73000002    2.64000010
   13.82499981   93.42859650    1.73000002    2.64000010
   13.82694435   90.66979980    1.71000004    2.64000010
   13.83027744   95.15899658    1.71000004    2.64000010
   13.83361053   91.78610229    1.71000004    2.64000010
   13.83666611   88.67120361    1.69000006    2.61999989
   13.84000015   84.68800354    1.71000004    2.64000010
   13.84333324   88.92070007    1.69000006    2.64000010
   13.84638882   87.18759918    1.69000006    2.64000010
   13.84972191   96.19390106    1.66999996    2.64000010
   13.85277843   90.76069641    1.66999996    2.64000010
   13.85888958   90.76069641    1.64999998    2.64000010
   13.86305618   87.56150055    1.64999998    2.64000010
   13.86611176   85.89459991    1.64999998    2.64000010
   13.86944485   83.81999969    1.63000000    2.64000010
   13.87277794   93.04799652    1.63000000    2.64000010
   13.87583351   79.36150360    1.63000000    2.64000010
   13.87916660   88.38400269    1.61000001    2.64000010
   13.88222218   93.51770020    1.60000002    2.64000010
   13.88555527   83.48220062    1.60000002    2.64000010
   13.88888836   90.36900330    1.58000004    2.64000010
   13.89166641   90.69779968    1.58000004    2.64000010
   13.89249992   82.62049866    1.58000004    2.64000010
   13.89583302   87.60710144    1.58000004    2.64000010
   13.90166664   87.60710144    1.55999994    2.64000010
   13.90583324   90.57589722    1.55999994    2.64000010
   13.90916634   83.55660248    1.53999996    2.66000009
   13.91222191   90.18000031    1.53999996    2.66000009
   13.91555500  103.73899841    1.53999996    2.64000010
   13.91861153   85.05419922    1.53999996    2.66000009
   13.92194462   81.31150055    1.53999996    2.66000009
   13.92500019   86.85150146    1.53999996    2.66000009
   13.92583370   84.71240234    1.53999996    2.66000009
   13.92888927   80.88240051    1.55999994    2.64000010
   13.93222237   83.57800293    1.53999996    2.64000010
   13.93527794   86.77089691    1.53999996    2.64000010
   13.93861103   89.16040039    1.58000004    2.64000010
   13.94444466   89.16040039    1.58000004    2.66000009
   13.94861126   85.60700226    1.60000002    2.66000009
   13.95194435   86.35479736    1.61000001    2.64000010
   13.95499992   89.84269714    1.61000001    2.66000009
   13.95833302   85.16490173    1.63000000    2.64000010
   13.95861053   89.64990234    1.63000000    2.66000009
   13.96194458   90.36199951    1.63000000    2.64000010
   13.96527767   89.25839996    1.63000000    2.66000009
   13.96833324   86.34140015    1.61000001    2.64000010
   13.97166634   82.92659760    1.61000001    2.66000009
   13.97472191   77.00689697    1.63000000    2.64000010
   13.97805500   88.32520294    1.63000000    2.64000010
   13.98138809   87.54550171    1.63000000    2.66000009
   13.98750019   87.54550171    1.60000002    2.64000010
   13.99166679   86.71779633    1.58000004    2.66000009
   13.99194431   89.65249634    1.58000004    2.64000010
   13.99527836   87.02870178    1.58000004    2.66000009
   13.99861145   80.33209991    1.60000002    2.64000010
   14.00166702   91.23889923    1.60000002    2.64000010
   14.00500011   87.96779633    1.58000004    2.64000010
   14.00805569   91.54350281    1.60000002    2.64000010
   14.01138878   93.89150238    1.58000004    2.64000010
   14.01472187   82.85679626    1.58000004    2.64000010
   14.01777744   96.75530243    1.58000004    2.64000010
   14.02111053   93.92250061    1.58000004    2.66000009
   14.02444458   95.59369659    1.55999994    2.64000010
   14.02499962   93.66139984    1.55999994    2.64000010
   14.03027725   93.66139984    1.55999994    2.64000010
   14.03444481   99.21700287    1.55999994    2.66000009
   14.03750038   90.91439819    1.55999994    2.64000010
   14.04083347   99.21720123    1.55999994    2.66000009
   14.04416752   91.65110016    1.53999996    2.66000009
   14.04722309   90.85209656    1.53999996    2.64000010
   14.05055618   93.54769897    1.53999996    2.66000009
   14.05361176   83.35410309    1.51999998    2.66000009
   14.05694485   82.50839996    1.53999996    2.66000009
   14.05833340   94.12409973    1.51999998    2.64000010
   14.06055546   91.74250031    1.51999998    2.66000009
   14.06388950   87.98410034    1.51999998    2.66000009
   14.06722260   90.24870300    1.50000000    2.66000009
   14.07305527   90.24870300    1.48000002    2.66000009
   14.07722187   94.12830353    1.48000002    2.66000009
   14.08055592   89.11360168    1.48000002    2.66000009
   14.08361053   87.39929962    1.48000002    2.66000009
   14.08694458   92.40399933    1.48000002    2.66000009
   14.09000015   95.25240326    1.48000002    2.66000009
   14.09166622   97.81790161    1.48000002    2.66000009
   14.09361076   88.40180206    1.48000002    2.66000009
   14.09694386   90.29000092    1.48000002    2.66000009
   14.10027790   92.15270233    1.48000002    2.66000009
   14.10333347   90.65889740    1.48000002    2.66000009
   14.10666752   87.60700226    1.48000002    2.66000009
   14.11000061   92.76529694    1.48000002    2.66000009
   14.11583328   92.76529694    1.46000004    2.66000009
   14.11999989   91.68779755    1.48000002    2.67000008
   14.12333393   96.49040222    1.46000004    2.66000009
   14.12500000   97.39360046    1.46000004    2.66000009
   14.12666702   83.84410095    1.46000004    2.66000009
   14.13000011   86.59989929    1.44000006    2.66000009
   14.13333321  103.28199768    1.46000004    2.66000009
   14.13638878   98.10610199    1.44000006    2.67000008
   14.13972187  104.33699799    1.44000006    2.66000009
   14.14305496   94.90889740    1.44000006    2.66000009
   14.14611053   92.12770081    1.44000006    2.67000008
   14.14944458   90.42160034    1.44000006    2.67000008
   14.15249920   87.07559967    1.44000006    2.67000008
   14.15888882   87.07559967    1.44000006    2.66000009
   14.16277695  102.47299957    1.46000004    2.66000009
   14.16611099  101.69799805    1.48000002    2.67000008
   14.16944504  102.04199982    1.48000002    2.67000008
   14.17250061  100.94699860    1.50000000    2.67000008
   14.17583370   91.88200378    1.51999998    2.66000009
   14.17916679  103.80899811    1.51999998    2.67000008
   14.18222237   92.12640381    1.51999998    2.67000008
   14.18555546   95.38099670    1.51999998    2.66000009
   14.18888855  105.45800018    1.51999998    2.67000008
   14.19166660   95.01760101    1.53999996    2.66000009
   14.19222260  102.20800018    1.51999998    2.66000009
   14.19555569  102.14700317    1.51999998    2.66000009
   14.20166683  102.14700317    1.50000000    2.67000008
   14.20583344   91.57910156    1.48000002    2.67000008
   14.20888901  100.03900146    1.50000000    2.67000008
   14.21222210   97.73680115    1.50000000    2.66000009
   14.21555519   96.68160248    1.50000000    2.67000008
   14.21861076   99.13780212    1.50000000    2.67000008
   14.22194386   92.72669983    1.50000000    2.66000009
   14.22499943  114.02700043    1.48000002    2.66000009
   14.22527695  109.61100006    1.48000002    2.66000009
   14.22861099  100.14099884    1.48000002    2.66000009
   14.23194408   91.84809875    1.48000002    2.67000008
   14.23500061   83.28659821    1.46000004    2.67000008
   14.23833370   93.60829926    1.46000004    2.66000009
   14.24444485   93.60829926    1.44000006    2.67000008
   14.24861145  101.20500183    1.44000006    2.67000008
   14.25194454  109.67099762    1.44000006    2.67000008
   14.25500011   91.88870239    1.41999996    2.69000006
   14.25833321   81.32849884    1.41999996    2.67000008
   14.25861073   99.08489990    1.41999996    2.67000008
   14.26194477   85.64510345    1.39999998    2.67000008
   14.26527786   96.03610229    1.39999998    2.67000008
   14.26833344  109.78600311    1.41999996    2.67000008
   14.27166653   97.04019928    1.41999996    2.67000008
   14.27499962   91.65080261    1.41999996    2.67000008
   14.27805519   82.72560120    1.44000006    2.66000009
   14.28138828  100.96700287    1.44000006    2.67000008
   14.28722286  100.96700287    1.44000006    2.66000009
   14.29138947   91.23650360    1.44000006    2.69000006
   14.29194450   90.75679779    1.46000004    2.67000008
   14.29527855   90.07990265    1.46000004    2.67000008
   14.29861164   90.77799988    1.46000004    2.67000008
   14.30166721   95.40019989    1.44000006    2.67000008
   14.30500031   98.82559967    1.44000006    2.67000008
   14.30805588   88.29850006    1.44000006    2.69000006
   14.31138897  114.67800140    1.44000006    2.71000004
   14.31472206   82.76959991    1.46000004    2.69000006
   14.31777763   94.70780182    1.46000004    2.67000008
   14.32111073   91.70179749    1.46000004    2.69000006
   14.32444477  102.64099884    1.44000006    2.69000006
   14.32527733   82.76679993    1.46000004    2.69000006
   14.33027744   82.76679993    1.46000004    2.69000006
   14.33416653   82.13960266    1.44000006    2.67000008
   14.33749962   99.38520050    1.44000006    2.69000006
   14.34083271   92.63089752    1.44000006    2.69000006
   14.34388828   89.97470093    1.44000006    2.69000006
   14.34722233   82.81069946    1.41999996    2.69000006
   14.35055637   91.91290283    1.41999996    2.69000006
   14.35361195   82.33740234    1.41999996    2.69000006
   14.35694504   82.06510162    1.41999996    2.69000006
   14.35861111   88.03869629    1.41999996    2.69000006
   14.36055565   90.51719666    1.41999996    2.69000006
   14.36388969   93.26190186    1.41999996    2.69000006
   14.36694431   86.33529663    1.41999996    2.69000006
   14.37305546   86.33529663    1.41999996    2.69000006
   14.37722206   93.95050049    1.41999996    2.69000006
   14.38027763   95.66249847    1.39999998    2.69000006
   14.38361073   91.83850098    1.39999998    2.69000006
   14.38694477   86.11499786    1.41999996    2.69000006
   14.39000034   91.84259796    1.41999996    2.69000006
   14.39194393   92.02770233    1.41999996    2.69000006
   14.39361095   89.81539917    1.41999996    2.69000006
   14.39694405   92.73899841    1.41999996    2.69000006
   14.39999962   88.60169983    1.41999996    2.69000006
   14.40333271   87.12750244    1.41999996    2.69000006
   14.40638828   83.61530304    1.41999996    2.69000006
   14.40972137  102.90899658    1.41999996    2.69000006
   14.41583252  102.90899658    1.41999996    2.71000004
   14.42000008   85.25710297    1.41999996    2.69000006
   14.42333412   91.47260284    1.44000006    2.69000006
   14.42527771   91.88649750    1.41999996    2.69000006
   14.42694473   90.76640320    1.41999996    2.69000006
   14.43027782   87.90599823    1.44000006    2.69000006
   14.43333340   95.74990082    1.41999996    2.69000006
   14.43666649   96.06020355    1.41999996    2.69000006
   14.43972206   94.68049622    1.41999996    2.69000006
   14.44305515   94.64089966    1.44000006    2.69000006
   14.44638920   86.91660309    1.46000004    2.69000006
   14.44944477   94.49810028    1.48000002    2.71000004
   14.45277786   89.90879822    1.48000002    2.71000004
   14.45861053   89.90879822    1.50000000    2.69000006
   14.46277714   86.31330109    1.51999998    2.69000006
   14.46611118   97.95919800    1.53999996    2.69000006
   14.46916580   97.27359772    1.55999994    2.69000006
   14.47249985   92.08609772    1.58000004    2.69000006
   14.47583294   94.41560364    1.60000002    2.69000006
   14.47888851   90.62190247    1.61000001    2.69000006
   14.48222160   86.70300293    1.61000001    2.69000006
   14.48555565   79.81220245    1.60000002    2.69000006
   14.48861122   92.63690186    1.60000002    2.69000006
   14.49194431   93.25789642    1.58000004    2.69000006
   14.49361134   84.24790192    1.55999994    2.71000004
   14.49555588   87.95770264    1.55999994    2.69000006
   14.50166702   87.95770264    1.51999998    2.69000006
   14.50555515   88.80889893    1.50000000    2.69000006
   14.50888920   84.19499969    1.50000000    2.69000006
   14.51222229   85.62770081    1.48000002    2.71000004
   14.51527786   89.35829926    1.48000002    2.69000006
   14.51861095   99.11199951    1.46000004    2.71000004
   14.52194405   85.91439819    1.46000004    2.71000004
   14.52499962   98.03209686    1.46000004    2.69000006
   14.52694416   95.97380066    1.46000004    2.71000004
   14.52861118   97.38849640    1.44000006    2.71000004
   14.53194427   90.97760010    1.41999996    2.71000004
   14.53500080   93.49780273    1.41999996    2.71000004
   14.53833389   95.86969757    1.41999996    2.69000006
   14.54444504   95.86969757    1.39999998    2.69000006
   14.54861164   95.49199677    1.39999998    2.69000006
   14.55166721   96.52469635    1.39999998    2.71000004
   14.55500031   95.58580017    1.38000000    2.71000004
   14.55833340   97.21579742    1.36000001    2.69000006
   14.56055546   96.34649658    1.36000001    2.69000006
   14.56194496   96.09110260    1.36000001    2.69000006
   14.56500053   95.35939789    1.36000001    2.69000006
   14.56833363   90.06659698    1.36000001    2.71000004
   14.57166672   91.82369995    1.36000001    2.69000006
   14.57472229   95.37049866    1.36000001    2.69000006
   14.57805538   99.76000214    1.36000001    2.71000004
   14.58138847   89.45989990    1.36000001    2.71000004
   14.58722210   89.45989990    1.36000001    2.71000004
   14.59138870   93.06780243    1.36000001    2.71000004
   14.59388828   90.73519897    1.36000001    2.71000004
   14.59499931   82.08789825    1.36000001    2.71000004
   14.59833336  104.19599915    1.36000001    2.71000004
   14.60138893   89.42350006    1.38000000    2.71000004
   14.60472298   92.31980133    1.39999998    2.69000006
   14.60777855   85.34179688    1.41999996    2.71000004
   14.61111164   85.92369843    1.41999996    2.71000004
   14.61444473  101.80699921    1.41999996    2.71000004
   14.61750031   99.99569702    1.41999996    2.69000006
   14.62083340   94.62110138    1.41999996    2.69000006
   14.62416649   90.72440338    1.41999996    2.71000004
   14.63000011   90.72440338    1.39999998    2.69000006
   14.63416672   87.61540222    1.36000001    2.69000006
   14.63749981   90.94280243    1.36000001    2.69000006
   14.64055538   90.53459930    1.36000001    2.69000006
   14.64388847   94.64620209    1.36000001    2.69000006
   14.64722252   95.06060028    1.36000001    2.71000004
   14.65027714   95.27670288    1.36000001    2.69000006
   14.65361118   85.52310181    1.36000001    2.71000004
   14.65694427   82.83789825    1.38000000    2.71000004
   14.65999985   97.81449890    1.38000000    2.71000004
   14.66083336   89.13919830    1.36000001    2.71000004
   14.66361046   97.02230072    1.36000001    2.71000004
   14.66694450   92.06030273    1.36000001    2.71000004
   14.67305565   92.06030273    1.34000003    2.71000004
   14.67694473   83.59570313    1.34000003    2.71000004
   14.68027782   88.23509979    1.36000001    2.71000004
   14.68361092  104.01200104    1.36000001    2.71000004
   14.68666649  100.86499786    1.36000001    2.71000004
   14.69000053  106.70099640    1.38000000    2.69000006
   14.69333363   93.03459930    1.39999998    2.69000006
   14.69444466  103.55100250    1.39999998    2.69000006
   14.69694424   92.58010101    1.38000000    2.71000004
   14.70027733  100.54799652    1.39999998    2.71000004
   14.70333290   89.88659668    1.39999998    2.71000004
   14.70666695   92.05010223    1.39999998    2.69000006
   14.71000004   96.22070313    1.39999998    2.69000006
   14.71583271   96.22070313    1.39999998    2.71000004
   14.71999931   90.96869659    1.41999996    2.69000006
   14.72305489   86.46810150    1.39999998    2.69000006
   14.72638798   84.28440094    1.41999996    2.69000006
   14.72777748   96.33920288    1.41999996    2.71000004
   14.72999954   88.22570038    1.44000006    2.71000004
   14.73333359   94.15160370    1.39999998    2.71000004
   14.73638916   89.50599670    1.39999998    2.71000004
   14.73972225   95.93099976    1.39999998    2.71000004
   14.74277782   96.48930359    1.38000000    2.69000006
   14.74611092   85.02400208    1.38000000    2.69000006
   14.74944496   94.33159637    1.38000000    2.71000004
   14.75249958  101.58300018    1.38000000    2.71000004
   14.75861073  101.58300018    1.36000001    2.71000004
   14.77694416  104.81300354    1.34000003    2.71000004
   14.78027725   96.91960144    1.34000003    2.71000004
   14.78333378   89.92340088    1.33000004    2.71000004
   14.78666687  100.36900330    1.33000004    2.71000004
   14.79000092   96.65110016    1.33000004    2.71000004
   14.79305553  103.23799896    1.30999994    2.71000004
   14.79638958   93.38670349    1.33000004    2.71000004
   14.80166721   93.38670349    1.34000003    2.73000002
   14.80583382   96.96530151    1.33000004    2.71000004
   14.80916691   89.36869812    1.33000004    2.71000004
   14.81000042   90.49479675    1.33000004    2.73000002
   14.81277752   93.60340118    1.33000004    2.71000004
   14.81583309   95.53890228    1.34000003    2.71000004
   14.81916618   83.36710358    1.36000001    2.71000004
   14.82250023   92.77290344    1.36000001    2.71000004
   14.82555580   92.09590149    1.34000003    2.71000004
   14.82888889   94.88130188    1.33000004    2.71000004
   14.83222198   92.25090027    1.30999994    2.71000004
   14.83527756   86.85829926    1.30999994    2.71000004
   14.83861065   90.31670380    1.33000004    2.71000004
   14.84444427   90.31670380    1.33000004    2.73000002
   14.84861088   82.31529999    1.30999994    2.71000004
   14.85194492   86.81809998    1.33000004    2.71000004
   14.85527802   91.34690094    1.34000003    2.71000004
   14.85833359   96.61380005    1.34000003    2.71000004
   14.86166668   93.31749725    1.36000001    2.71000004
   14.86500072  101.31199646    1.34000003    2.73000002
   14.86805534   92.98439789    1.36000001    2.73000002
   14.87138939   84.18530273    1.38000000    2.71000004
   14.87472248  109.70800018    1.39999998    2.71000004
   14.87666702   93.64019775    1.38000000    2.71000004
   14.87833309   91.49629974    1.38000000    2.71000004
   14.88138866   96.51529694    1.36000001    2.71000004
   14.88749981   96.51529694    1.34000003    2.71000004
   14.89138889   99.69390106    1.34000003    2.73000002
   14.89472198  100.19200134    1.33000004    2.73000002
   14.89805508  104.89900208    1.33000004    2.71000004
   14.90111065  100.35600281    1.33000004    2.71000004
   14.90444374   93.36209869    1.33000004    2.71000004
   14.90777779   89.62560272    1.33000004    2.71000004
   14.90999985   90.04840088    1.30999994    2.73000002
   14.91138840   92.09799957    1.30999994    2.73000002
   14.91472149   94.27290344    1.33000004    2.71000004
   14.91777802   93.14839935    1.33000004    2.73000002
   14.92111111   98.84449768    1.33000004    2.71000004
   15.01861095   -1.00000000   -1.00000000   -1.00000000
   15.46833324   -1.00000000   -1.00000000   -1.00000000
   15.71305561   -1.00000000   -1.00000000   -1.00000000
   15.80361176   69.28739929    1.11000001    2.76999998
   15.80694485   93.22940063    1.11000001    2.75000000
   15.81027794   98.92060089    1.11000001    2.75000000
   15.81333351   99.93930054    1.11000001    2.76999998
   15.81666660  101.34300232    1.11000001    2.75000000
   15.81972218   92.43099976    1.09000003    2.75000000
   15.82388878   92.43099976    1.11000001    2.75000000
   15.82805538   95.57859802    1.11000001    2.76999998
   15.83138847   98.81629944    1.09000003    2.76999998
   15.83444405   95.26129913    1.11000001    2.76999998
   15.83694458   93.93509674    1.11000001    2.75000000
   15.83833313   92.33360291    1.11000001    2.75000000
   15.84166622   92.01059723    1.11000001    2.76999998
   15.84472179   93.32299805    1.11000001    2.75000000
   15.84805489   84.97319794    1.09000003    2.75000000
   15.85111141   85.72640228    1.09000003    2.75000000
   15.85444450   95.96430206    1.09000003    2.75000000
   15.85777855   91.61779785    1.09000003    2.75000000
   15.86083412   90.79920197    1.07000005    2.75000000
   15.86694431   90.79920197    1.07000005    2.76999998
   15.87083340  101.77899933    1.09000003    2.76999998
   15.87416649   92.67060089    1.07000005    2.78999996
   15.87750053  100.65000153    1.07000005    2.76999998
   15.88055611   97.83450317    1.09000003    2.75000000
   15.88388920   96.36699677    1.07000005    2.76999998
   15.88722229   93.46019745    1.07000005    2.76999998
   15.89027786   92.27330017    1.07000005    2.76999998
   15.89361095   97.45379639    1.07000005    2.76999998
   15.89666653   91.84089661    1.07000005    2.76999998
   15.89999962   95.72350311    1.07000005    2.76999998
   15.90333271   95.56980133    1.07000005    2.76999998
   15.90388870   94.85350037    1.07000005    2.76999998
   15.90972137   94.85350037    1.05999994    2.76999998
   15.91388893   87.21510315    1.05999994    2.75000000
   15.91694450   87.03209686    1.05999994    2.76999998
   15.92027855   93.27420044    1.05999994    2.76999998
   15.92361164   94.00559998    1.05999994    2.76999998
   15.92666721   94.98310089    1.07000005    2.76999998
   15.93000031   91.53880310    1.07000005    2.76999998
   15.93305588   90.60690308    1.07000005    2.76999998
   15.93638897   86.55370331    1.07000005    2.75000000
   15.93722248   92.82520294    1.07000005    2.75000000
   15.94000053   91.37760162    1.07000005    2.76999998
   15.94333363   90.31500244    1.07000005    2.75000000
   15.94666672   89.54160309    1.07000005    2.76999998
   15.95249939   89.54160309    1.07000005    2.76999998
   15.95666695   86.90380096    1.07000005    2.76999998
   15.96000004   95.25489807    1.09000003    2.76999998
   15.96305561   85.56050110    1.09000003    2.75000000
   15.96638870   94.85800171    1.09000003    2.75000000
   15.96944427   95.98169708    1.07000005    2.76999998
   15.97055531  102.43699646    1.09000003    2.76999998
   15.97305489   99.55879974    1.09000003    2.76999998
   15.97638798   93.04570007    1.09000003    2.78999996
   15.97972202   97.50620270    1.09000003    2.76999998
   15.98277760   89.39669800    1.09000003    2.76999998
   15.98611164   87.71620178    1.09000003    2.75000000
   15.98944473   90.76779938    1.07000005    2.76999998
   15.99527836   90.76779938    1.09000003    2.75000000
   15.99944496   89.56670380    1.09000003    2.76999998
   16.00277710   99.05850220    1.07000005    2.76999998
   16.00388908   87.54920197    1.07000005    2.75000000
   16.00638962   88.50749969    1.09000003    2.76999998
   16.00972176   86.72000122    1.07000005    2.76999998
   16.01305580   97.36129761    1.07000005    2.76999998
   16.01611137   90.27739716    1.07000005    2.76999998
   16.01944351   93.16690063    1.07000005    2.76999998
   16.02249908   99.36150360    1.07000005    2.76999998
   16.02583313   91.55709839    1.07000005    2.75000000
   16.02916718   92.97250366    1.07000005    2.76999998
   16.03222275   97.08209991    1.07000005    2.76999998
   16.03833199   97.08209991    1.09000003    2.76999998
   16.04222107   98.17369843    1.07000005    2.76999998
   16.04555511   96.21710205    1.09000003    2.76999998
   16.04888916   96.75939941    1.07000005    2.76999998
   16.05194283   97.26560211    1.07000005    2.78999996
   16.05527687   94.70890045    1.05999994    2.76999998
   16.05861092   89.17510223    1.05999994    2.75000000
   16.06166649   99.08010101    1.05999994    2.75000000
   16.06499863   86.05670166    1.05999994    2.75000000
   16.06805611   91.38880157    1.05999994    2.75000000
   16.07055664   88.00900269    1.05999994    2.75000000
   16.07166672   96.52330017    1.05999994    2.76999998
   16.07500076   89.31510162    1.05999994    2.75000000
   16.08111191   89.31510162    1.03999996    2.76999998
   16.08527756   95.47290039    1.03999996    2.76999998
   16.08833313   91.73770142    1.03999996    2.76999998
   16.09166718   90.69029999    1.03999996    2.76999998
   16.09500122   87.14369965    1.03999996    2.76999998
   16.09805679   94.02960205    1.03999996    2.76999998
   16.10138893   87.40670013    1.03999996    2.76999998
   16.10388947   94.18930054    1.03999996    2.76999998
   16.10499954   94.34320068    1.05999994    2.76999998
   16.10833359  101.64099884    1.05999994    2.76999998
   16.11166763  106.14199829    1.03999996    2.76999998
   16.11472321   95.05400085    1.03999996    2.76999998
   16.11805534   96.94830322    1.03999996    2.76999998
   16.12388992   96.94830322    1.01999998    2.76999998
   16.12805557   93.01640320    1.03999996    2.76999998
   16.13138962   95.61660004    1.01999998    2.76999998
   16.13444519   89.42140198    1.01999998    2.76999998
   16.13722229   92.14350128    1.01999998    2.76999998
   16.13805580   96.60489655    1.01999998    2.76999998
   16.14138794   90.16210175    1.03999996    2.78999996
   16.14472198   93.39399719    1.01999998    2.76999998
   16.14777756   94.41719818    1.01999998    2.76999998
   16.15111160   92.95719910    1.01999998    2.76999998
   16.15416718   89.64060211    1.01999998    2.76999998
   16.15749931   97.41179657    1.01999998    2.76999998
   16.16083336   78.38999939    1.01999998    2.76999998
   16.16666603   78.38999939    1.01999998    2.76999998
   16.17111015   90.79360199    1.01999998    2.76999998
   16.17444420   84.64910126    1.01999998    2.76999998
   16.17777634   91.81269836    1.01999998    2.76999998
   16.18083191   83.46869659    1.01999998    2.78999996
   16.18416595  100.34400177    1.01999998    2.76999998
   16.18777657   87.59310150    1.03999996    2.76999998
   16.19083214   89.73660278    1.03999996    2.76999998
   16.19416618   92.24330139    1.03999996    2.78999996
   16.19749832   95.57019806    1.03999996    2.76999998
   16.20055580   86.91909790    1.03999996    2.76999998
   16.20388985   86.08260345    1.03999996    2.76999998
   16.20416832   87.25920105    1.03999996    2.76999998
   16.20972252   87.25920105    1.03999996    2.76999998
   16.21361160   89.28140259    1.03999996    2.76999998
   16.21694565   89.35079956    1.03999996    2.76999998
   16.22027779   91.94950104    1.01999998    2.76999998
   16.22333336   90.54570007    1.01999998    2.76999998
   16.22666740   88.92929840    1.01999998    2.75000000
   16.23000145   89.69619751    1.01999998    2.76999998
   16.23305511   90.22080231    1.01999998    2.75000000
   16.23638916   93.26139832    1.03999996    2.76999998
   16.23722267   91.74990082    1.03999996    2.76999998
   16.23972321   85.09639740    1.03999996    2.76999998
   16.24305534   92.39320374    1.03999996    2.76999998
   16.24638939   93.78970337    1.03999996    2.76999998
   16.25250053   93.78970337    1.05999994    2.76999998
   16.25666618   94.82150269    1.03999996    2.76999998
   16.25972176   91.32990265    1.03999996    2.76999998
   16.26305580   89.03900146    1.03999996    2.78999996
   16.26638794   95.60150146    1.03999996    2.76999998
   16.26944351   92.13330078    1.03999996    2.76999998
   16.27055550   98.06009674    1.03999996    2.76999998
   16.27305603   94.50000000    1.03999996    2.76999998
   16.27638817   87.89649963    1.03999996    2.76999998
   16.27972221   90.41329956    1.03999996    2.75000000
   16.28277779   93.71569824    1.01999998    2.76999998
   16.28610992   86.36029816    1.03999996    2.76999998
   16.28944397   91.49949646    1.03999996    2.76999998
   16.29527664   91.49949646    1.03999996    2.76999998
   16.29944420   96.13459778    1.05999994    2.76999998
   16.30277634   95.07420349    1.05999994    2.76999998
   16.30388832   89.71949768    1.03999996    2.76999998
   16.30611038   93.18360138    1.05999994    2.76999998
   16.30944443   87.53549957    1.05999994    2.76999998
   16.31277657   88.72779846    1.03999996    2.76999998
   16.31583214   90.53549957    1.03999996    2.76999998
   16.31916809   95.55840302    1.03999996    2.76999998
   16.32250023   95.76869965    1.03999996    2.78999996
   16.32555580   95.05840302    1.05999994    2.76999998
   16.32888985   90.86109924    1.05999994    2.76999998
   16.33222389   88.89199829    1.05999994    2.76999998
   16.33805656   88.89199829    1.07000005    2.75000000
   16.34222221   93.30660248    1.11000001    2.76999998
   16.34555626   89.46869659    1.11000001    2.76999998
   16.34861183   88.22949982    1.11000001    2.76999998
   16.35194397   94.64350128    1.11000001    2.76999998
   16.35527802   87.73249817    1.13000000    2.76999998
   16.35833359   89.85890198    1.11000001    2.76999998
   16.36166763  100.99600220    1.13000000    2.76999998
   16.36499977   91.23049927    1.11000001    2.76999998
   16.36805534   93.85459900    1.11000001    2.76999998
   16.37055588   95.48819733    1.09000003    2.76999998
   16.37166595  102.43099976    1.09000003    2.76999998
   16.37500000   93.45760345    1.09000003    2.76999998
   16.38111115   93.45760345    1.07000005    2.76999998
   16.38500023   97.76660156    1.07000005    2.76999998
   16.38833237   88.82779694    1.05999994    2.76999998
   16.39166641   89.49459839    1.05999994    2.78999996
   16.39472198   92.15049744    1.05999994    2.78999996
   16.39805603   95.52420044    1.05999994    2.76999998
   16.40138817   99.47940063    1.03999996    2.76999998
   16.40388870   94.55200195    1.03999996    2.76999998
   16.40472221   90.96309662    1.05999994    2.76999998
   16.40805435   95.81390381    1.03999996    2.76999998
   16.41138840   92.76860046    1.03999996    2.78999996
   16.41444397   98.11239624    1.03999996    2.76999998
   16.41777802   87.68669891    1.03999996    2.76999998
   16.42388916   87.68669891    1.05999994    2.76999998
   16.42805481   93.97810364    1.05999994    2.76999998
   16.43111038   91.97059631    1.05999994    2.76999998
   16.43444443   90.54540253    1.07000005    2.76999998
   16.43722153   93.76339722    1.07000005    2.76999998
   16.43805504   96.87609863    1.07000005    2.76999998
   16.44138718   94.91909790    1.07000005    2.76999998
   16.44472122   91.62180328    1.07000005    2.76999998
   16.44777679  100.21199799    1.07000005    2.76999998
   16.45111275   97.01709747    1.05999994    2.76999998
   16.45444489   97.37860107    1.07000005    2.76999998
   16.45750046   91.31809998    1.05999994    2.76999998
   16.46083450   84.14630127    1.05999994    2.78999996
   16.46666718   84.14630127    1.03999996    2.76999998
   16.47083473   93.31420135    1.03999996    2.76999998
   16.47416687   93.50890350    1.03999996    2.76999998
   16.47722244   90.56999969    1.01999998    2.78999996
   16.48055649   91.67310333    1.01999998    2.76999998
   16.48361206   90.45690155    1.01999998    2.76999998
   16.48694420   88.49569702    1.01999998    2.78999996
   16.49027824   91.52600098    1.00000000    2.76999998
   16.49333382   88.95020294    1.00000000    2.76999998
   16.49666786   89.72750092    1.00000000    2.78999996
   16.50000000   90.00430298    0.98000002    2.78999996
   16.50305557   87.06310272    0.98000002    2.78999996
   16.50388908   94.07640076    1.00000000    2.76999998
   16.50944519   94.07640076    0.98000002    2.78999996
   16.51361084   79.75090027    0.98000002    2.76999998
   16.51694489   85.73290253    0.98000002    2.78999996
   16.52000046   93.68329620    0.98000002    2.78999996
   16.52333260   91.94960022    0.98000002    2.76999998
   16.52666664   90.64320374    0.98000002    2.78999996
   16.52972221   94.10479736    0.95999998    2.76999998
   16.53305435   99.66369629    0.95999998    2.78999996
   16.53638840   91.49629974    0.95999998    2.78999996
   16.53722191   90.70850372    0.95999998    2.78999996
   16.53999901   89.76799774    0.95999998    2.78999996
   16.54305458   88.04689789    0.95999998    2.78999996
   16.54638863   87.97319794    0.95999998    2.76999998
   16.55249977   87.97319794    0.94000000    2.78999996
   16.55638885   91.67739868    0.95999998    2.78999996
   16.55972099   87.41410065    0.95999998    2.76999998
   16.56305504   89.34950256    0.94000000    2.78999996
   16.56611061   92.62180328    0.92000002    2.78999996
   16.56944466   89.54479980    0.94000000    2.78999996
   16.57055664   89.85109711    0.94000000    2.78999996
   16.57305717   91.92189789    0.95999998    2.76999998
   16.57611275   92.43630219    0.95999998    2.78999996
   16.57944489   90.02050018    0.98000002    2.76999998
   16.58277893   89.17990112    0.98000002    2.76999998
   16.58583450   95.13220215    0.98000002    2.76999998
   16.58916664   93.81150055    0.98000002    2.76999998
   16.59527779   93.81150055    0.98000002    2.78999996
   16.59944534   96.97650146    0.98000002    2.78999996
   16.60250092   90.03739929    0.98000002    2.78999996
   16.60388947   86.68289948    0.98000002    2.76999998
   16.60639000   89.14379883    0.98000002    2.78999996
   16.60944557   94.17859650    0.98000002    2.76999998
   16.61277771  102.47000122    1.00000000    2.76999998
   16.61583328   95.23539734    1.00000000    2.76999998
   16.61916733   99.07969666    0.98000002    2.76999998
   16.62249947   91.92379761    1.00000000    2.76999998
   16.62555504   90.14209747    1.00000000    2.76999998
   16.62888908   97.20790100    1.00000000    2.78999996
   16.63222313   93.28330231    1.00000000    2.78999996
   16.63805580   93.28330231    1.00000000    2.76999998
   16.64222145   86.08190155    1.00000000    2.78999996
   16.64555550   84.84269714    1.00000000    2.76999998
   16.64861107   88.34980011    1.00000000    2.76999998
   16.65194321   85.70839691    1.00000000    2.78999996
   16.65499878  103.36599731    1.00000000    2.76999998
   16.65833282   93.53669739    1.00000000    2.76999998
   16.66166687   92.65429688    0.98000002    2.76999998
   16.66472244   89.58589935    0.98000002    2.76999998
   16.66805458   83.43080139    0.98000002    2.76999998
   16.67055511   85.14399719    0.98000002    2.78999996
   16.67194366   90.00980377    0.98000002    2.78999996
   16.67499924   88.62180328    0.98000002    2.76999998
   16.68083191   88.62180328    0.98000002    2.76999998
   16.68499947   95.73979950    1.00000000    2.76999998
   16.68833160   94.97470093    1.00000000    2.76999998
   16.69138718   97.04900360    1.00000000    2.76999998
   16.69472122  100.97000122    1.00000000    2.78999996
   16.69805527   90.41619873    1.00000000    2.76999998
   16.70111275   90.04450226    1.01999998    2.78999996
   16.70388985   96.19550323    1.00000000    2.76999998
   16.70499992   89.99669647    1.00000000    2.76999998
   16.70805550   92.81870270    1.00000000    2.78999996
   16.71138954   94.46510315    1.01999998    2.78999996
   16.71444511   86.23930359    1.01999998    2.76999998
   16.71777916   91.29270172    1.01999998    2.78999996
   16.72389030   91.29270172    1.00000000    2.76999998
   16.72777748   86.59190369    1.00000000    2.76999998
   16.73111153   91.53299713    1.00000000    2.76999998
   16.73444557   92.22429657    1.00000000    2.78999996
   16.73722267   93.70659637    1.00000000    2.78999996
   16.73805618   98.53130341    1.00000000    2.78999996
   16.74111176   94.77559662    1.00000000    2.76999998
   16.74444389   92.18730164    1.00000000    2.78999996
   16.74777794   99.03540039    1.00000000    2.78999996
   16.75083351   91.14769745    1.00000000    2.76999998
   16.75416756   90.89540100    1.01999998    2.76999998
   16.75749969   90.66480255    1.03999996    2.76999998
   16.76055527   95.35489655    1.01999998    2.78999996
   16.76666641   95.35489655    1.03999996    2.76999998
   16.77083397   98.19580078    1.03999996    2.78999996
   16.77388954   89.87539673    1.03999996    2.78999996
   16.77722168   89.73999786    1.03999996    2.78999996
   16.78055573   96.62509918    1.03999996    2.76999998
   16.78361130   99.71759796    1.03999996    2.76999998
   16.78694344   91.73059845    1.03999996    2.76999998
   16.78999901   91.87020111    1.01999998    2.76999998
   16.79333305  100.15899658    1.01999998    2.78999996
   16.79666710  103.00900269    1.00000000    2.76999998
   16.79972076  111.65299988    1.00000000    2.76999998
   16.80305481  108.44499969    1.00000000    2.78999996
   16.80388832   95.85880280    0.98000002    2.76999998
   16.82444572   95.85880280    1.03999996    2.78999996
   16.82861137  108.61799622    1.03999996    2.78999996
   16.83194542  107.36799622    1.05999994    2.78999996
   16.83500099  117.68800354    1.05999994    2.76999998
   16.83722305  111.35800171    1.05999994    2.76999998
   16.83889008  103.68900299    1.05999994    2.76999998
   16.84222221  112.93599701    1.07000005    2.76999998
   16.84527779  116.33599854    1.07000005    2.76999998
   16.84861183  110.69899750    1.09000003    2.76999998
   16.85166740  120.44599915    1.09000003    2.78999996
   16.85499954  109.31700134    1.09000003    2.78999996
   16.85833359  111.47599792    1.09000003    2.76999998
   16.86138916  105.38400269    1.07000005    2.78999996
   16.86722183  105.38400269    1.05999994    2.76999998
   16.87138939  103.06600189    1.05999994    2.78999996
   16.87472153  107.51799774    1.05999994    2.78999996
   16.87777710  100.99800110    1.05999994    2.76999998
   16.88111115  112.36399841    1.03999996    2.78999996
   16.88444519  111.00000000    1.03999996    2.76999998
   16.88750076  107.13700104    1.03999996    2.78999996
   16.89083290  105.86399841    1.03999996    2.76999998
   16.89388847  100.33799744    1.01999998    2.78999996
   16.89722252  106.95099640    1.03999996    2.78999996
   16.90055466  111.27500153    1.03999996    2.76999998
   16.90361023  113.02500153    1.03999996    2.76999998
   16.90416718  117.64399719    1.03999996    2.76999998
   16.90999985  117.64399719    1.03999996    2.76999998
   16.91416550  115.75900269    1.03999996    2.78999996
   16.91749954  107.05400085    1.03999996    2.78999996
   16.92083359   97.41259766    1.03999996    2.78999996
   16.92388916  120.33999634    1.03999996    2.76999998
   16.92722130  101.88300323    1.01999998    2.78999996
   16.93027687  112.73400116    1.01999998    2.78999996
   16.93361092  110.02999878    1.01999998    2.76999998
   16.93694305  121.99600220    1.00000000    2.76999998
   16.93750000  115.74400330    1.00000000    2.76999998
   16.94055557  129.70799255    1.01999998    2.78999996
   16.94388771  136.80700684    1.01999998    2.78999996
   16.94694328  135.64599609    1.01999998    2.78999996
   16.95305634  135.64599609    1.01999998    2.78999996
   16.95722389  130.28300476    1.03999996    2.78999996
   16.96027946  119.00599670    1.03999996    2.76999998
   16.96361160  147.73399353    1.03999996    2.76999998
   16.96666718  141.00199890    1.05999994    2.76999998
   16.97000122  159.20799255    1.05999994    2.78999996
   16.97083473  144.95199585    1.07000005    2.76999998
   16.97361183  147.28100586    1.07000005    2.76999998
   16.97694588  160.41400146    1.07000005    2.76999998
   16.98000145  173.32000732    1.07000005    2.76999998
   16.98333359  171.95399475    1.07000005    2.76999998
   16.98638916  172.81700134    1.07000005    2.76999998
   16.98972321  165.56399536    1.07000005    2.76999998
   16.99583435  165.56399536    1.07000005    2.76999998
   17.00000000  173.97700500    1.05999994    2.76999998
   17.00305557  149.17999268    1.05999994    2.76999998
   17.00416756  181.52400208    1.05999994    2.76999998
   17.00694466  154.27000427    1.05999994    2.78999996
   17.01027870  148.54699707    1.05999994    2.76999998
   17.01333427  154.12800598    1.07000005    2.76999998
   17.01666641  153.58299255    1.07000005    2.76999998
   17.01972198  147.40299988    1.07000005    2.78999996
   17.02305603  156.76600647    1.07000005    2.76999998
   17.02638817  157.43299866    1.05999994    2.78999996
   17.02944374  154.93200684    1.05999994    2.76999998
   17.03277779  145.27999878    1.05999994    2.75000000
   17.03861046  145.27999878    1.03999996    2.76999998
   17.04277802  151.61399841    1.03999996    2.76999998
   17.04611015  156.50700378    1.03999996    2.76999998
   17.04916573  145.65400696    1.03999996    2.78999996
   17.05249977  149.57299805    1.01999998    2.78999996
   17.05583191  151.68299866    1.01999998    2.76999998
   17.05888748  144.58299255    1.03999996    2.76999998
   17.06222153  127.84300232    1.03999996    2.76999998
   17.06527710  131.58599854    1.05999994    2.76999998
   17.06861115  152.89399719    1.03999996    2.76999998
   17.07083511  137.33299255    1.03999996    2.76999998
   17.07222366  131.44099426    1.03999996    2.76999998
   17.07555580  138.19400024    1.01999998    2.76999998
   17.08139038  138.19400024    1.01999998    2.78999996
   17.08555603  115.34600067    1.00000000    2.78999996
   17.08889008  134.05599976    1.01999998    2.76999998
   17.09222221  137.69500732    1.00000000    2.78999996
   17.09527779  138.09500122    1.00000000    2.76999998
   17.09861183  139.92599487    0.98000002    2.78999996
   17.10166740  131.18400574    0.98000002    2.78999996
   17.10416794  127.60299683    0.98000002    2.76999998
   17.10555649  118.73200226    0.98000002    2.76999998
   17.10888863  110.55300140    1.00000000    2.78999996
   17.11194420  129.39999390    0.98000002    2.76999998
   17.11527824  133.13099670    1.00000000    2.78999996
   17.11833382  129.99699402    1.01999998    2.76999998
   17.12444496  129.99699402    1.01999998    2.78999996
   17.12861061  120.74800110    1.01999998    2.78999996
   17.13166618  126.62899780    1.03999996    2.76999998
   17.13500023  126.01899719    1.03999996    2.76999998
   17.13750076  135.30900574    1.03999996    2.78999996
   17.13861084  115.24700165    1.05999994    2.76999998
   17.14194489  113.00099945    1.05999994    2.76999998
   17.14500046  118.89099884    1.07000005    2.76999998
   17.14833260  111.25399780    1.05999994    2.75000000
   17.15138817  115.27200317    1.05999994    2.78999996
   17.15472221  108.20500183    1.05999994    2.78999996
   17.15805435  112.55899811    1.07000005    2.76999998
   17.16110992  122.28700256    1.09000003    2.76999998
   17.16722107  122.28700256    1.09000003    2.78999996
   17.17138863  103.34200287    1.09000003    2.76999998
   17.17444420  112.07700348    1.09000003    2.78999996
   17.17777634  110.35199738    1.09000003    2.76999998
   17.18111038  107.39499664    1.09000003    2.76999998
   17.18416595  105.56600189    1.09000003    2.78999996
   17.18750000  111.41500092    1.07000005    2.76999998
   17.19055557  110.73799896    1.07000005    2.78999996
   17.19388771  121.72599792    1.07000005    2.76999998
   17.19722176  124.06600189    1.07000005    2.76999998
   17.20027924  112.00700378    1.05999994    2.76999998
   17.20361137  107.07299805    1.05999994    2.76999998
   17.20416832  105.78700256    1.05999994    2.76999998
   17.21000099  105.78700256    1.05999994    2.76999998
   17.21416664  102.94100189    1.03999996    2.76999998
   17.21750069  113.97000122    1.01999998    2.76999998
   17.22055626  101.97599792    1.01999998    2.78999996
   17.22389030   99.64409637    1.00000000    2.78999996
   17.22722244   97.42389679    1.00000000    2.78999996
   17.23027802  100.56999969    0.98000002    2.78999996
   17.23361206  107.25900269    0.98000002    2.76999998
   17.23666763   97.19760132    1.00000000    2.76999998
   17.23750114  106.94699860    1.00000000    2.76999998
   17.24027824   99.62960052    1.00000000    2.78999996
   17.24361229  105.88500214    1.01999998    2.76999998
   17.24666786  112.24299622    1.00000000    2.76999998
   17.25277710  112.24299622    1.00000000    2.76999998
   17.25694466  101.53900146    0.98000002    2.78999996
   17.26027870  105.77899933    1.00000000    2.78999996
   17.26361084  101.58399963    0.98000002    2.78999996
   17.26666641  102.56999969    0.98000002    2.76999998
   17.27000046   93.56109619    0.98000002    2.76999998
   17.27083397   96.49289703    0.98000002    2.78999996
   17.27361107  105.49299622    0.98000002    2.76999998
   17.27694511  101.73899841    0.98000002    2.76999998
   17.28000069  105.04900360    1.00000000    2.78999996
   17.28333282   99.69529724    1.00000000    2.76999998
   17.28666687   99.07399750    1.00000000    2.76999998
   17.28972244   92.03150177    1.00000000    2.76999998
   17.29583359   92.03150177    1.00000000    2.78999996
   17.29972076   92.49939728    1.03999996    2.78999996
   17.30305481   96.84790039    1.03999996    2.76999998
   17.30416679   99.22129822    1.03999996    2.76999998
   17.30666542   96.84940338    1.05999994    2.76999998
   17.30999947   92.12909698    1.05999994    2.76999998
   17.31305504   91.23889923    1.05999994    2.76999998
   17.31638718   99.04250336    1.05999994    2.76999998
   17.31972313   97.25969696    1.05999994    2.76999998
   17.32277870   95.56500244    1.05999994    2.76999998
   17.32611275   99.99669647    1.05999994    2.78999996
   17.32916832   99.58760071    1.05999994    2.76999998
   17.33250046  101.55599976    1.05999994    2.78999996
   17.33861160  101.55599976    1.03999996    2.76999998
   17.34277916   99.22319794    1.07000005    2.76999998
   17.34583473   93.34770203    1.13000000    2.78999996
   17.34916687  101.32800293    1.41999996    2.76999998
   17.35250092   96.60379791    1.46000004    2.76999998
   17.35555649   86.10710144    1.44000006    2.76999998
   17.35888863   93.40579987    1.25000000    2.76999998
   17.36194420   98.04640198    1.16999996    2.76999998
   17.36527824   93.06729889    1.07000005    2.78999996
   17.36861038   94.65609741    1.03999996    2.78999996
   17.37083435  100.18399811    1.05999994    2.78999996
   17.37222290   96.00219727    1.05999994    2.76999998
   17.37555504  101.64499664    1.09000003    2.76999998
   17.38138962  101.64499664    1.16999996    2.76999998
   17.38555527  100.45800018    1.14999998    2.76999998
   17.38888931   98.27649689    1.14999998    2.76999998
   17.39194489   95.22200012    1.13000000    2.76999998
   17.39527702   93.87310028    1.11000001    2.75000000
   17.39833260   92.54340363    1.09000003    2.76999998
   17.40166664   97.76480103    1.09000003    2.78999996
   17.40416718  104.48699951    1.09000003    2.78999996
   17.40527725  101.42400360    1.09000003    2.78999996
   17.40861130   97.07150269    1.11000001    2.78999996
   17.41166687   99.35510254    1.13000000    2.75000000
   17.41499901   98.48390198    1.13000000    2.76999998
   17.41833305  101.91899872    1.11000001    2.76999998
   17.42416573  101.91899872    1.09000003    2.76999998
   17.42833328   92.69940186    1.07000005    2.78999996
   17.43166542   93.14600372    1.05999994    2.76999998
   17.43472099   88.55300140    1.05999994    2.78999996
   17.43750000   89.54720306    1.07000005    2.78999996
   17.43833160   94.93810272    1.07000005    2.78999996
   17.44166565   92.76260376    1.09000003    2.78999996
   17.44499969   94.10649872    1.07000005    2.78999996
   17.44805527   92.79699707    1.07000005    2.76999998
   17.45138931   98.84449768    1.05999994    2.76999998
   17.45444489  101.38099670    1.07000005    2.76999998
   17.45777893   93.69090271    1.05999994    2.76999998
   17.46111107   96.24549866    1.05999994    2.78999996
   17.46722221   96.24549866    1.07000005    2.76999998
   17.47111130   89.60430145    1.09000003    2.76999998
   17.47444534  101.70999908    1.09000003    2.78999996
   17.47777748   88.55690002    1.07000005    2.76999998
   17.48083305  100.42299652    1.05999994    2.78999996
   17.48416710  101.13500214    1.05999994    2.76999998
   17.48750114   99.30570221    1.03999996    2.76999998
   17.49055672   91.18800354    1.03999996    2.76999998
   17.49388885   94.19170380    1.03999996    2.76999998
   17.49694443   91.12409973    1.01999998    2.76999998
   17.50027847   93.05049896    1.01999998    2.78999996
   17.50361061   93.08869934    1.00000000    2.76999998
   17.50416756   98.27040100    1.01999998    2.78999996
   17.51000023   98.27040100    1.00000000    2.76999998
   17.51416588  100.06900024    0.98000002    2.76999998
   17.51722145   98.90249634    1.00000000    2.76999998
   17.52055550  101.90799713    1.00000000    2.76999998
   17.52388954  108.79900360    0.98000002    2.78999996
   17.52694511   96.78209686    0.98000002    2.76999998
   17.53027725   99.85399628    0.98000002    2.78999996
   17.53361130   97.11350250    1.00000000    2.78999996
   17.53666687   93.81099701    0.98000002    2.76999998
   17.53750038   92.33560181    1.00000000    2.78999996
   17.54027748   94.48509979    1.00000000    2.76999998
   17.54361153  103.86900330    1.01999998    2.76999998
   17.54666710   98.15529633    1.01999998    2.76999998
   17.55277634   98.15529633    1.01999998    2.76999998
   17.55694389  103.32599640    1.01999998    2.78999996
   17.56027794   87.06860352    1.01999998    2.76999998
   17.56333351  105.86299896    1.01999998    2.78999996
   17.56666756   96.04940033    1.01999998    2.78999996
   17.56972313   91.60189819    1.01999998    2.78999996
   17.57083511   94.14320374    1.01999998    2.78999996
   17.57333374   98.43699646    1.01999998    2.78999996
   17.57666779   87.54930115    1.01999998    2.76999998
   17.57972336   99.24859619    1.01999998    2.76999998
   17.58305550   91.09870148    1.01999998    2.76999998
   17.58638954   94.99259949    1.01999998    2.76999998
   17.58944511   94.76609802    1.01999998    2.78999996
   17.59555626   94.76609802    1.01999998    2.76999998
   17.59972191   94.45929718    1.01999998    2.78999996
   17.60305595   93.91329956    1.01999998    2.78999996
   17.60444450   94.39009857    1.01999998    2.76999998
   17.60666656   95.14679718    1.01999998    2.78999996
   17.61000061   94.59870148    1.01999998    2.76999998
   17.61305618   90.33640289    1.01999998    2.76999998
   17.61638832   91.15950012    1.01999998    2.76999998
   17.61972237   91.41089630    1.01999998    2.76999998
   17.62277794   95.37129974    1.00000000    2.76999998
   17.62611198   90.86409760    1.00000000    2.76999998
   17.62944412   96.79160309    1.00000000    2.76999998
   17.63249969   89.97070313    1.01999998    2.76999998
   17.63861084   89.97070313    1.00000000    2.76999998
   17.64249992   94.64929962    0.98000002    2.78999996
   17.64583397   93.91390228    0.98000002    2.76999998
   17.64916611   89.33239746    0.98000002    2.78999996
   17.65222168   93.79380035    0.98000002    2.76999998
   17.65555573   92.03520203    1.00000000    2.76999998
   17.65888786   84.75540161    1.00000000    2.76999998
   17.66194344   84.97319794    1.01999998    2.76999998
   17.66527748   86.74299622    1.03999996    2.76999998
   17.66833305   87.90509796    1.03999996    2.76999998
   17.67111015   89.47779846    1.03999996    2.76999998
   17.67194366   89.75209808    1.03999996    2.76999998
   17.67527771   95.48500061    1.05999994    2.76999998
   17.68138885   95.48500061    1.05999994    2.78999996
   17.68555450   89.04260254    1.07000005    2.76999998
   17.68861008   92.78410339    1.07000005    2.76999998
   17.69194412   98.24109650    1.07000005    2.76999998
   17.69527626   96.26969910    1.07000005    2.76999998
   17.69833183   90.27570343    1.09000003    2.76999998
   17.70166779   93.17220306    1.07000005    2.76999998
   17.70444489   94.30419922    1.07000005    2.78999996
   17.70527840   87.71949768    1.07000005    2.76999998
   17.70861244   92.06970215    1.07000005    2.76999998
   17.71194458   95.33830261    1.05999994    2.76999998
   17.71500015   88.20290375    1.05999994    2.76999998
   17.71833420   90.76560211    1.05999994    2.76999998
   17.72416687   90.76560211    1.07000005    2.76999998
   17.72833443   88.69080353    1.09000003    2.76999998
   17.73166656   87.58290100    1.09000003    2.76999998
   17.73472214   87.47389984    1.11000001    2.76999998
   17.73777771   92.51329803    1.11000001    2.76999998
   17.73833275   89.20500183    1.11000001    2.76999998
   17.74166679   93.11920166    1.11000001    2.75000000
   17.74500084   94.05570221    1.09000003    2.76999998
   17.74805641   94.14320374    1.07000005    2.78999996
   17.75138855   97.05680084    1.07000005    2.75000000
   17.75444412   96.66230011    1.07000005    2.76999998
   17.75777817   91.31220245    1.05999994    2.76999998
   17.76111031   89.23010254    1.05999994    2.76999998
   17.76694489   89.23010254    1.03999996    2.76999998
   17.77111053   92.88950348    1.03999996    2.76999998
   17.77444458   98.17829895    1.05999994    2.76999998
   17.77750015   90.61550140    1.03999996    2.76999998
   17.78083229   90.63710022    1.03999996    2.76999998
   17.78416634   89.85849762    1.03999996    2.76999998
   17.78722191   94.15419769    1.03999996    2.76999998
   17.79055595   89.88719940    1.03999996    2.76999998
   17.79388809   90.63009644    1.03999996    2.76999998
   17.79694366   92.63490295    1.01999998    2.76999998
   17.80027771   87.26869965    1.01999998    2.76999998
   17.80333328   86.91369629    1.00000000    2.76999998
   17.80444336   97.74289703    1.00000000    2.76999998
   17.80972099   97.74289703    1.00000000    2.78999996
   17.81388855   89.47160339    1.01999998    2.76999998
   17.81722260   88.17089844    1.01999998    2.76999998
   17.82055664   84.84140015    1.01999998    2.76999998
   17.83805656   92.02619934    1.05999994    2.76999998
   17.84027863   84.74320221    1.03999996    2.76999998
   17.84361267   92.04550171    1.01999998    2.76999998
   17.84694481   84.45120239    1.03999996    2.76999998
   17.85277748   84.45120239    1.01999998    2.76999998
   17.85694504   93.13079834    1.01999998    2.78999996
   17.86027908   89.58380127    1.01999998    2.75000000
   17.86361122   84.31349945    1.00000000    2.75000000
   17.86666679   84.57299805    1.00000000    2.76999998
   17.87000084   85.78140259    1.01999998    2.76999998
   17.87111092   86.11460114    1.01999998    2.76999998
   17.87361145   82.56929779    1.01999998    2.76999998
   17.87694550   90.09600067    1.01999998    2.75000000
   17.88027763   90.70290375    1.00000000    2.76999998
   17.88333321   82.08249664    0.98000002    2.76999998
   17.88666725   90.53379822    1.00000000    2.76999998
   17.88972282   83.06819916    1.00000000    2.78999996
   17.89583397   83.06819916    1.01999998    2.78999996
   17.89999962   80.13539886    1.03999996    2.76999998
   17.90305519   82.41580200    1.07000005    2.76999998
   17.90444374   78.62200165    1.07000005    2.76999998
   17.90666580   85.38459778    1.07000005    2.76999998
   17.90999985   85.95130157    1.09000003    2.75000000
   17.91305542   86.82409668    1.11000001    2.76999998
   17.91638756   94.20410156    1.13000000    2.76999998
   17.91972160   87.48149872    1.13000000    2.75000000
   17.92277718   90.00389862    1.13000000    2.75000000
   17.92611122   88.61589813    1.14999998    2.75000000
   17.92916679   83.32830048    1.19000006    1.85000002
   17.93249893   87.96070099    1.14999998    2.76999998
   17.93861008   87.96070099    1.11000001    2.75000000
   17.94277763   90.79299927    1.09000003    2.76999998
   17.94583321   82.60510254    1.09000003    2.76999998
   17.94916534   88.27690125    1.07000005    2.76999998
   17.95250130   94.97940063    1.05999994    2.76999998
   17.95583344   92.56410217    1.05999994    2.76999998
   17.95888901   89.89550018    1.03999996    2.76999998
   17.96222305   90.82769775    1.03999996    2.76999998
   17.96527863   89.21790314    1.03999996    2.76999998
   17.96861076   91.67199707    1.05999994    2.76999998
   17.97111130   89.32990265    1.03999996    2.75000000
   17.97222328   90.47489929    1.03999996    2.76999998
   17.97555542   91.43139648    1.03999996    2.76999998
   17.98139000   91.43139648    1.03999996    2.76999998
   17.98555565   91.54699707    1.01999998    2.78999996
   17.98888969   92.56109619    1.01999998    2.76999998
   17.99194527   88.94629669    1.01999998    2.76999998
   17.99527740   98.05709839    1.00000000    2.76999998
   17.99861145   95.26730347    0.98000002    2.76999998
   18.00166702   94.00039673    1.00000000    2.76999998
   18.00472260   87.51110077    1.00000000    2.76999998
   18.00527763   91.77529907    1.00000000    2.76999998
   18.00861168   89.78919983    1.00000000    2.76999998
   18.01166725   92.19740295    0.98000002    2.76999998
   18.01499939   85.28690338    1.00000000    2.76999998
   18.01833344   84.14939880    0.98000002    2.76999998
   18.02416611   84.14939880    0.98000002    2.78999996
   18.02833366   89.56770325    0.98000002    2.76999998
   18.03166580   87.07499695    1.00000000    2.76999998
   18.03472137   91.43350220    1.00000000    2.76999998
   18.03777695   89.15769958    1.00000000    2.76999998
   18.03833199   86.84100342    1.01999998    2.76999998
   18.04166603   85.92980194    1.03999996    2.76999998
   18.04500008   83.13079834    1.05999994    2.76999998
   18.04805565   95.07849884    1.07000005    2.76999998
   18.05138779   85.15529633    1.09000003    2.76999998
   18.05444336   83.85910034    1.09000003    2.76999998
   18.05777740   85.07559967    1.09000003    2.75000000
   18.06110954   86.53140259    1.09000003    2.75000000
   18.06722260   86.53140259    1.09000003    2.76999998
   18.07139015   82.95220184    1.07000005    2.76999998
   18.07444572   76.63960266    1.07000005    2.76999998
   18.07777786   88.35690308    1.07000005    2.75000000
   18.08083344   85.62909698    1.07000005    2.75000000
   18.08416748   91.98049927    1.05999994    2.75000000
   18.08750153   87.17350006    1.05999994    2.76999998
   18.09055710   85.38020325    1.05999994    2.76999998
   18.09388924   81.09159851    1.05999994    2.78999996
   18.09722328   88.09310150    1.05999994    2.76999998
   18.10027885   77.41040039    1.07000005    2.76999998
   18.10361099   84.43499756    1.07000005    2.76999998
   18.10472298   83.62950134    1.09000003    2.76999998
   18.11000061   83.62950134    1.07000005    2.76999998
   18.11416626   92.72109985    1.07000005    2.76999998
   18.11722183   91.46389771    1.07000005    2.76999998
   18.12055588   76.60369873    1.05999994    2.75000000
   18.12388992   89.48829651    1.05999994    2.76999998
   18.12694550   80.61380005    1.05999994    2.75000000
   18.13027763   90.19349670    1.03999996    2.76999998
   18.13333321   78.35569763    1.05999994    2.75000000
   18.13666725   89.92240143    1.01999998    2.76999998
   18.13805580   85.28929901    1.01999998    2.76999998
   18.14027786   93.35030365    1.01999998    2.76999998
   18.14361191   90.22830200    1.01999998    2.76999998
   18.14666748   83.08789825    1.01999998    2.75000000
   18.15277672   83.08789825    1.01999998    2.76999998
   18.15694427   89.57499695    1.03999996    2.76999998
   18.16027832   90.79270172    1.01999998    2.76999998
   18.16333389   86.35449982    1.01999998    2.76999998
   18.16666603   79.42009735    1.00000000    2.76999998
   18.16972160   87.87419891    1.01999998    2.76999998
   18.17138863   85.73259735    1.11000001    2.75000000
   18.17333221   83.00080109    1.13000000    2.75000000
   18.17666626   78.11969757    1.16999996    2.75000000
   18.17972183   82.91500092    1.16999996    2.75000000
   18.18305397   80.34359741    1.14999998    2.76999998
   18.18638802   79.91159821    1.13000000    2.75000000
   18.18944359   84.86389923    1.11000001    2.75000000
   18.19555473   84.86389923    1.09000003    2.76999998
   18.19972038   84.13020325    1.09000003    2.76999998
   18.20305634   91.08419800    1.07000005    2.76999998
   18.20472336   85.44370270    1.07000005    2.76999998
   18.20666695   82.86170197    1.07000005    2.76999998
   18.21000099   85.08769989    1.07000005    2.76999998
   18.21333504   90.40010071    1.09000003    2.75000000
   18.21638870   80.15000153    1.09000003    2.75000000
   18.21972275   79.79129791    1.11000001    2.75000000
   18.22305679   86.33129883    1.11000001    2.75000000
   18.22611237   88.21399689    1.11000001    2.75000000
   18.22944450   85.21119690    1.14999998    2.75000000
   18.23250008   84.07309723    1.16999996    2.75000000
   18.23861122   84.07309723    1.16999996    2.73000002
   18.24250031   88.76139832    1.16999996    2.75000000
   18.24583435   85.94550323    1.14999998    2.75000000
   18.24916649   98.76219940    1.14999998    2.75000000
   18.25222206   86.73459625    1.14999998    2.75000000
   18.25555611   88.55020142    1.13000000    2.73000002
   18.25888824   80.19850159    1.14999998    2.75000000
   18.26222229   85.84239960    1.14999998    2.76999998
   18.26527786   95.14060211    1.19000006    2.75000000
   18.26861000   74.40529633    1.19000006    2.75000000
   18.27138901   86.05979919    1.16999996    2.75000000
   18.27222252   90.91539764    1.16999996    2.75000000
   18.27555466   80.80709839    1.13000000    2.75000000
   18.28138924   80.80709839    1.14999998    2.75000000
   18.28555489   81.14969635    1.14999998    2.73000002
   18.28861046   83.56420135    1.19000006    2.75000000
   18.29194450   84.11669922    1.16999996    2.73000002
   18.29527664   82.07839966    1.16999996    2.75000000
   18.29833221   86.38009644    1.16999996    2.75000000
   18.30166626   86.75379944    1.16999996    2.75000000
   18.30472183   87.42430115    1.16999996    2.75000000
   18.30527687   92.84470367    1.16999996    2.75000000
   18.30861092   88.11869812    1.14999998    2.75000000
   18.31194305   86.70899963    1.16999996    2.75000000
   18.31499863   89.59140015    1.16999996    2.75000000
   18.31833458   92.94059753    1.16999996    2.73000002
   18.32416725   92.94059753    1.21000004    2.73000002
   18.32833481   89.66220093    1.21000004    2.75000000
   18.33166695   78.75379944    1.19000006    2.75000000
   18.33472252   89.49870300    1.19000006    2.75000000
   18.33805656   87.04579926    1.19000006    2.73000002
   18.33833313   95.40979767    1.19000006    2.73000002
   18.34166718   81.82199860    1.19000006    2.75000000
   18.34500122   83.02929688    1.14999998    2.75000000
   18.34805679   82.04019928    1.14999998    2.75000000
   18.35138893   80.23889923    1.13000000    2.75000000
   18.35472298   81.60320282    1.14999998    2.75000000
   18.35805511   84.63020325    1.16999996    2.75000000
   18.36111069   89.24269867    1.19000006    2.75000000
   18.36694527   89.24269867    1.16999996    2.75000000
   18.37111092   81.52390289    1.19000006    2.75000000
   18.37166595   77.84580231    1.21000004    2.75000000
   18.37500000   83.05139923    1.21000004    2.75000000
   18.37833405   88.17610168    1.23000002    2.75000000
   18.38138962   84.25820160    1.21000004    2.75000000
   18.38472176   81.32710266    1.16999996    2.73000002
   18.38777733   83.10880280    1.14999998    2.75000000
   18.39111137   88.52320099    1.13000000    2.75000000
   18.39444351   86.19210052    1.13000000    2.75000000
   18.39749908   81.59539795    1.09000003    2.73000002
   18.40083313   87.77050018    1.09000003    2.75000000
   18.40416718   84.78500366    1.07000005    2.75000000
   18.40499878   86.33219910    1.07000005    2.75000000
   18.40999985   86.33219910    1.11000001    2.75000000
   18.41388893   83.70939636    1.16999996    2.73000002
   18.41722107   82.72769928    1.19000006    2.75000000
   18.42055511   85.04219818    1.19000006    2.75000000
   18.42361069   86.60610199    1.19000006    2.75000000
   18.42694473   85.92949677    1.19000006    2.75000000
   18.43027687   82.82530212    1.19000006    2.75000000
   18.43333244   79.15920258    1.19000006    2.75000000
   18.43666649   80.58769989    1.19000006    2.75000000
   18.43833160   86.21540070    1.19000006    2.75000000
   18.44027710   81.21340179    1.19000006    2.75000000
   18.44333267   85.26200104    1.19000006    2.73000002
   18.44666672   85.18409729    1.19000006    2.75000000
   18.45277786   85.18409729    1.19000006    2.73000002
   18.45694542   85.83809662    1.16999996    2.73000002
   18.46000099   91.74569702    1.16999996    2.75000000
   18.46333504   85.69450378    1.16999996    2.75000000
   18.46666718   89.09069824    1.16999996    2.75000000
   18.46972275   90.96839905    1.19000006    2.75000000
   18.47166634   82.18930054    1.19000006    2.75000000
   18.47361183   79.81620026    1.19000006    2.75000000
   18.47666740   81.72859955    1.19000006    2.73000002
   18.48000145   86.59100342    1.19000006    2.73000002
   18.48333359   83.05339813    1.19000006    2.75000000
   18.48638916   91.47730255    1.23000002    2.73000002
   18.48972321   85.31860352    1.28999996    2.73000002
   18.49555588   85.31860352    1.28999996    2.73000002
   18.49972153   84.78170013    1.30999994    2.73000002
   18.50305557   87.57640076    1.28999996    2.73000002
   18.50499916   90.07649994    1.28999996    2.73000002
   18.50666618   96.89089966    1.28999996    2.73000002
   18.50972176   85.53949738    1.28999996    2.73000002
   18.51305580   85.02619934    1.30999994    2.73000002
   18.51638794   84.85089874    1.28999996    2.73000002
   18.51944351   80.94519806    1.26999998    2.73000002
   18.52277756   87.10399628    1.25000000    2.75000000
   18.52611160   84.56759644    1.21000004    2.73000002
   18.52916718   87.08750153    1.21000004    2.73000002
   18.53249931   81.57990265    1.21000004    2.73000002
   18.53833199   81.57990265    1.21000004    2.73000002
   18.54249954   83.01529694    1.21000004    2.73000002
   18.54583359   74.87770081    1.21000004    2.73000002
   18.54888916   84.37789917    1.21000004    2.73000002
   18.55222130   84.55529785    1.21000004    2.75000000
   18.55555534   77.62640381    1.21000004    2.73000002
   18.55861092   83.90299988    1.21000004    2.75000000
   18.56194305   86.61049652    1.21000004    2.73000002
   18.56527710   80.90920258    1.19000006    2.73000002
   18.56833458   84.27050018    1.19000006    2.73000002
   18.57166672   85.82050323    1.16999996    2.73000002
   18.57222366   80.21890259    1.19000006    2.73000002
   18.57527924   88.70619965    1.16999996    2.75000000
   18.58139038   88.70619965    1.16999996    2.75000000
   18.58527756   90.27729797    1.16999996    2.75000000
   18.58861160   84.75530243    1.16999996    2.73000002
   18.59222221   89.13929749    1.16999996    2.75000000
   18.59527779   87.11000061    1.16999996    2.75000000
   18.59861183   84.22940063    1.16999996    2.75000000
   18.60194397   76.35089874    1.16999996    2.75000000
   18.60499954   79.86309814    1.16999996    2.73000002
   18.60555649   80.51770020    1.16999996    2.73000002
   18.60861206   81.03340149    1.16999996    2.73000002
   18.61166763   82.15730286    1.14999998    2.73000002
   18.61499977   85.23670197    1.14999998    2.75000000
   18.61833382   85.81330109    1.14999998    2.73000002
   18.62416649   85.81330109    1.11000001    2.75000000
   18.62833405   83.59079742    1.11000001    2.73000002
   18.63138962   85.85050201    1.11000001    2.73000002
   18.63472176   85.55709839    1.07000005    2.73000002
   18.63805580   78.90059662    1.05999994    2.73000002
   18.63888931   88.24620056    1.05999994    2.73000002
   18.64166641   82.47010040    1.05999994    2.73000002
   18.64472198   80.39340210    1.07000005    2.73000002
   18.64805603   84.51809692    1.00000000    2.75000000
   18.65138817   87.96959686    1.00000000    2.75000000
   18.65444374   85.27259827    1.00000000    2.73000002
   18.65777779   81.90149689    1.01999998    2.75000000
   18.66110992   84.95529938    1.00000000    2.75000000
   18.66694450   84.95529938    1.00000000    2.73000002
   18.67111015   80.85870361    1.00000000    2.75000000
   18.67222214   87.10410309    1.00000000    2.75000000
   18.67472076   86.93789673    1.00000000    2.75000000
   18.67777634   86.49410248    1.01999998    2.75000000
   18.68111038   85.01689911    0.95999998    2.75000000
   18.68444443   89.39309692    0.95999998    2.75000000
   18.68750000   89.02610016    0.95999998    2.75000000
   18.69083214   86.31410217    0.98000002    2.75000000
   18.69416618   95.28230286    1.00000000    2.75000000
   18.69722176   90.08910370    1.00000000    2.75000000
   18.70055580   85.80020142    1.00000000    2.75000000
   18.70361137   79.41570282    0.98000002    2.75000000
   18.70555687   90.27809906    1.00000000    2.75000000
   18.70972252   90.27809906    1.01999998    2.75000000
   18.71389008   84.87909698    1.01999998    2.73000002
   18.71722221   83.45210266    1.03999996    2.75000000
   18.72027779   92.66909790    1.03999996    2.75000000
   18.72361183   88.22299957    1.03999996    2.73000002
   18.72694588   84.52829742    1.09000003    2.73000002
   18.73000145   82.75430298    1.09000003    2.73000002
   18.73333359   94.93260193    1.16999996    2.73000002
   18.73638916   87.17990112    1.16999996    2.73000002
   18.73888969   83.25830078    1.19000006    2.71000004
   18.74027824   87.00319672    1.19000006    2.71000004
   18.74333382   89.33719635    1.19000006    2.73000002
   18.74666786   83.71530151    1.19000006    2.73000002
   18.75666618   88.19300079    1.23000002    2.71000004
   18.76000023   86.49639893    1.23000002    2.73000002
   18.76305580   91.87280273    1.23000002    2.73000002
   18.76638794   86.38230133    1.23000002    2.71000004
   18.76972198   84.65119934    1.21000004    2.73000002
   18.77222252   86.53459930    1.21000004    2.73000002
   18.77333260   82.65540314    1.19000006    2.73000002
   18.77638817   92.15699768    1.19000006    2.73000002
   18.77972221   90.90679932    1.19000006    2.71000004
   18.78305435   93.71029663    1.19000006    2.73000002
   18.78610992   85.32689667    1.16999996    2.73000002
   18.78944397   85.52680206    1.14999998    2.75000000
   18.79555511   85.52680206    1.14999998    2.73000002
   18.79972076   86.79900360    1.13000000    2.73000002
   18.80277634   86.97769928    1.11000001    2.73000002
   18.80555534   91.26020050    1.09000003    2.73000002
   18.80638885   82.47830200    1.09000003    2.73000002
   18.80944443   77.27169800    1.09000003    2.73000002
   18.81277657   83.65640259    1.07000005    2.75000000
   18.81611061   81.28600311    1.16999996    2.73000002
   18.81944466   90.23090363    1.30999994    2.73000002
   18.82250023   88.47470093    1.25000000    2.75000000
   18.82583427   81.75170135    1.25000000    2.75000000
   18.82888985   81.44979858    1.38000000    2.73000002
   18.83222389   79.39769745    1.41999996    2.73000002
   18.83833313   79.39769745    1.34000003    2.73000002
   18.85666656   82.30280304    1.00000000    2.75000000
   18.86000061   78.65260315    0.98000002    2.75000000
   18.86333466   78.12709808    0.98000002    2.75000000
   18.86638832   86.87519836    0.98000002    2.73000002
   18.86972237   82.91950226    0.98000002    2.75000000
   18.87277794   77.06420135    0.98000002    2.75000000
   18.87611198   85.65450287    0.95999998    2.75000000
   18.88138962   85.65450287    0.94000000    2.73000002
   18.88555527   82.96749878    0.94000000    2.73000002
   18.88888931   79.07800293    0.94000000    2.73000002
   18.88972282   83.71549988    0.94000000    2.73000002
   18.89249992   88.02510071    0.94000000    2.73000002
   18.89583397   82.17209625    0.94000000    2.75000000
   18.89888954   82.12359619    0.94000000    2.75000000
   18.90222168   82.23549652    0.95999998    2.73000002
   18.90527725   82.66560364    0.95999998    2.73000002
   18.90861130   85.75579834    0.98000002    2.75000000
   18.91194344   78.94390106    0.98000002    2.73000002
   18.91499901   82.17900085    1.09000003    2.73000002
   18.91833305   86.58999634    1.07000005    2.73000002
   18.92416573   86.58999634    1.07000005    2.75000000
   18.92833328   86.13469696    1.13000000    2.75000000
   18.93166542   83.57080078    1.13000000    2.75000000
   18.93499947   89.44509888    1.03999996    2.75000000
   18.93805504   82.47229767    1.03999996    2.75000000
   18.94138718   80.92220306    1.03999996    2.75000000
   18.94444275   88.26840210    1.01999998    2.73000002
   18.94777679   85.69670105    0.98000002    2.73000002
   18.95111275   89.63339996    0.98000002    2.73000002
   18.95416832   90.36699677    1.01999998    2.73000002
   18.95639038   87.86309814    1.00000000    2.73000002
   18.95777893   90.46690369    1.00000000    2.73000002
   18.96111107   90.57559967    1.00000000    2.75000000
   18.96722221   90.57559967    1.01999998    2.71000004
   18.97138977   87.71160126    1.01999998    2.73000002
   18.97444534   81.82830048    1.01999998    2.71000004
   18.97777748   85.82540131    1.01999998    2.73000002
   18.98083305   80.92970276    1.00000000    2.73000002
   18.98416710   83.61489868    1.00000000    2.73000002
   18.98750114   78.78520203    1.00000000    2.73000002
   18.98972321   82.94740295    1.00000000    2.73000002
   18.99111176   84.88960266    1.00000000    2.73000002
   18.99444389   84.38449860    1.00000000    2.73000002
   18.99749947   79.93019867    1.00000000    2.73000002
   19.00083351   83.52950287    1.01999998    2.73000002
   19.00388908   84.25000000    1.01999998    2.73000002
   19.01000023   84.25000000    0.98000002    2.73000002
   19.01416588   79.35639954    1.01999998    2.73000002
   19.01749992   81.37470245    1.00000000    2.73000002
   19.02055550   82.79679871    1.01999998    2.71000004
   19.02305603   81.44650269    1.01999998    2.71000004
   19.02416611   83.38179779    1.01999998    2.73000002
   19.02750015   84.89949799    1.01999998    2.71000004
   19.03055573   86.43779755    1.00000000    2.73000002
   19.03388786   85.33470154    1.00000000    2.73000002
   19.03694344   81.70290375    1.00000000    2.73000002
   19.04027748   88.91010284    0.98000002    2.73000002
   19.04361153   86.28500366    0.98000002    2.73000002
   19.04666710   89.21279907    0.95999998    2.73000002
   19.05277634   89.21279907    0.95999998    2.73000002
   19.05694389   89.28820038    0.95999998    2.73000002
   19.06027794   87.83760071    0.94000000    2.73000002
   19.06333351   84.88240051    0.94000000    2.73000002
   19.06666756   92.21849823    0.94000000    2.73000002
   19.06972313   89.04810333    0.94000000    2.73000002
   19.07305717   85.22319794    0.94000000    2.73000002
   19.07638931   93.28029633    0.94000000    2.73000002
   19.07944489   84.79149628    0.94000000    2.73000002
   19.08277893   87.04560089    0.95999998    2.71000004
   19.08611107   85.11849976    0.98000002    2.71000004
   19.08916664   86.38960266    1.00000000    2.71000004
   19.08972359   85.22609711    1.00000000    2.71000004
   19.09555626   85.22609711    1.00000000    2.71000004
   19.09972191   85.63539886    0.98000002    2.73000002
   19.10305595   86.15889740    0.98000002    2.71000004
   19.10611153   83.53140259    0.98000002    2.73000002
   19.10944557   84.60109711    0.95999998    2.73000002
   19.11277771   87.88030243    0.95999998    2.71000004
   19.11583328   85.79180145    0.94000000    2.73000002
   19.11916733   85.62509918    0.94000000    2.73000002
   19.12249947   87.29010010    0.94000000    2.73000002
   19.12305641   86.29560089    0.92000002    2.71000004
   19.12611198   80.87319946    0.92000002    2.73000002
   19.12944412   86.60299683    0.89999998    2.73000002
   19.13249969   84.55139923    0.89999998    2.73000002
   19.13861084   84.55139923    0.88000000    2.75000000
   19.14277840   86.77809906    0.88000000    2.73000002
   19.14583397   87.23139954    0.88000000    2.73000002
   19.14916611   88.48059845    0.88000000    2.73000002
   19.15250015   87.53820038    0.88000000    2.71000004
   19.15555573   83.92520142    0.88000000    2.73000002
   19.15638924   84.72299957    0.88000000    2.73000002
   19.15916634   90.83740234    0.86000001    2.73000002
   19.16250038   91.18579865    0.88000000    2.73000002
   19.16555595   87.63950348    0.88000000    2.73000002
   19.16888809   93.72389984    0.88000000    2.73000002
   19.17222214   90.74240112    0.88000000    2.73000002
   19.17527771   88.83090210    0.88000000    2.73000002
   19.18138885   88.83090210    0.88000000    2.73000002
   19.18555450   90.07569885    0.83999997    2.73000002
   19.18861008   90.75389862    0.83999997    2.73000002
   19.18972206   82.30210114    0.83999997    2.73000002
   19.19222069   84.92919922    0.83999997    2.73000002
   19.19555473   87.12319946    0.83999997    2.73000002
   19.19861031   86.43640137    0.81999999    2.73000002
   19.20194435   89.04260254    0.81999999    2.73000002
   19.20527840   86.25160217    0.81999999    2.73000002
   19.20833397   82.33840179    0.81999999    2.73000002
   19.21166801   90.18460083    0.81999999    2.73000002
   19.21472359   86.58390045    0.81999999    2.73000002
   19.21805573   88.06269836    0.81999999    2.73000002
   19.22416687   88.06269836    0.80000001    2.73000002
   19.22833443   92.59660339    0.80000001    2.73000002
   19.23166656   91.12280273    0.80000001    2.73000002
   19.23472214   89.76390076    0.80000001    2.73000002
   19.23805618   93.54550171    0.79000002    2.73000002
   19.24138832   90.00270081    0.79000002    2.73000002
   19.24444389   89.63819885    0.80000001    2.73000002
   19.24777794   90.84870148    0.80000001    2.73000002
   19.25111198   88.32749939    0.79000002    2.73000002
   19.25416756   81.47499847    0.79000002    2.73000002
   19.25638962   83.55780029    0.79000002    2.73000002
   19.25777817   88.49680328    0.79000002    2.73000002
   19.26111031   89.57689667    0.79000002    2.73000002
   19.26694489   89.57689667    0.79000002    2.73000002
   19.27111053   96.34660339    0.76999998    2.73000002
   19.27444458   82.40350342    0.79000002    2.75000000
   19.27777672   91.78910065    0.76999998    2.73000002
   19.28083229   95.88960266    0.79000002    2.75000000
   19.28416634   90.61419678    0.79000002    2.73000002
   19.28722191   94.88420105    0.79000002    2.73000002
   19.28972244   94.11309814    0.80000001    2.73000002
   19.29083252   88.30729675    0.80000001    2.73000002
   19.29416656   89.88680267    0.80000001    2.73000002
   19.29722214   83.34750366    0.80000001    2.73000002
   19.30055428   94.01349640    0.80000001    2.73000002
   19.30360985   90.19819641    0.80000001    2.73000002
   19.30999947   90.19819641    0.81999999    2.73000002
   19.31388855   90.53749847    0.86000001    2.71000004
   19.31722260   87.87120056    0.86000001    2.71000004
   19.32055664   94.72689819    0.88000000    2.71000004
   19.32305717   91.84390259    0.89999998    2.71000004
   19.32416725   86.32129669    0.89999998    2.71000004
   19.32750130   98.09110260    0.92000002    2.71000004
   19.33055687   94.63639832    0.92000002    2.71000004
   19.33388901   90.45950317    0.94000000    2.71000004
   19.33694458   92.17140198    0.94000000    2.71000004
   19.34027863   95.95200348    0.94000000    2.71000004
   19.34361267   94.26419830    0.94000000    2.71000004
   19.34666824   94.98580170    0.94000000    2.71000004
   19.35277748   94.98580170    0.94000000    2.69000006
   19.35694504  101.63200378    0.94000000    2.71000004
   19.36000061   90.83809662    0.94000000    2.71000004
   19.36333466   94.39969635    0.89999998    2.71000004
   19.36666679   96.80290222    0.89999998    2.71000004
   19.36972237   94.11930084    0.92000002    2.71000004
   19.37305641  100.15899658    0.92000002    2.71000004
   19.37611198   92.92359924    0.89999998    2.71000004
   19.37944412   95.32109833    0.89999998    2.71000004
   19.38277817   91.19419861    0.92000002    2.71000004
   19.38583374   88.25530243    0.92000002    2.71000004
   19.38916588   91.21829987    0.95999998    2.71000004
   19.38999939   93.07669830    0.95999998    2.71000004
   19.39555550   93.07669830    0.98000002    2.71000004
   19.39972115   91.08380127    0.89999998    2.71000004
   19.40305519   98.99770355    0.89999998    2.71000004
   19.40611076   92.95580292    0.88000000    2.71000004
   19.40944481   98.63240051    0.88000000    2.71000004
   19.41277695   96.28669739    0.88000000    2.71000004
   19.41583252   93.77320099    0.88000000    2.71000004
   19.41916656   96.66819763    0.88000000    2.73000002
   19.42249870   94.30380249    0.89999998    2.71000004
   19.42305565  101.73699951    0.89999998    2.71000004
   19.42611122   93.37339783    0.89999998    2.71000004
   19.42944336   98.39270020    0.89999998    2.71000004
   19.43249893   96.75659943    0.89999998    2.71000004
   19.43833160   96.75659943    0.94000000    2.69000006
   19.44249916   93.32769775    0.95999998    2.69000006
   19.44583321   97.27890015    0.95999998    2.71000004
   19.44916534   98.84200287    0.95999998    2.71000004
   19.45222282   94.39189911    0.98000002    2.71000004
   19.45555687   87.38089752    0.98000002    2.71000004
   19.45639038   93.97660065    0.98000002    2.69000006
   19.45916748   87.87809753    0.98000002    2.69000006
   19.46250153   84.19429779    0.98000002    2.69000006
   19.46555710   91.64369965    0.98000002    2.69000006
   19.46888924   90.36119843    1.00000000    2.69000006
   19.47222328   90.10050201    1.03999996    2.69000006
   19.47527885   89.25219727    1.03999996    2.69000006
   19.48139000   89.25219727    1.07000005    2.69000006
   19.48527718   93.00509644    1.07000005    2.69000006
   19.48861122   89.90290070    1.07000005    2.69000006
   19.48972321   97.73760223    1.07000005    2.69000006
   19.49222183   94.39440155    1.07000005    2.69000006
   19.49555588  107.47599792    1.07000005    2.69000006
   19.49861145   97.78140259    1.07000005    2.67000008
   19.50194359   94.30799866    1.07000005    2.67000008
   19.50527763   97.99539948    1.05999994    2.69000006
   19.50833321   95.24629974    1.05999994    2.69000006
   19.51166725  103.09500122    1.05999994    2.69000006
   19.51499939   97.87290192    1.05999994    2.69000006
   19.51805496   92.17649841    0.98000002    2.69000006
   19.52416611   92.17649841    0.98000002    2.69000006
   19.52833366   98.56289673    1.00000000    2.69000006
   19.53138924   97.59359741    0.98000002    2.69000006
   19.53472137  102.16300201    1.00000000    2.67000008
   19.53805542   94.51149750    0.95999998    2.69000006
   19.54111099   93.83519745    0.95999998    2.69000006
   19.54444313   92.30220032    0.92000002    2.69000006
   19.54749870   86.87550354    0.92000002    2.69000006
   19.55083275   92.32720184    0.92000002    2.69000006
   19.55416679   91.82939911    0.92000002    2.69000006
   19.55666542   93.22360229    0.89999998    2.69000006
   19.55777740   86.67749786    0.89999998    2.69000006
   19.56110954   85.33760071    0.88000000    2.69000006
   19.56694603   85.33760071    0.86000001    2.69000006
   19.57111168   92.59860229    0.86000001    2.69000006
   19.57444572   94.76629639    0.86000001    2.69000006
   19.57750130   92.15509796    0.86000001    2.69000006
   19.58083344   93.65660095    0.86000001    2.69000006
   19.58416748   97.04669952    0.86000001    2.69000006
   19.58722305   91.11509705    0.86000001    2.69000006
   19.59000015   94.58910370    0.86000001    2.69000006
   19.59083366   90.98139954    0.86000001    2.69000006
   19.59416771   95.71829987    0.86000001    2.69000006
   19.59722328   90.26740265    0.88000000    2.69000006
   19.60055542   90.78130341    0.89999998    2.69000006
   19.60388947   96.36049652    0.92000002    2.69000006
   19.60972214   96.36049652    0.88000000    2.69000006
   19.61388969   93.64600372    0.88000000    2.69000006
   19.61722183  100.06700134    0.88000000    2.69000006
   19.62027740   92.18769836    0.86000001    2.69000006
   19.62333298   95.08270264    0.88000000    2.71000004
   19.62388992   95.21749878    0.88000000    2.69000006
   19.62722206   96.56030273    0.86000001    2.69000006
   19.63027763   92.38339996    0.86000001    2.69000006
   19.63361168   97.13310242    0.86000001    2.69000006
   19.63694382   98.95700073    0.86000001    2.69000006
   19.63999939   91.04070282    0.86000001    2.69000006
   19.64333344   93.10250092    0.89999998    2.69000006
   19.64638901   97.99050140    0.89999998    2.67000008
   19.65277672   97.99050140    0.89999998    2.69000006
   19.65694427   93.88809967    0.89999998    2.69000006
   19.65999985   93.86530304    0.89999998    2.69000006
   19.66333389   97.50959778    0.88000000    2.69000006
   19.66638756  103.62799835    0.89999998    2.69000006
   19.66972160   89.00379944    0.88000000    2.67000008
   19.67305565   94.58070374    0.88000000    2.69000006
   19.67611122   91.59760284    0.88000000    2.69000006
   19.67944336   90.75360107    0.88000000    2.69000006
   19.68277740   87.93329620    0.88000000    2.69000006
   19.68583298   93.46690369    0.88000000    2.69000006
   19.68916512   96.35230255    0.92000002    2.69000006
   19.68999863   89.36810303    0.89999998    2.67000008
   19.69555473   89.36810303    0.92000002    2.69000006
   19.69972038   97.89170074    0.94000000    2.67000008
   19.70277786   89.22840118    0.94000000    2.67000008
   19.70611191   95.62560272    0.94000000    2.67000008
   19.70944595   93.24720001    0.94000000    2.67000008
   19.71250153   91.12470245    0.94000000    2.67000008
   19.71583366   98.02030182    0.94000000    2.67000008
   19.71888924   95.86650085    0.94000000    2.69000006
   19.72222328   91.98909760    0.94000000    2.67000008
   19.72333336   89.06780243    0.94000000    2.67000008
   19.72583389  102.04100037    0.92000002    2.69000006
   19.72916794   97.56900024    0.92000002    2.67000008
   19.73222351   95.78469849    0.92000002    2.67000008
   19.73833275   95.78469849    0.94000000    2.67000008
   19.74250031  100.48600006    0.92000002    2.67000008
   19.74583435   98.34719849    0.94000000    2.67000008
   19.74888992   94.65509796    0.94000000    2.69000006
   19.75222206   94.43679810    0.94000000    2.67000008
   19.75555611   93.42639923    0.94000000    2.67000008
   19.75666618  101.93699646    1.00000000    2.66000009
   19.75888824  100.36100006    0.98000002    2.67000008
   19.76222229  103.05300140    1.01999998    2.66000009
   19.76527786   83.85569763    1.01999998    2.66000009
   19.76861000  100.79000092    1.01999998    2.67000008
   19.77194405   92.35700226    1.01999998    2.67000008
   19.77499962   94.83889771    1.00000000    2.67000008
   19.78111076   94.83889771    1.01999998    2.67000008
   19.78527641   94.72730255    1.01999998    2.66000009
   19.78861046   94.39119720    1.03999996    2.66000009
   19.78999901   89.14600372    1.03999996    2.66000009
   19.79222107   95.97540283    1.03999996    2.66000009
   19.79555511   96.93759918    1.03999996    2.66000009
   19.79861069  100.63600159    1.05999994    2.66000009
   19.80194283   95.24539948    1.05999994    2.66000009
   19.80527687   91.08879852    1.05999994    2.67000008
   19.80833244   94.82140350    1.01999998    2.67000008
   19.81166649   85.82820129    1.03999996    2.66000009
   19.81499863   99.97119904    1.07000005    2.66000009
   19.81805611   88.39540100    1.07000005    2.66000009
   19.82416725   88.39540100    1.09000003    2.66000009
   19.82805634   91.09020233    1.07000005    2.64000010
   19.83139038   95.82440186    1.07000005    2.66000009
   19.83472252   89.72270203    1.05999994    2.66000009
   19.83777809   93.17259979    1.05999994    2.66000009
   19.84111214   97.29409790    1.05999994    2.67000008
   19.84444427   93.20639801    1.03999996    2.67000008
   19.84749985   96.19860077    1.01999998    2.66000009
   19.85083389   94.82160187    1.01999998    2.66000009
   19.85388947  101.46499634    1.01999998    2.66000009
   19.85666656   93.57649994    1.01999998    2.66000009
   19.87722206   93.57649994    1.09000003    2.66000009
   19.88138962   92.45659637    1.11000001    2.66000009
   19.88472176   88.13159943    1.13000000    2.64000010
   19.88777733   97.63279724    1.16999996    2.64000010
   19.88999939   92.05419922    1.16999996    2.64000010
   19.89138794   92.56870270    1.16999996    2.64000010
   19.89472198   98.87640381    1.16999996    2.64000010
   19.89805603   94.88220215    1.16999996    2.64000010
   19.90111160   90.10140228    1.19000006    2.64000010
   19.90444374   94.97589874    1.21000004    2.64000010
   19.90777779   95.48989868    1.21000004    2.64000010
   19.91083336   93.69670105    1.23000002    2.64000010
   19.91416550   98.32089996    1.21000004    2.64000010
   19.92000008   98.32089996    1.19000006    2.64000010
   19.92416573   90.60469818    1.19000006    2.64000010
   19.92722130  102.72299957    1.19000006    2.64000010
   19.93055534   91.92910004    1.16999996    2.64000010
   19.93388748   98.84860229    1.16999996    2.64000010
   19.93694305   94.41560364    1.16999996    2.64000010
   19.94027710   97.49569702    1.13000000    2.61999989
   19.94333267   98.41400146    1.13000000    2.64000010
   19.94666672   97.93879700    1.14999998    2.64000010
   19.95000076   96.16770172    1.14999998    2.64000010
   19.95305634   87.63289642    1.14999998    2.64000010
   19.95639038   93.57330322    1.11000001    2.64000010
   19.95694542   92.59310150    1.11000001    2.64000010
   19.96277809   92.59310150    1.11000001    2.64000010
   19.96694565   87.76930237    1.11000001    2.66000009
   19.97027779   87.55940247    1.09000003    2.64000010
   19.97333336   88.44129944    1.09000003    2.64000010
   19.97666740   94.34680176    1.09000003    2.64000010
   19.98000145   97.11129761    1.11000001    2.64000010
   19.98305511   91.63590240    1.09000003    2.66000009
   19.98638916   92.45300293    1.09000003    2.64000010
   19.98944473   90.07949829    1.09000003    2.64000010
   19.99027824   92.27310181    1.09000003    2.64000010
   19.99333382   90.01609802    1.09000003    2.66000009
   19.99666786   89.85929871    1.11000001    2.64000010
   19.99972153  101.06600189    1.11000001    2.64000010
   20.00555611  101.06600189    1.09000003    2.64000010
   20.00972176   91.94509888    1.11000001    2.66000009
   20.01305580   92.83070374    1.11000001    2.64000010
   20.01638794   93.95269775    1.09000003    2.64000010
   20.01944351   89.63539886    1.07000005    2.64000010
   20.02277756  101.14399719    1.09000003    2.64000010
   20.02361107   91.62760162    1.09000003    2.64000010
   20.02638817   93.27359772    1.07000005    2.64000010
   20.02944374   92.67379761    1.09000003    2.64000010
   20.03277779   95.15950012    1.13000000    2.64000010
   20.03583336   96.76390076    1.16999996    2.64000010
   20.03916550   94.14959717    1.16999996    2.61999989
   20.04249954   91.64289856    1.19000006    2.64000010
   20.04861069   91.64289856    1.19000006    2.64000010
   20.05249977   93.89250183    1.21000004    2.61999989
   20.05583191   94.38110352    1.21000004    2.64000010
   20.05694389   93.88330078    1.21000004    2.64000010
   20.05972099  100.86100006    1.23000002    2.61999989
   20.06277657   98.91000366    1.23000002    2.61999989
   20.06611061   88.89089966    1.26999998    2.61999989
   20.06916809   96.90609741    1.26999998    2.61999989
   20.07250023   93.85579681    1.26999998    2.61999989
   20.07583427   97.12349701    1.26999998    2.61999989
   20.07888985  100.51399994    1.30999994    2.61999989
   20.08222389   95.06870270    1.30999994    2.61999989
   20.08555603  101.61199951    1.30999994    2.61999989
   20.09138870  101.61199951    1.28999996    2.61999989
   20.09555626   94.88220215    1.28999996    2.61999989
   20.09861183   96.71610260    1.28999996    2.59999990
   20.10194397  104.69400024    1.30999994    2.59999990
   20.10527802   93.34410095    1.30999994    2.59999990
   20.10861206   94.77580261    1.33000004    2.59999990
   20.11166763   94.37100220    1.28999996    2.61999989
   20.11499977   92.97599792    1.28999996    2.61999989
   20.11833382   92.25579834    1.28999996    2.61999989
   20.12138939   98.34480286    1.28999996    2.61999989
   20.12361145   95.61000061    1.30999994    2.59999990
   20.12527847   92.25599670    1.30999994    2.59999990
   20.12833405   89.23410034    1.28999996    2.59999990
   20.13416672   89.23410034    1.28999996    2.61999989
   20.13833237   94.16919708    1.30999994    2.59999990
   20.14166641   90.91100311    1.30999994    2.59999990
   20.14472198   91.13179779    1.30999994    2.59999990
   20.14805603   92.86949921    1.30999994    2.59999990
   20.15138817   92.83399963    1.30999994    2.59999990
   20.15444374   97.01969910    1.30999994    2.59999990
   20.15694427   90.62979889    1.30999994    2.59999990
   20.15833282   93.22789764    1.30999994    2.59999990
   20.16138840   91.66410065    1.30999994    2.59999990
   20.16472244  100.42800140    1.30999994    2.59999990
   20.16777802   96.57209778    1.33000004    2.59999990
   20.17111015   91.96640015    1.33000004    2.59999990
   20.17694473   91.96640015    1.33000004    2.59999990
   20.18111038   92.01010132    1.33000004    2.59999990
   20.18444443   93.12329865    1.34000003    2.59999990
   20.18750000   86.55650330    1.34000003    2.59999990
   20.19027710  100.56199646    1.46000004    2.59999990
   20.19138718   92.85559845    1.46000004    2.59999990
   20.19444275   92.03109741    1.46000004    2.59999990
   20.19777679   92.72409821    1.46000004    2.59999990
   20.20111275   94.95780182    1.46000004    2.59999990
   20.20416832   97.63950348    1.46000004    2.59999990
   20.20750046   95.70749664    1.46000004    2.59999990
   20.21055603   96.11250305    1.61000001    2.57999992
   20.21389008   97.74069977    1.60000002    2.57999992
   20.22000122   97.74069977    1.60000002    2.57999992
   20.22389030   93.99400330    1.60000002    2.57999992
   20.22722244   97.04000092    1.60000002    2.57999992
   20.23055649   96.81919861    1.60000002    2.57999992
   20.23361206   92.38240051    1.60000002    2.57999992
   20.23694420   96.03589630    1.60000002    2.57999992
   20.23999977   97.17009735    1.60000002    2.57999992
   20.24333382   95.87660217    1.60000002    2.57999992
   20.24666786   94.80220032    1.55999994    2.57999992
   20.24972153   90.24819946    1.55999994    2.57999992
   20.25305557   91.04070282    1.58000004    2.57999992
   20.25638962   94.46170044    1.58000004    2.57999992
   20.25694466   92.52279663    1.58000004    2.57999992
   20.26277733   92.52279663    1.58000004    2.57999992
   20.26694489   91.83350372    1.39999998    2.57999992
   20.27000046   95.77359772    1.39999998    2.57999992
   20.27333260   96.20760345    1.44000006    2.57999992
   20.27666664   93.53459930    1.41999996    2.57999992
   20.27972221   90.98500061    1.44000006    2.57999992
   20.28305435   97.56990051    1.41999996    2.55999994
   20.28638840   89.01709747    1.41999996    2.55999994
   20.28944397   95.05809784    1.41999996    2.55999994
   20.29027748   97.54869843    1.41999996    2.55999994
   20.29333305   93.92099762    1.39999998    2.57999992
   20.29638863   98.12689972    1.36000001    2.57999992
   20.29972076   95.93630219    1.36000001    2.57999992
   20.30555534   95.93630219    1.36000001    2.57999992
   20.30972099   92.96669769    1.36000001    2.57999992
   20.31277657   88.14679718    1.36000001    2.57999992
   20.31611061   90.83899689    1.36000001    2.57999992
   20.31944466   85.07080078    1.30999994    2.57999992
   20.32250023   91.31330109    1.30999994    2.57999992
   20.32361221   91.96620178    1.30999994    2.57999992
   20.32638931   89.06040192    1.30999994    2.57999992
   20.32944489   81.22139740    1.30999994    2.57999992
   20.33277893   82.65689850    1.30999994    2.57999992
   20.33611107   85.26480103    1.30999994    2.57999992
   20.33916664   87.77519989    1.30999994    2.57999992
   20.34250069  103.56700134    1.30999994    2.57999992
   20.34833336  103.56700134    1.30999994    2.57999992
   20.35250092  176.94999695    1.30999994    2.57999992
   20.35583305   -1.00000000    1.30999994    2.57999992
   20.35916710   -1.00000000    1.30999994    2.57999992
   20.36250114   -1.00000000    1.28999996    2.57999992
   20.36583328   -1.00000000    1.28999996    2.57999992
   20.36888885   -1.00000000    1.28999996    2.57999992
   20.37222290   -1.00000000    1.28999996    2.57999992
   20.37527847   -1.00000000    1.28999996    2.55999994
   20.37861061   -1.00000000    1.30999994    2.55999994
   20.38194466   -1.00000000    1.30999994    2.55999994
   20.38500023   -1.00000000    1.30999994    2.55999994
   20.39527702   -1.00000000    1.38000000    2.55999994
   20.39861107   -1.00000000    1.38000000    2.55999994
   20.40166664   -1.00000000    1.41999996    2.55999994
   20.40499878   -1.00000000    1.44000006    2.55999994
   20.40833282   -1.00000000    1.44000006    2.55999994
   20.41138840   -1.00000000    1.44000006    2.55999994
   20.41472244   -1.00000000    1.44000006    2.55999994
   20.41777802   -1.00000000    1.44000006    2.55999994
   20.42111015   -1.00000000    1.44000006    2.55999994
   20.42444420   -1.00000000    1.44000006    2.55999994
   20.42777634   -1.00000000    1.44000006    2.55999994
   20.43805504   -1.00000000    1.51999998    2.53999996
   20.44138718   -1.00000000    1.51999998    2.53999996
   20.44472122   -1.00000000    1.55999994    2.53999996
   20.44777679   -1.00000000    1.55999994    2.53999996
   20.45111275   -1.00000000    1.55999994    2.53999996
   20.45416832   -1.00000000    1.55999994    2.53999996
   20.45777893   -1.00000000    1.55999994    2.53999996
   20.46111107   -1.00000000    1.55999994    2.53999996
   20.46444511   -1.00000000    1.60000002    2.51999998
   20.46750069   -1.00000000    1.61000001    2.53999996
   20.47083473   -1.00000000    1.61000001    2.53999996
   20.48111153   -1.00000000    1.58000004    2.53999996
   20.48416710   -1.00000000    1.58000004    2.53999996
   20.48750114   -1.00000000    1.58000004    2.53999996
   20.49083328   -1.00000000    1.58000004    2.53999996
   20.49416733   -1.00000000    1.60000002    2.51999998
   20.49749947   -1.00000000    1.60000002    2.53999996
   20.50055504   -1.00000000    1.60000002    2.51999998
   20.50388908   -1.00000000    1.60000002    2.51999998
   20.50722313   -1.00000000    1.60000002    2.53999996
   20.51027870   -1.00000000    1.53999996    2.51999998
   20.51361084   -1.00000000    1.53999996    2.53999996
   20.52388954   -1.00000000    1.51999998    2.51999998
   20.52694511   -1.00000000    1.48000002    2.51999998
   20.53027725   -1.00000000    1.48000002    2.51999998
   20.53361130   -1.00000000    1.46000004    2.51999998
   20.53666687   -1.00000000    1.46000004    2.51999998
   20.53999901   -1.00000000    1.48000002    2.51999998
   20.54333305   -1.00000000    1.48000002    2.51999998
   20.54638863   -1.00000000    1.48000002    2.53999996
   20.54972076   -1.00000000    1.48000002    2.53999996
   20.55277634   -1.00000000    1.48000002    2.53999996
   20.55611038   -1.00000000    1.48000002    2.53999996
   20.56666756   -1.00000000    1.48000002    2.53999996
   20.57000160   -1.00000000    1.48000002    2.53999996
   20.57305717   -1.00000000    1.48000002    2.53999996
   20.57638931   -1.00000000    1.48000002    2.53999996
   20.57972336   -1.00000000    1.58000004    2.50000000
   20.58277893   -1.00000000    1.58000004    2.50000000
   20.58611107   -1.00000000    1.58000004    2.50000000
   20.58916664   -1.00000000    1.58000004    2.51999998
   20.59305573   -1.00000000    1.58000004    2.51999998
   20.59611130   -1.00000000    1.60000002    2.50000000
   20.59944534   -1.00000000    1.60000002    2.50000000
   20.60944557   -1.00000000    1.60000002    2.50000000
   20.61277771   -1.00000000    1.60000002    2.50000000
   20.61583328   -1.00000000    1.60000002    2.50000000
   20.61916733   -1.00000000    1.60000002    2.50000000
   20.62249947   -1.00000000    1.60000002    2.50000000
   20.62583351   -1.00000000    1.60000002    2.50000000
   20.62916756   -1.00000000    1.60000002    2.50000000
   20.63249969   -1.00000000    1.58000004    2.50000000
   20.63555527   -1.00000000    1.55999994    2.50000000
   20.63888931   -1.00000000    1.55999994    2.50000000
   20.64222145   -1.00000000    1.55999994    2.50000000
   20.65250015   -1.00000000    1.55999994    2.50000000
   20.65555573   -1.00000000    1.55999994    2.50000000
   20.65888786   -1.00000000    1.60000002    2.48000002
   20.66222191   -1.00000000    1.58000004    2.48000002
   20.66555595   -1.00000000    1.58000004    2.50000000
   20.66860962   -1.00000000    1.60000002    2.48000002
   20.67194366   -1.00000000    1.60000002    2.48000002
   20.67527771   -1.00000000    1.60000002    2.48000002
   20.67833328   -1.00000000    1.60000002    2.48000002
   20.68166542   -1.00000000    1.60000002    2.48000002
   20.68472099   -1.00000000    1.61000001    2.48000002
   20.69527626   -1.00000000    1.63000000    2.48000002
   20.69833183   -1.00000000    1.63000000    2.48000002
   20.70166779   -1.00000000    1.64999998    2.48000002
   20.70499992   -1.00000000    1.64999998    2.46000004
   20.70805550   -1.00000000    1.64999998    2.46000004
   20.71138954   -1.00000000    1.64999998    2.46000004
   20.71444511   -1.00000000    1.64999998    2.46000004
   20.71777916   -1.00000000    1.64999998    2.46000004
   20.72111130   -1.00000000    1.69000006    2.46000004
   20.72444534   -1.00000000    1.69000006    2.46000004
   20.72777748   -1.00000000    1.69000006    2.46000004
   20.73805618   -1.00000000    1.69000006    2.46000004
   20.74138832   -1.00000000    1.71000004    2.46000004
   20.74444389   -1.00000000    1.71000004    2.46000004
   20.74777794   -1.00000000    1.69000006    2.48000002
   20.75083351   -1.00000000    1.69000006    2.46000004
   20.75416756   -1.00000000    1.69000006    2.46000004
   20.75749969   -1.00000000    1.66999996    2.46000004
   20.76083374   -1.00000000    1.66999996    2.46000004
   20.76416588   -1.00000000    1.66999996    2.46000004
   20.76722145   -1.00000000    1.66999996    2.46000004
   20.77055550   -1.00000000    1.66999996    2.46000004
   20.78083229   -1.00000000    1.66999996    2.46000004
   20.78416634   -1.00000000    1.66999996    2.46000004
   20.78722191   -1.00000000    1.69000006    2.44000006
   20.79111099   -1.00000000    1.69000006    2.46000004
   20.79416656   -1.00000000    1.71000004    2.44000006
   20.79749870   -1.00000000    1.73000002    2.46000004
   20.80055428   -1.00000000    1.73000002    2.44000006
   20.80388832   -1.00000000    1.73000002    2.46000004
   20.80722237   -1.00000000    1.75000000    2.44000006
   20.81027794   -1.00000000    1.75000000    2.44000006
   20.81361008   -1.00000000    1.75000000    2.46000004
   20.82389069   -1.00000000    1.78999996    2.44000006
   20.82694626   -1.00000000    1.78999996    2.44000006
   20.83027840   -1.00000000    1.83000004    2.42000008
   20.83333397   -1.00000000    1.83000004    2.42000008
   20.83666801   -1.00000000    1.83000004    2.44000006
   20.84000015   -1.00000000    1.83000004    2.44000006
   20.84305573   -1.00000000    1.83000004    2.44000006
   20.84638977   -1.00000000    1.83000004    2.44000006
   20.84972191   -1.00000000    1.83000004    2.44000006
   20.85277748   -1.00000000    1.83000004    2.44000006
   20.85611153   -1.00000000    1.83000004    2.44000006
   20.86666679   -1.00000000    1.83000004    2.44000006
   20.86972237   -1.00000000    1.83000004    2.42000008
   20.87305641   -1.00000000    1.78999996    2.42000008
   20.89305496   -1.00000000    1.80999994    2.40000010
   20.89611053   -1.00000000    1.78999996    2.42000008
   20.89944458   -1.00000000    1.78999996    2.40000010
   20.90944481   -1.00000000    1.78999996    2.40000010
   20.91277695   -1.00000000    1.78999996    2.40000010
   20.91611099   -1.00000000    1.78999996    2.40000010
   20.91916656   -1.00000000    1.78999996    2.40000010
   20.92249870   -1.00000000    1.78999996    2.40000010
   20.92583275   -1.00000000    1.78999996    2.40000010
   20.92916679   -1.00000000    1.78999996    2.40000010
   20.93222237   -1.00000000    1.78999996    2.40000010
   20.93555450   -1.00000000    1.78999996    2.40000010
   20.93888855   -1.00000000    1.78999996    2.40000010
   20.94194412   -1.00000000    1.78999996    2.40000010
   20.95250130   -1.00000000    1.76999998    2.40000010
   20.95555687   -1.00000000    1.76999998    2.40000010
   20.95916748   -1.00000000    1.76999998    2.40000010
   20.96250153   -1.00000000    1.76999998    2.40000010
   20.96555710   -1.00000000    1.76999998    2.40000010
   20.96888924   -1.00000000    1.76999998    2.40000010
   20.97222328   -1.00000000    1.76999998    2.40000010
   20.97527885   -1.00000000    1.76999998    2.40000010
   20.97861099   -1.00000000    1.78999996    2.40000010
   20.98194504   -1.00000000    1.88000000    2.39000010
   20.98500061   -1.00000000    1.88000000    2.39000010
   20.99527740   -1.00000000    1.91999996    2.36999989
   20.99861145   -1.00000000    1.94000006    2.39000010
   21.00222206   -1.00000000    1.94000006    2.36999989
   21.00555611   -1.00000000    1.96000004    2.36999989
   21.00861168   -1.00000000    1.98000002    2.36999989
   21.01194382   -1.00000000    1.98000002    2.36999989
   21.01527786   -1.00000000    1.98000002    2.36999989
   21.01833344   -1.00000000    1.98000002    2.36999989
   21.02166557   -1.00000000    1.98000002    2.36999989
   21.02499962   -1.00000000    1.98000002    2.36999989
   21.02888870   -1.00000000    2.00000000    2.36999989
   21.03833199   -1.00000000    2.00000000    2.36999989
   21.04249954   -1.00000000    2.00000000    2.34999990
   21.04583359   -1.00000000    2.01999998    2.34999990
   21.04916573   -1.00000000    2.00000000    2.34999990
   21.05249977   -1.00000000    2.00000000    2.34999990
   21.05638885   -1.00000000    1.98000002    2.36999989
   21.06055450   -1.00000000    1.98000002    2.34999990
   21.06416512   -1.00000000    1.98000002    2.34999990
   21.06777954   -1.00000000    1.98000002    2.34999990
   21.07194519   -1.00000000    1.98000002    2.36999989
   21.08139038   -1.00000000    2.00000000    2.34999990
   21.08444595   -1.00000000    2.01999998    2.34999990
   21.08777809   -1.00000000    2.01999998    2.34999990
   21.09138870   -1.00000000    2.01999998    2.32999992
   21.09472275   -1.00000000    2.01999998    2.32999992
   21.09805679   -1.00000000    2.03999996    2.32999992
   21.10111237   -1.00000000    2.01999998    2.32999992
   21.10444450   -1.00000000    2.03999996    2.32999992
   21.10777855   -1.00000000    2.03999996    2.32999992
   21.11111069   -1.00000000    2.03999996    2.32999992
   21.11416626   -1.00000000    2.05999994    2.32999992
   21.12416649   -1.00000000    2.05999994    2.30999994
   21.12750053   -1.00000000    2.05999994    2.30999994
   21.13083267   -1.00000000    2.05999994    2.30999994
   21.13388824   -1.00000000    2.05999994    2.30999994
   21.13722229   -1.00000000    2.05999994    2.30999994
   21.14055634   -1.00000000    2.05999994    2.32999992
   21.14388847   -1.00000000    2.05999994    2.32999992
   21.14749908   -1.00000000    2.05999994    2.32999992
   21.15111160   -1.00000000    2.05999994    2.32999992
   21.15527725   -1.00000000    2.05999994    2.30999994
   21.15888786   -1.00000000    2.05999994    2.30999994
   21.16722107   -1.00000000    2.05999994    2.30999994
   21.17055511   -1.00000000    2.05999994    2.30999994
   21.17361069   -1.00000000    2.05999994    2.30999994
   21.17694473   -1.00000000    2.05999994    2.30999994
   21.18027687   -1.00000000    2.05999994    2.30999994
   21.18361092   -1.00000000    2.05999994    2.30999994
   21.18694305   -1.00000000    2.05999994    2.30999994
   21.19027710   -1.00000000    2.05999994    2.30999994
   21.19388771   -1.00000000    2.05999994    2.30999994
   21.19722176   -1.00000000    2.05999994    2.30999994
   21.20055580   -1.00000000    2.05999994    2.30999994
   21.21000099   -1.00000000    2.05999994    2.30999994
   21.21333504   -1.00000000    2.05999994    2.30999994
   21.21666718   -1.00000000    2.05999994    2.30999994
   21.22000122   -1.00000000    2.05999994    2.30999994
   21.22333336   -1.00000000    2.05999994    2.30999994
   21.22694588   -1.00000000    2.05999994    2.30999994
   21.23027802   -1.00000000    2.05999994    2.30999994
   21.23361206   -1.00000000    2.05999994    2.30999994
   21.23694420   -1.00000000    2.05999994    2.30999994
   21.24027824   -1.00000000    2.05999994    2.30999994
   21.24361229   -1.00000000    2.05999994    2.30999994
   21.25305557   -1.00000000    2.05999994    2.30999994
   21.25638962   -1.00000000    2.05999994    2.30999994
   21.26000023   -1.00000000    2.05999994    2.30999994
   21.26333427   -1.00000000    2.05999994    2.30999994
   21.26666641   -1.00000000    2.05999994    2.30999994
   21.27000046   -1.00000000    2.05999994    2.30999994
   21.27361107   -1.00000000    2.05999994    2.30999994
   21.27694511   -1.00000000    2.05999994    2.30999994
   21.28000069   -1.00000000    2.05999994    2.30999994
   21.28333282   -1.00000000    2.05999994    2.30999994
   21.28666687   -1.00000000    2.05999994    2.30999994
   21.29555511   -1.00000000    2.05999994    2.30999994
   21.29888916   -1.00000000    2.05999994    2.30999994
   21.30222130   -1.00000000    2.05999994    2.30999994
   21.30527687   -1.00000000    2.05999994    2.30999994
   21.30861092   -1.00000000    2.05999994    2.30999994
   21.31166649   -1.00000000    2.05999994    2.30999994
   21.31499863   -1.00000000    2.05999994    2.30999994
   21.31833458   -1.00000000    2.05999994    2.30999994
   21.32139015   -1.00000000    2.05999994    2.30999994
   21.32500076   -1.00000000    2.05999994    2.30999994
   21.32833481   -1.00000000    2.05999994    2.30999994
   21.33861160   -1.00000000    2.05999994    2.30999994
   21.34194565   -1.00000000    2.05999994    2.30999994
   21.34527779   -1.00000000    2.05999994    2.30999994
   21.34861183   -1.00000000    2.05999994    2.30999994
   21.35194397   -1.00000000    2.05999994    2.30999994
   21.35499954   -1.00000000    2.05999994    2.30999994
   21.35861206   -1.00000000    2.05999994    2.30999994
   21.36194420   -1.00000000    2.05999994    2.30999994
   21.36527824   -1.00000000    2.05999994    2.30999994
   21.36833382   -1.00000000    2.05999994    2.30999994
   21.37166595   -1.00000000    2.05999994    2.30999994
   21.38166618   -1.00000000    2.05999994    2.30999994
   21.38500023   -1.00000000    2.05999994    2.30999994
   21.38833237   -1.00000000    2.05999994    2.30999994
   21.39194489   -1.00000000    2.05999994    2.30999994
   21.39527702   -1.00000000    2.05999994    2.30999994
   21.39861107   -1.00000000    2.05999994    2.30999994
   21.40194321   -1.00000000    2.05999994    2.30999994
   21.40555573   -1.00000000    2.05999994    2.30999994
   21.40888786   -1.00000000    2.05999994    2.30999994
   21.41222191   -1.00000000    2.05999994    2.30999994
   21.41555595   -1.00000000    2.05999994    2.30999994
   21.42444420   -1.00000000    2.05999994    2.30999994
   21.42777634   -1.00000000    2.05999994    2.30999994
   21.43111038   -1.00000000    2.05999994    2.30999994
   21.43444443   -1.00000000    2.05999994    2.30999994
   21.43777657   -1.00000000    2.05999994    2.30999994
   21.44138718   -1.00000000    2.05999994    2.30999994
   21.44472122   -1.00000000    2.05999994    2.30999994
   21.44805527   -1.00000000    2.05999994    2.30999994
   21.45138931   -1.00000000    2.05999994    2.30999994
   21.45472336   -1.00000000    2.05999994    2.30999994
   21.45861244   -1.00000000    2.05999994    2.30999994
   21.46722221   -1.00000000    2.05999994    2.30999994
   21.47055626   -1.00000000    2.05999994    2.30999994
   21.47361183   -1.00000000    2.05999994    2.30999994
   21.47694588   -1.00000000    2.05999994    2.30999994
   21.48027802   -1.00000000    2.05999994    2.30999994
   21.48333359   -1.00000000    2.05999994    2.30999994
   21.48666763   -1.00000000    2.05999994    2.30999994
   21.48999977   -1.00000000    2.05999994    2.30999994
   21.49333382   -1.00000000    2.05999994    2.30999994
   21.49666786   -1.00000000    2.05999994    2.30999994
   21.50000000   -1.00000000    2.05999994    2.30999994
   21.51000023   -1.00000000    2.05999994    2.30999994
   21.51333427   -1.00000000    2.05999994    2.30999994
   21.51638794   -1.00000000    2.05999994    2.30999994
   21.51972198   -1.00000000    2.05999994    2.30999994
   21.52305603   -1.00000000    2.05999994    2.30999994
   21.52666664   -1.00000000    2.05999994    2.30999994
   21.52972221   -1.00000000    2.05999994    2.30999994
   21.53305435   -1.00000000    2.05999994    2.30999994
   21.53638840   -1.00000000    2.05999994    2.30999994
   21.53944397   -1.00000000    2.05999994    2.30999994
   21.54277802   -1.00000000    2.05999994    2.30999994
   21.55277634   -1.00000000    2.05999994    2.30999994
   21.55611038   -1.00000000    2.05999994    2.30999994
   21.55972099   -1.00000000    2.05999994    2.30999994
   21.56305504   -1.00000000    2.05999994    2.30999994
   21.56638718   -1.00000000    2.05999994    2.30999994
   21.56972313   -1.00000000    2.05999994    2.30999994
   21.57277870   -1.00000000    2.05999994    2.30999994
   21.57611275   -1.00000000    2.05999994    2.30999994
   21.57944489   -1.00000000    2.05999994    2.30999994
   21.58250046   -1.00000000    2.05999994    2.30999994
   21.58583450   -1.00000000    2.05999994    2.30999994
   21.59583473   -1.00000000    2.05999994    2.30999994
   21.59972191   -1.00000000    2.05999994    2.30999994
   21.60277748   -1.00000000    2.05999994    2.30999994
   21.60639000   -1.00000000    2.05999994    2.30999994
   21.61194420   -1.00000000    2.05999994    2.30999994
   21.61583328   -1.00000000    2.05999994    2.30999994
   21.62055588   -1.00000000    2.05999994    2.30999994
   21.62388992   -1.00000000    2.05999994    2.30999994
   21.62972260   -1.00000000    2.05999994    2.30999994
   21.63916588   -1.00000000    2.05999994    2.30999994
   21.64249992   -1.00000000    2.05999994    2.30999994
   21.64583397   -1.00000000    2.05999994    2.30999994
   21.64916611   -1.00000000    2.05999994    2.30999994
   21.65277672   -1.00000000    2.05999994    2.30999994
   21.65583229   -1.00000000    2.05999994    2.30999994
   21.65972137   -1.00000000    2.05999994    2.30999994
   21.66305542   -1.00000000    2.05999994    2.30999994
   21.66777802   -1.00000000    2.05999994    2.30999994
   21.67111015   -1.00000000    2.05999994    2.30999994
   21.68138885   -1.00000000    2.05999994    2.30999994
   21.68499947   -1.00000000    2.05999994    2.30999994
   21.68833160   -1.00000000    2.05999994    2.30999994
   21.69194412   -1.00000000    2.05999994    2.30999994
   21.69499969   -1.00000000    2.05999994    2.30999994
   21.69833183   -1.00000000    2.05999994    2.30999994
   21.70166779   -1.00000000    2.05999994    2.30999994
   21.70499992   -1.00000000    2.05999994    2.30999994
   21.70805550   -1.00000000    2.05999994    2.30999994
   21.71138954   -1.00000000    2.05999994    2.30999994
   21.71472359   -1.00000000    2.05999994    2.30999994
   21.72416687   -1.00000000    2.05999994    2.30999994
   21.72805595   -1.00000000    2.05999994    2.30999994
   21.73139000   -1.00000000    2.05999994    2.30999994
   21.73472214   -1.00000000    2.05999994    2.30999994
   21.73833275   -1.00000000    2.05999994    2.30999994
   21.74194527   -1.00000000    2.05999994    2.30999994
   21.74555588   -1.00000000    2.05999994    2.30999994
   21.74944496   -1.00000000    2.05999994    2.30999994
   21.75305557   -1.00000000    2.05999994    2.30999994
   21.75694466   -1.00000000    2.05999994    2.30999994
   21.76805496   -1.00000000    2.05999994    2.30999994
   21.77138901   -1.00000000    2.05999994    2.30999994
   21.77527809   -1.00000000    2.05999994    2.30999994
   21.77972221   -1.00000000    2.05999994    2.30999994
   21.78305435   -1.00000000    2.05999994    2.30999994
   21.78638840   -1.00000000    2.05999994    2.30999994
   21.78972244   -1.00000000    2.05999994    2.30999994
   21.79388809   -1.00000000    2.05999994    2.30999994
   21.79694366   -1.00000000    2.05999994    2.30999994
   21.80027771   -1.00000000    2.05999994    2.30999994
   21.80999947   -1.00000000    2.05999994    2.30999994
   21.81333351   -1.00000000    2.05999994    2.30999994
   21.81666756   -1.00000000    2.05999994    2.30999994
   21.81972313   -1.00000000    2.05999994    2.30999994
   21.82305717   -1.00000000    2.05999994    2.30999994
   21.82666779   -1.00000000    2.05999994    2.30999994
   21.82972336   -1.00000000    2.05999994    2.30999994
