    HOUR (UT)   FLARE FACTOR    SKY TESTER    SUN TESTER
   11.27305508   -1.00000000   -1.00000000   -1.00000000
   11.30888939  154.55900574    4.90999985    1.94000006
   11.31305599  152.00199890    4.90999985    1.94000006
   11.31638908  154.57200623    4.90999985    1.96000004
   11.31944466  157.86399841    4.90999985    1.96000004
   11.32277775  153.61999512    4.90999985    1.98000002
   11.32583332  154.49699402    4.90999985    1.96000004
   11.32916641  149.32899475    4.90999985    1.96000004
   11.33249950  150.58200073    4.90999985    1.96000004
   11.33555508  150.25300598    4.90999985    1.98000002
   11.33888817  153.30200195    4.90999985    1.98000002
   11.34194374  155.29499817    4.90999985    1.98000002
   11.34249973  149.96899414    4.90999985    1.98000002
   11.34583282  156.58599854    4.90999985    1.98000002
   11.34888840  151.48100281    4.90999985    2.00000000
   11.35222244  159.46400452    4.90999985    2.00000000
   11.35555553  151.79699707    4.90999985    2.00000000
   11.35972214  147.72900391    4.90999985    2.01999998
   11.36277771  161.97300720    4.90999985    2.01999998
   11.36611176  165.13900757    4.90999985    2.01999998
   11.36944485  171.55299377    4.90999985    2.01999998
   11.37250042  143.06199646    4.90999985    2.01999998
   11.37527752  155.18899536    4.90999985    2.01999998
   11.37611103  151.61099243    4.90999985    2.01999998
   11.37944412  168.74499512    4.90999985    2.03999996
   11.38249969  159.58599854    4.90999985    2.03999996
   11.38583279  158.27499390    4.90999985    2.03999996
   11.38916683  151.33799744    4.90999985    2.03999996
   11.39222240  162.39300537    4.90999985    2.03999996
   11.39555550  156.06300354    4.90999985    2.03999996
   11.39861107  160.40100098    4.90999985    2.05999994
   11.40194416  164.58399963    4.90999985    2.03999996
   11.40527725  145.36500549    4.90999985    2.05999994
   11.40833282  148.67900085    4.90999985    2.05999994
   11.40888882  148.57800293    4.90999985    2.07999992
   11.41222191  153.91099548    4.90999985    2.07999992
   11.41555500  155.42799377    4.90999985    2.07999992
   11.41861153  151.40400696    4.90999985    2.07999992
   11.42194462  157.86900330    4.90999985    2.07999992
   11.42500019  154.92399597    4.90999985    2.07999992
   11.42833328  141.29200745    4.90999985    2.07999992
   11.43166733  151.18800354    4.90999985    2.09999990
   11.43472195  148.79699707    4.90999985    2.09999990
   11.43805599  152.81300354    4.90999985    2.09999990
   11.44138908  153.63999939    4.90999985    2.09999990
   11.44222260  153.59399414    4.90999985    2.09999990
   11.44499969  153.42700195    4.90999985    2.09999990
   11.44833374  156.86599731    4.90999985    2.09999990
   11.45138836  151.44599915    4.90999985    2.11999989
   11.45472240  157.61599731    4.90999985    2.11999989
   11.45777798  157.16600037    4.90999985    2.11999989
   11.46111107  168.85000610    4.90999985    2.11999989
   11.46444416  176.81900024    4.90999985    2.13000011
   11.46749973  154.35800171    4.90999985    2.13000011
   11.47083282  161.19400024    4.90999985    2.11999989
   11.47416592  155.04899597    4.90999985    2.13000011
   11.47555542  161.51400757    4.90999985    2.13000011
   11.47777748  153.19500732    4.90999985    2.13000011
   11.48111057  159.18800354    4.90999985    2.13000011
   11.48416710  158.83700562    4.90999985    2.13000011
   11.48750019  150.66799927    4.90999985    2.13000011
   11.49055576  141.18699646    4.90999985    2.15000010
   11.49388885  163.94799805    4.90999985    2.15000010
   11.49722290  158.64100647    4.90999985    2.15000010
   11.50027752  171.22500610    4.90999985    2.15000010
   11.50361156  154.85200500    4.90999985    2.17000008
   11.50694466  148.74299622    4.90999985    2.17000008
   11.50888920  153.55099487    4.90999985    2.15000010
   11.51055527  152.76600647    4.90999985    2.15000010
   11.51388931  158.03399658    4.90999985    2.17000008
   11.51694393  158.55000305    4.90999985    2.17000008
   11.52027798  157.61999512    4.90999985    2.17000008
   11.52333355  153.33999634    4.90999985    2.17000008
   11.52666664  158.22799683    4.90999985    2.17000008
   11.52999973  156.15600586    4.90999985    2.19000006
   11.53305531  161.75700378    4.90999985    2.19000006
   11.53638935  168.44900513    4.90999985    2.21000004
   11.53972244  150.87100220    4.90999985    2.19000006
   11.54222298  152.79200745    4.90999985    2.19000006
   11.54333401  158.78900146    4.90999985    2.19000006
   11.54666710  143.40800476    4.90999985    2.19000006
   11.54972267  161.32499695    4.90999985    2.19000006
   11.55305576  165.52299500    4.90999985    2.21000004
   11.55611134  154.23500061    4.90999985    2.21000004
   11.55944443  163.91700745    4.90999985    2.21000004
   11.56277752  153.33599854    4.90999985    2.21000004
   11.56583309  161.19799805    4.90999985    2.21000004
   11.56916618  157.28999329    4.90999985    2.21000004
   11.57250023  155.06599426    4.90999985    2.21000004
   11.57555580  146.49600220    4.90999985    2.23000002
   11.57611084  147.19700623    4.90999985    2.23000002
   11.57944393  158.59199524    4.90999985    2.23000002
   11.58249950  164.73699951    4.90999985    2.23000002
   11.58583260  155.35600281    4.90999985    2.23000002
   11.58888817  168.07699585    4.90999985    2.23000002
   11.59222221  154.01600647    4.90999985    2.23000002
   11.59555531  154.95899963    4.90999985    2.23000002
   11.59861088  171.18800354    4.90999985    2.25000000
   11.60194492  163.15100098    4.90999985    2.25000000
   11.60527802  157.30000305    4.90999985    2.25000000
   11.60833359  160.49400330    4.90999985    2.25000000
   11.60888958  165.68099976    4.90999985    2.25000000
   11.61194515  155.47700500    4.90999985    2.25000000
   11.61527824  185.19299316    4.90999985    2.25000000
   11.61833382  167.10299683    4.90999985    2.25000000
   11.62166691  168.82000732    4.90999985    2.25000000
   11.62472248  171.78500366    4.90999985    2.25000000
   11.62805557  153.26300049    4.90999985    2.25000000
   11.63138866  153.41000366    4.90999985    2.25000000
   11.63444424  178.64500427    4.90999985    2.26999998
   11.63777733  156.02299500    4.90999985    2.26999998
   11.64111137  166.77999878    4.90999985    2.28999996
   11.64222240  166.29400635    4.90999985    2.26999998
   11.64472198  166.52999878    4.90999985    2.26999998
   11.64805508  152.70399475    4.90999985    2.26999998
   11.65111065  164.38499451    4.90999985    2.28999996
   11.65444374  148.44599915    4.90999985    2.28999996
   11.65749931  158.67999268    4.90999985    2.26999998
   11.66083336  167.86599731    4.90999985    2.28999996
   11.66416645  152.78999329    4.90999985    2.28999996
   11.66722298  161.49800110    4.90999985    2.28999996
   11.67055607  152.79600525    4.90999985    2.28999996
   11.67388916  158.10200500    4.90999985    2.28999996
   11.67555618  169.91299438    4.90999985    2.30999994
   11.67750072  171.47500610    4.90999985    2.30999994
   11.68083382  183.45899963    4.90999985    2.30999994
   11.68388939  172.43299866    4.90999985    2.30999994
   11.68722248  153.81399536    4.90999985    2.30999994
   11.69027805  161.46400452    4.90999985    2.30999994
   11.69361115  158.55400085    4.90999985    2.30999994
   11.69694424  154.72099304    4.90999985    2.30999994
   11.69999981  162.09700012    4.90999985    2.30999994
   11.70333290  147.34399414    4.90999985    2.30999994
   11.70666695  162.57499695    4.90999985    2.30999994
   11.70888901  170.28900146    4.90999985    2.32999992
   11.71027756  168.39900208    4.90999985    2.32999992
   11.71361065  151.68200684    4.90999985    2.32999992
   11.71666622  161.44799805    4.90999985    2.30999994
   11.71999931  162.79499817    4.90999985    2.32999992
   11.72305489  155.27600098    4.90999985    2.32999992
   11.72638798  159.15199280    4.90999985    2.32999992
   11.72972202  143.93299866    4.90999985    2.32999992
   11.73277760  160.67100525    4.90999985    2.32999992
   11.73611164  156.02499390    4.90999985    2.32999992
   11.73944473  153.66099548    4.90999985    2.32999992
   11.74222279  164.94400024    4.90999985    2.34999990
   11.74305534  152.44299316    4.90999985    2.32999992
   11.74638939  160.99600220    4.90999985    2.32999992
   11.74944496  160.91799927    4.90999985    2.32999992
   11.75277805  148.04499817    4.90999985    2.32999992
   11.75583363  162.58599854    4.90999985    2.34999990
   11.75916672  162.70199585    4.90999985    2.34999990
   11.76249981  168.96000671    4.90999985    2.34999990
   11.76555538  163.36000061    4.90999985    2.34999990
   11.76888847  153.75500488    4.90999985    2.34999990
   11.77222157  147.97700500    4.90999985    2.34999990
   11.77527714  147.42399597    4.90999985    2.34999990
   11.77583313  167.81500244    4.90999985    2.36999989
   11.77916622  164.47300720    4.90999985    2.36999989
   11.78222179  160.52099609    4.90999985    2.36999989
   11.78555584  152.58999634    4.90999985    2.36999989
   11.78888893  162.62399292    4.90999985    2.36999989
   11.79194450  168.01600647    4.90999985    2.36999989
   11.79527855  153.07200623    4.90999985    2.36999989
   11.79833412  154.20500183    4.90999985    2.36999989
   11.80166721  156.44900513    4.90999985    2.36999989
   11.80500031  150.76800537    4.90999985    2.36999989
   11.80805588  152.40199280    4.90999985    2.36999989
   11.80916691  159.25599670    4.90999985    2.36999989
   11.81194496  152.77400208    4.90999985    2.39000010
   11.81500053  150.87800598    4.90999985    2.39000010
   11.81833363  152.47900391    4.90999985    2.39000010
   11.82166672  148.54499817    4.90999985    2.39000010
   11.82472229  142.57400513    4.90999985    2.39000010
   11.82805538  151.28500366    4.90999985    2.39000010
   11.83138847  147.14399719    4.90999985    2.39000010
   11.83444405  144.08099365    4.90999985    2.39000010
   11.83777714  147.47700500    4.90999985    2.39000010
   11.84083271  139.19599915    4.90999985    2.39000010
   11.84249973  149.68099976    4.90999985    2.40000010
   11.84472179  143.60600281    4.90999985    2.40000010
   11.84777737  148.48800659    4.90999985    2.39000010
   11.85111141  143.51800537    4.90999985    2.40000010
   11.85444450  149.71299744    4.90999985    2.39000010
   11.85750008  146.02200317    4.90999985    2.39000010
   11.86083412  150.01600647    4.90999985    2.40000010
   11.86416721  151.16200256    4.90999985    2.39000010
   11.86722279  164.11900330    4.90999985    2.40000010
   11.87055588  146.97399902    4.90999985    2.40000010
   11.87361145  161.45899963    4.90999985    2.40000010
   11.87583351  145.22599792    4.90999985    2.40000010
   11.87750053  150.38000488    4.90999985    2.40000010
   11.88055611  156.50700378    4.90999985    2.40000010
   11.88388920  147.12500000    4.90999985    2.40000010
   11.88722229  147.94599915    4.90999985    2.42000008
   11.89027786  139.97500610    4.90999985    2.40000010
   11.89361095  147.05499268    4.90999985    2.42000008
   11.89694405  150.19099426    4.90999985    2.42000008
   11.89999962  147.95500183    4.90999985    2.42000008
   11.90333271  149.65400696    4.90999985    2.42000008
   11.90638828  151.58399963    4.90999985    2.42000008
   11.90916634  147.37199402    4.90999985    2.42000008
   11.91027737  151.36599731    4.90999985    2.42000008
   11.91333294  139.29200745    4.90999985    2.44000006
   11.91666698  142.72900391    4.90999985    2.44000006
   11.92000008  143.02200317    4.90999985    2.42000008
   11.92305565  153.23699951    4.90999985    2.42000008
   11.92638874  153.84800720    4.90999985    2.44000006
   11.92972279  140.50000000    4.90999985    2.42000008
   11.93277836  140.63900757    4.90999985    2.44000006
   11.93611145  137.11399841    4.90999985    2.44000006
   11.93916702  147.47900391    4.90999985    2.44000006
   11.94250011  145.99400330    4.90999985    2.42000008
   11.94305515  152.74499512    4.90999985    2.42000008
   11.94611073  147.45199585    4.90999985    2.44000006
   11.94944477  147.76199341    4.90999985    2.44000006
   11.95277786  150.28100586    4.90999985    2.44000006
   11.95583344  153.47200012    4.90999985    2.44000006
   11.95916653  146.81100464    4.90999985    2.44000006
   11.96249962  151.15699768    4.90999985    2.44000006
   11.96555519  140.75999451    4.90999985    2.46000004
   11.96888828  145.37300110    4.90999985    2.46000004
   11.97194386  142.86999512    4.90999985    2.46000004
   11.97527695  144.21299744    4.90999985    2.46000004
   11.97583294  148.91700745    4.90999985    2.46000004
   11.97888851  146.26899719    4.90999985    2.46000004
   11.98194408  148.28399658    4.90999985    2.46000004
   11.98527813  144.53799438    4.90999985    2.46000004
   11.98861122  144.24899292    4.90999985    2.46000004
   11.99166679  156.49000549    4.90999985    2.46000004
   11.99499989  145.42999268    4.90999985    2.46000004
   11.99833393  151.64599609    4.90999985    2.46000004
   12.00138855  160.12399292    4.90999985    2.46000004
   12.00472260  149.03900146    4.90999985    2.46000004
   12.00777817  147.51600647    4.90999985    2.46000004
   12.00916672  139.44099426    4.90999985    2.46000004
   12.01166630  142.33500671    4.90999985    2.46000004
   12.01472187  154.81599426    4.90999985    2.46000004
   12.01805496  144.23199463    4.90999985    2.48000002
   12.02138901  153.11999512    4.90999985    2.48000002
   12.02444458  146.13499451    4.90999985    2.48000002
   12.02777767  153.08000183    4.90999985    2.46000004
   12.03111076  155.20500183    4.90999985    2.48000002
   12.03416729  151.40899658    4.90999985    2.48000002
   12.03750038  144.18699646    4.90999985    2.48000002
   12.04055595  147.63400269    4.90999985    2.48000002
   12.04250050  147.81500244    4.90999985    2.48000002
   12.04444504  146.19099426    4.90999985    2.48000002
   12.04777813  154.78900146    4.90999985    2.48000002
   12.05083370  145.24800110    4.90999985    2.48000002
   12.05416679  144.59700012    4.90999985    2.48000002
   12.05722237  155.89599609    4.90999985    2.48000002
   12.06055546  147.00999451    4.90999985    2.50000000
   12.06388950  148.33099365    4.90999985    2.50000000
   12.06694412  150.28399658    4.90999985    2.48000002
   12.07027817  141.25999451    4.90999985    2.50000000
   12.07361126  147.03599548    4.90999985    2.50000000
   12.07583332  137.57499695    4.90999985    2.50000000
   12.07722187  154.23800659    4.90999985    2.50000000
   12.08055592  150.47200012    4.90999985    2.50000000
   12.08361053  146.39599609    4.90999985    2.48000002
   12.08694458  142.13200378    4.90999985    2.50000000
   12.09000015  161.77699280    4.90999985    2.50000000
   12.09333324  143.54600525    4.90999985    2.51999998
   12.09666634  147.55599976    4.90999985    2.50000000
   12.09972191  150.99699402    4.90999985    2.50000000
   12.10305595  152.63000488    4.90999985    2.50000000
   12.10638905  152.88200378    4.90999985    2.50000000
   12.10916710  153.87199402    4.90999985    2.50000000
   12.11000061  149.29699707    4.90999985    2.50000000
   12.11333370  158.53700256    4.90999985    2.50000000
   12.11638927  156.85499573    4.90999985    2.51999998
   12.11972237  155.56100464    4.90999985    2.51999998
   12.12277794  152.27400208    4.90999985    2.51999998
   12.12611103  150.87800598    4.90999985    2.51999998
   12.12944412  158.53399658    4.90999985    2.50000000
   12.13249969  150.26100159    4.90999985    2.51999998
   12.13583279  148.20799255    4.90999985    2.51999998
   12.13916683  168.22799683    4.90999985    2.51999998
   12.14222240  150.56199646    4.90999985    2.51999998
   12.14277744  145.99800110    4.90999985    2.51999998
   12.14611053  145.87899780    4.90999985    2.51999998
   12.14916611  146.92300415    4.90999985    2.51999998
   12.15249920  154.07299805    4.90999985    2.51999998
   12.15583324  151.04100037    4.90999985    2.51999998
   12.15888882  156.89599609    4.90999985    2.51999998
   12.16222191  149.66499329    4.90999985    2.51999998
   12.16555500  148.02200317    4.90999985    2.51999998
   12.16861153  147.05999756    4.90999985    2.51999998
   12.17194462  150.72399902    4.90999985    2.53999996
   12.17500019  153.16000366    4.90999985    2.53999996
   12.17611122  147.76400757    4.90999985    2.53999996
   12.17888927  150.38299561    4.90999985    2.53999996
   12.18222237  150.96499634    4.90999985    2.51999998
   12.18527794  145.20300293    4.90999985    2.53999996
   12.18861103  143.21099854    4.90999985    2.53999996
   12.19166660  144.69099426    4.90999985    2.53999996
   12.19499969  142.09500122    4.90999985    2.53999996
   12.19833374  150.87800598    4.90999985    2.53999996
   12.20138836  155.15499878    4.90999985    2.53999996
   12.20472240  153.43600464    4.90999985    2.53999996
   12.20805550  153.38600159    4.90999985    2.53999996
   12.20944405  159.68899536    4.90999985    2.53999996
   12.21166611  163.31399536    4.90999985    2.53999996
   12.21500015  165.78900146    4.90999985    2.53999996
   12.21805477  167.05099487    4.90999985    2.55999994
   12.22138882  152.64599609    4.90999985    2.53999996
   12.22472191  171.71299744    4.90999985    2.55999994
   12.22777748  169.71600342    4.90999985    2.55999994
   12.23111057  178.41000366    4.90999985    2.55999994
   12.23444462  186.55400085    4.90999985    2.55999994
   12.23750019  176.10899353    4.90999985    2.55999994
   12.24083328  175.19200134    4.90999985    2.53999996
   12.24305534  183.19099426    4.90999985    2.55999994
   12.24444485  172.31300354    4.90999985    2.55999994
   12.24777794  178.71800232    4.90999985    2.55999994
   12.25083351  195.42599487    4.90999985    2.55999994
   12.25416660  196.83299255    4.90999985    2.55999994
   12.25749969  185.80099487    4.90999985    2.55999994
   12.26055527  203.87399292    4.90999985    2.55999994
   12.26388931  219.39599609    4.90999985    2.55999994
   12.26722240  166.34500122    4.90999985    2.55999994
   12.27027798  167.34700012    4.90999985    2.55999994
   12.27361107  155.19900513    4.90999985    2.55999994
   12.27638817  165.00399780    4.90999985    2.55999994
   12.27722168  167.02999878    4.90999985    2.57999992
   12.28055573  141.30499268    4.90999985    2.55999994
   12.28361130  155.91299438    4.90999985    2.57999992
   12.28694534  151.21400452    4.90999985    2.57999992
   12.29027843  158.69599915    4.90999985    2.57999992
   12.29333401  150.44900513    4.90999985    2.57999992
   12.29666710  147.35099792    4.90999985    2.55999994
   12.30000019  158.21600342    4.90999985    2.57999992
   12.30305576  172.46099854    4.90999985    2.57999992
   12.30638885  153.25599670    4.90999985    2.59999990
   12.32555580  151.82699585    4.90999985    2.59999990
   12.32638836  158.08700562    4.90999985    2.57999992
   12.32972240  141.34100342    4.90999985    2.57999992
   12.33305550  152.66299438    4.90999985    2.57999992
   12.33638859  158.20700073    4.90999985    2.57999992
   12.33944416  154.57400513    4.90999985    2.59999990
   12.34277725  162.97599792    4.90999985    2.59999990
   12.34611034  150.76499939    4.90999985    2.59999990
   12.34916592  146.20399475    4.90999985    2.59999990
   12.35249996  156.37399292    4.90999985    2.57999992
   12.35583401  157.13800049    4.90999985    2.59999990
   12.35861111  148.01100159    4.90999985    2.57999992
   12.35944462  147.18699646    4.90999985    2.59999990
   12.36250019  147.94900513    4.90999985    2.57999992
   12.36583328  154.82899475    4.90999985    2.59999990
   12.36888885  155.55700684    4.90999985    2.59999990
   12.37222195  146.60899353    4.90999985    2.59999990
   12.37555599  154.68200684    4.90999985    2.61999989
   12.37861156  145.26400757    4.90999985    2.59999990
   12.38194466  162.41799927    4.90999985    2.61999989
   12.38500023  152.38499451    4.90999985    2.59999990
   12.38833332  161.24600220    4.90999985    2.59999990
   12.39138889  152.91499329    4.90999985    2.61999989
   12.39222240  147.36199951    4.90999985    2.61999989
   12.39499950  160.27499390    4.90999985    2.61999989
   12.39833355  157.65800476    4.90999985    2.59999990
   12.40138817  148.57000732    4.90999985    2.59999990
   12.40472221  145.12600708    4.90999985    2.61999989
   12.40777779  146.90699768    4.90999985    2.61999989
   12.41111088  147.66400146    4.90999985    2.61999989
   12.41444397  155.51800537    4.90999985    2.61999989
   12.41750050  146.39700317    4.90999985    2.61999989
   12.42083359  141.84399414    4.90999985    2.61999989
   12.42388916  139.90499878    4.90999985    2.61999989
   12.42555618  146.60699463    4.90999985    2.61999989
   12.42750072  149.14199829    4.90999985    2.61999989
   12.43083382  142.32899475    4.90999985    2.61999989
   12.43388939  138.95199585    4.90999985    2.61999989
   12.43722248  150.61500549    4.90999985    2.61999989
   12.44027805  149.80200195    4.90999985    2.61999989
   12.44361115  148.73399353    4.90999985    2.61999989
   12.44694424  145.91299438    4.90999985    2.61999989
   12.44999981  142.66099548    4.90999985    2.61999989
   12.45333290  154.25300598    4.90999985    2.61999989
   12.45638847  138.59899902    4.90999985    2.61999989
   12.45888901  159.18499756    4.90999985    2.61999989
   12.46000004  162.70899963    4.90999985    2.64000010
   12.46333313  143.19700623    4.90999985    2.61999989
   12.46638870  142.88600159    4.90999985    2.61999989
   12.46972179  148.91600037    4.90999985    2.61999989
   12.47277737  152.82000732    4.90999985    2.61999989
   12.47611046  144.07899475    4.90999985    2.64000010
   12.47944355  144.26400757    4.90999985    2.64000010
   12.48249912  140.75999451    4.90999985    2.64000010
   12.48583317  146.60099792    4.90999985    2.61999989
   12.48888874  153.26499939    4.90999985    2.61999989
   12.49222279  154.37699890    4.90999985    2.64000010
   12.49250031  148.08399963    4.90999985    2.64000010
   12.49583340  148.42999268    4.90999985    2.64000010
   12.49888897  143.52900696    4.90999985    2.64000010
   12.50222206  152.14399719    4.90999985    2.61999989
   12.50527763  148.36399841    4.90999985    2.64000010
   12.50861073  147.08500671    4.90999985    2.64000010
   12.51194477  148.58700562    4.90999985    2.64000010
   12.51500034  148.63299561    4.90999985    2.64000010
   12.51833344  144.23899841    4.90999985    2.64000010
   12.52138901  143.23500061    4.90999985    2.64000010
   12.52472210  139.64999390    4.90999985    2.64000010
   12.52555561  153.41000366    4.90999985    2.64000010
   12.52833271  149.27000427    4.90999985    2.64000010
   12.53166676  155.19700623    4.90999985    2.64000010
   12.53472233  144.10000610    4.90999985    2.64000010
   12.53805637  147.56199646    4.90999985    2.64000010
   12.54138947  152.59700012    4.90999985    2.64000010
   12.54444504  144.45300293    4.90999985    2.66000009
   12.54777813  144.09700012    4.90999985    2.64000010
   12.55083370  157.61900330    4.90999985    2.64000010
   12.55416679  142.57400513    4.90999985    2.64000010
   12.55749989  146.32800293    4.90999985    2.64000010
   12.55888939  138.12699890    4.90999985    2.66000009
   12.56083393  139.03900146    4.90999985    2.66000009
   12.56416702  146.53399658    4.90999985    2.64000010
   12.56722260  149.72500610    4.90999985    2.66000009
   12.57055569  152.95799255    4.90999985    2.66000009
   12.57388878  136.47399902    4.90999985    2.66000009
   12.57694435  135.38499451    4.90999985    2.66000009
   12.58027744  141.92900085    4.90999985    2.64000010
   12.58333302  136.50199890    4.90999985    2.67000008
   12.58666611  136.03999329    4.90999985    2.66000009
   12.59000015  147.75900269    4.90999985    2.66000009
   12.59222221  139.37100220    4.90999985    2.66000009
   12.59333324  142.72599792    4.90999985    2.66000009
   12.59666634  146.03999329    4.90999985    2.66000009
   12.59972191  140.03599548    4.90999985    2.66000009
   12.60305595  140.37300110    4.90999985    2.66000009
   12.60638905  144.86900330    4.90999985    2.67000008
   12.60944462  141.70700073    4.90999985    2.66000009
   12.61277771  139.35699463    4.90999985    2.66000009
   12.61583328  144.28300476    4.90999985    2.66000009
   12.61916637  148.26699829    4.90999985    2.66000009
   12.62222195  145.55799866    4.90999985    2.66000009
   12.62555599  151.30900574    4.90999985    2.66000009
   12.62583351  151.34800720    4.90999985    2.66000009
   12.62916660  138.55900574    4.90999985    2.66000009
   12.63222218  144.48300171    4.90999985    2.66000009
   12.63555527  159.05799866    4.90999985    2.66000009
   12.63888836  142.91600037    4.90999985    2.67000008
   12.64194393  135.10099792    4.90999985    2.66000009
   12.64527798  145.79499817    4.90999985    2.66000009
   12.64833355  140.70700073    4.90999985    2.67000008
   12.65166664  144.65400696    4.90999985    2.67000008
   12.65472221  136.58599854    4.90999985    2.67000008
   12.65805531  155.32499695    4.90999985    2.67000008
   12.65888882  144.52900696    4.90999985    2.67000008
   12.66166592  150.42300415    4.90999985    2.66000009
   12.66499996  141.13900757    4.90999985    2.67000008
   12.66805553  141.78599548    4.90999985    2.67000008
   12.67138958  144.41700745    4.90999985    2.67000008
   12.67472267  152.02200317    4.90999985    2.67000008
   12.67777824  147.09599304    4.90999985    2.67000008
   12.68111134  151.35200500    4.90999985    2.67000008
   12.68416691  150.01300049    4.90999985    2.67000008
   12.68750000  146.45599365    4.90999985    2.67000008
   12.69055557  144.93499756    4.90999985    2.67000008
   12.69222260  149.09800720    4.90999985    2.67000008
   12.69416714  141.40100098    4.90999985    2.67000008
   12.69750023  136.91400146    4.90999985    2.67000008
   12.70055580  146.94700623    4.90999985    2.67000008
   12.70388889  144.44700623    4.90999985    2.69000006
   12.70722198  148.35099792    4.90999985    2.67000008
   12.71027756  137.56300354    4.90999985    2.67000008
   12.71361065  148.04600525    4.90999985    2.67000008
   12.71666622  135.16099548    4.90999985    2.67000008
   12.71999931  145.23800659    4.90999985    2.67000008
   12.72305489  148.57400513    4.90999985    2.67000008
   12.72555542  142.54899597    4.90999985    2.69000006
   12.72666645  149.12300110    4.90999985    2.67000008
   12.72999954  139.27099609    4.90999985    2.69000006
   12.73305511  143.58700562    4.90999985    2.69000006
   12.73638916  144.45700073    4.90999985    2.67000008
   12.73972225  132.58200073    4.90999985    2.69000006
   12.74277782  142.57800293    4.90999985    2.67000008
   12.74611092  143.22399902    4.90999985    2.67000008
   12.74916649  146.43099976    4.90999985    2.67000008
   12.75249958  143.25700378    4.90999985    2.69000006
   12.75555515  144.52299500    4.90999985    2.69000006
   12.75888920  149.61199951    4.90999985    2.69000006
   12.75916672  144.35000610    4.90999985    2.69000006
   12.76249981  146.08799744    4.90999985    2.69000006
   12.76583290  156.14799500    4.90999985    2.69000006
   12.76888847  150.30400085    4.90999985    2.69000006
   12.77222157  146.11900330    4.90999985    2.69000006
   12.77527714  156.53399658    4.90999985    2.69000006
   12.77861118  147.69200134    4.90999985    2.67000008
   12.78166676  142.56900024    4.90999985    2.69000006
   12.78500080  140.12500000    4.90999985    2.69000006
   12.78833389  148.98500061    4.90999985    2.69000006
   12.79138947  144.86300659    4.90999985    2.69000006
   12.79222298  142.18299866    4.90999985    2.71000004
   12.79500008  142.48500061    4.90999985    2.69000006
   12.79833412  145.05200195    4.90999985    2.71000004
   12.80194473  140.92300415    4.90999985    2.69000006
   12.80527782  141.05499268    4.90999985    2.69000006
   12.80833340  145.84199524    4.90999985    2.69000006
   12.81166649  140.01899719    4.90999985    2.69000006
   12.81500053  135.57600403    4.90999985    2.69000006
   12.81805515  137.92199707    4.90999985    2.69000006
   12.82138920  137.94900513    4.90999985    2.69000006
   12.82444477  140.11500549    4.90999985    2.69000006
   12.82555580  129.76699829    4.90999985    2.69000006
   12.82805538  135.56900024    4.90999985    2.71000004
   12.83138847  133.71600342    4.90999985    2.71000004
   12.83472157  137.55000305    4.90999985    2.69000006
   12.83805561  142.21099854    4.90999985    2.69000006
   12.84138870  143.36900330    4.90999985    2.69000006
   12.84444427  139.78199768    4.90999985    2.69000006
   12.84777737  136.15499878    4.90999985    2.69000006
   12.85083389  138.90199280    4.90999985    2.69000006
   12.85416698  142.64999390    4.90999985    2.69000006
   12.85750008  144.54499817    4.90999985    2.71000004
   12.85888958  140.64199829    4.90999985    2.71000004
   12.86083412  145.51199341    4.90999985    2.71000004
   12.86416721  144.43299866    4.90999985    2.71000004
   12.86750031  149.66000366    4.90999985    2.71000004
   12.87055588  142.49400330    4.90999985    2.71000004
   12.87388897  140.43699646    4.90999985    2.71000004
   12.87694454  138.46400452    4.90999985    2.71000004
   12.88027763  149.31399536    4.90999985    2.71000004
   12.88361073  143.93800354    4.90999985    2.71000004
   12.88666630  139.05499268    4.90999985    2.71000004
   12.89000034  145.72200012    4.90999985    2.71000004
   12.89222240  136.65699768    4.90999985    2.71000004
   12.89361095  134.36999512    4.90999985    2.69000006
   12.89694405  145.11599731    4.90999985    2.71000004
   12.89999962  146.73300171    4.90999985    2.73000002
   12.90333271  139.21899414    4.90999985    2.71000004
   12.90638828  138.73800659    4.90999985    2.71000004
   12.90972137  139.45399475    4.90999985    2.71000004
   12.91305542  144.14900208    4.90999985    2.71000004
   12.91611099  141.32899475    4.90999985    2.71000004
   12.91944504  133.93899536    4.90999985    2.71000004
   12.92277813  142.13699341    4.90999985    2.71000004
   12.92555618  144.64100647    4.90999985    2.71000004
   12.92611122  141.27400208    4.90999985    2.71000004
   12.92944431  133.29899597    4.90999985    2.71000004
   12.93277836  131.16499329    4.90999985    2.71000004
   12.93583298  137.27499390    4.90999985    2.73000002
   12.93916702  140.09899902    4.90999985    2.73000002
   12.94250011  138.32200623    4.90999985    2.71000004
   12.94555569  141.58299255    4.90999985    2.69000006
   12.94888878  131.30400085    4.90999985    2.71000004
   12.95222187  138.21699524    4.90999985    2.71000004
   12.95555496  128.54100037    4.90999985    2.71000004
   12.95861053  136.25799561    4.90999985    2.71000004
   12.95916653  130.94799805    4.90999985    2.71000004
   12.96249962  136.44400024    4.90999985    2.71000004
   12.96583271  135.78300476    4.90999985    2.73000002
   12.96888828  138.64399719    4.90999985    2.71000004
   12.97222137  132.02699280    4.90999985    2.71000004
   12.97555542  142.36000061    4.90999985    2.71000004
   12.97861099  131.63400269    4.90999985    2.71000004
   12.98194408  138.86099243    4.90999985    2.73000002
   12.98500061  139.25100708    4.90999985    2.73000002
   12.98833370  138.06300354    4.90999985    2.73000002
   12.99166679  142.88800049    4.90999985    2.73000002
   12.99250031  138.17599487    4.90999985    2.73000002
   12.99527836  136.12699890    4.90999985    2.73000002
   12.99833393  152.31799316    4.90999985    2.73000002
   13.00166702  140.75700378    4.90999985    2.73000002
   13.00500011  132.03500366    4.90999985    2.73000002
   13.00805569  135.81799316    4.90999985    2.71000004
   13.01138878  134.86799622    4.90999985    2.73000002
   13.01444435  134.70599365    4.90999985    2.73000002
   13.01777744  128.80599976    4.90999985    2.73000002
   13.02111053  134.91900635    4.90999985    2.73000002
   13.02416611  127.36499786    4.90999985    2.73000002
   13.02583313  134.88200378    4.90999985    2.75000000
   13.02777767  134.53599548    4.90999985    2.73000002
   13.03083324  126.16100311    4.90999985    2.73000002
   13.03416729  132.13099670    4.90999985    2.73000002
   13.03750038  128.76800537    4.90999985    2.73000002
   13.04055595  137.73500061    4.90999985    2.73000002
   13.04388905  126.63500214    4.90999985    2.73000002
   13.04722309  128.55700684    4.90999985    2.73000002
   13.05027771  119.80200195    4.90999985    2.75000000
   13.05361176  121.17199707    4.90999985    2.73000002
   13.05694485  129.33700562    4.90999985    2.73000002
   13.05916691  125.31300354    4.90999985    2.73000002
   13.06083393  132.95300293    4.90999985    2.73000002
   13.06388950  124.84300232    4.90999985    2.73000002
   13.06722260  129.31599426    4.90999985    2.75000000
   13.07055569  126.70600128    4.90999985    2.75000000
   13.07361126  133.17999268    4.90999985    2.75000000
   13.07694435  129.92700195    4.90999985    2.75000000
   13.07999992  135.80999756    4.90999985    2.75000000
   13.08333302  129.57200623    4.90999985    2.73000002
   13.08666611  136.41600037    4.90999985    2.75000000
   13.08972168  128.85400391    4.90999985    2.75000000
   13.09249973  129.27699280    4.90999985    2.73000002
   13.09361076  122.71900177    4.90999985    2.75000000
   13.09666634  131.95199585    4.90999985    2.73000002
   13.10000038  129.98399353    4.90999985    2.73000002
   13.10333347  122.86000061    4.90999985    2.75000000
   13.10638905  125.19699860    4.90999985    2.73000002
   13.10972214  124.49099731    4.90999985    2.75000000
   13.11305618  123.76999664    4.90999985    2.75000000
   13.11611176  128.75199890    4.90999985    2.75000000
   13.11944485  122.93000031    4.90999985    2.75000000
   13.12250042  127.94799805    4.90999985    2.73000002
   13.12583351  124.97599792    4.90999985    2.75000000
   13.12638855  126.96800232    4.90999985    2.73000002
   13.12944412  129.79600525    4.90999985    2.75000000
   13.13277817  120.19000244    4.90999985    2.73000002
   13.13611126  125.59999847    4.90999985    2.75000000
   13.13916683  127.15299988    4.90999985    2.75000000
   13.14249992  129.75999451    4.90999985    2.75000000
   13.14583302  129.93400574    4.90999985    2.75000000
   13.14888859  121.68599701    4.90999985    2.75000000
   13.15222168  135.69400024    4.90999985    2.75000000
   13.15555477  125.38400269    4.90999985    2.75000000
   13.15861034  121.41200256    4.90999985    2.75000000
   13.15916634  127.35700226    4.90999985    2.75000000
   13.16222191  130.93299866    4.90999985    2.75000000
   13.16555500  134.20700073    4.90999985    2.75000000
   13.16888905  127.76200104    4.90999985    2.75000000
   13.17194462  126.06099701    4.90999985    2.75000000
   13.17527771  134.71400452    4.90999985    2.75000000
   13.17833328  134.37899780    4.90999985    2.75000000
   13.18166733  125.21900177    4.90999985    2.75000000
   13.18500042  136.09399414    4.90999985    2.75000000
   13.18805599  125.58100128    4.90999985    2.75000000
   13.19138908  133.13800049    4.90999985    2.75000000
   13.19250011  125.48100281    4.90999985    2.75000000
   13.19499969  135.25999451    4.90999985    2.75000000
   13.19833374  125.45300293    4.90999985    2.75000000
   13.20138836  134.21899414    4.90999985    2.75000000
   13.20472240  130.56199646    4.90999985    2.75000000
   13.20805550  134.82600403    4.90999985    2.75000000
   13.21111107  126.40200043    4.90999985    2.75000000
   13.21444416  134.23500061    4.90999985    2.76999998
   13.21749973  122.30400085    4.90999985    2.75000000
   13.22083282  128.80900574    4.90999985    2.75000000
   13.22416592  129.61700439    4.90999985    2.76999998
   13.22611046  141.34899902    4.90999985    2.76999998
   13.22777748  132.29400635    4.90999985    2.75000000
   13.23111057  129.11000061    4.90999985    2.75000000
   13.23416710  129.11199951    4.90999985    2.76999998
   13.23750019  129.42100525    4.90999985    2.75000000
   13.24055576  134.44999695    4.90999985    2.75000000
   13.24388885  136.13999939    4.90999985    2.76999998
   13.24722290  141.01499939    4.90999985    2.76999998
   13.25027752  131.09300232    4.90999985    2.76999998
   13.25361156  129.98899841    4.90999985    2.76999998
   13.25694466  122.07700348    4.90999985    2.76999998
   13.25972176  131.81399536    4.90999985    2.76999998
   13.26111126  126.16699982    4.90999985    2.76999998
   13.26444435  123.79699707    4.90999985    2.76999998
   13.26777744  132.10499573    4.90999985    2.76999998
   13.27083302  130.46600342    4.90999985    2.76999998
   13.27416611  128.36399841    4.90999985    2.76999998
   13.27722168  129.44700623    4.90999985    2.76999998
   13.28055573  134.49800110    4.90999985    2.76999998
   13.28388977  134.35000610    4.90999985    2.76999998
   13.28694534  129.82699585    4.90999985    2.76999998
   13.29027843  128.00599670    4.90999985    2.76999998
   13.29277802  127.98400116    4.90999985    2.76999998
   13.29388905  125.52600098    4.90999985    2.76999998
   13.29722309  124.58100128    4.90999985    2.76999998
   13.30027771  128.20100403    4.90999985    2.76999998
   13.30361176  130.66299438    4.90999985    2.76999998
   13.30666733  124.13200378    4.90999985    2.76999998
   13.31000042  133.92100525    4.90999985    2.76999998
   13.31333351  123.10199738    4.90999985    2.76999998
   13.31638908  128.15499878    4.90999985    2.76999998
   13.31972218  123.46800232    4.90999985    2.76999998
   13.32277775  124.98899841    4.90999985    2.78999996
   13.34194374  125.01000214    4.90999985    2.78999996
   13.34277725  122.86399841    4.90999985    2.78999996
   13.34583282  121.75900269    4.90999985    2.76999998
   13.34916592  122.22399902    4.90999985    2.78999996
   13.35249996  120.25299835    4.90999985    2.78999996
   13.35555553  124.37899780    4.90999985    2.78999996
   13.35888958  124.18599701    4.90999985    2.78999996
   13.36194515  128.38000488    4.90999985    2.76999998
   13.36527824  126.41999817    4.90999985    2.76999998
   13.36833382  125.39800262    4.90999985    2.76999998
   13.37166691  124.62000275    4.90999985    2.78999996
   13.37500000  129.74200439    4.90999985    2.76999998
   13.37527752  127.01699829    4.90999985    2.76999998
   13.37861156  128.34500122    4.90999985    2.76999998
   13.38194466  128.06900024    4.90999985    2.78999996
   13.38500023  121.43900299    4.90999985    2.76999998
   13.38833332  120.33300018    4.90999985    2.78999996
   13.39138889  128.03900146    4.90999985    2.78999996
   13.39472198  121.22100067    4.90999985    2.78999996
   13.39805508  124.54599762    4.90999985    2.78999996
   13.40166664  123.78399658    4.90999985    2.78999996
   13.40555477  131.24800110    4.90999985    2.78999996
   13.40888882  123.75299835    4.90999985    2.76999998
   13.40972137  126.18800354    4.90999985    2.78999996
   13.41305542  130.99899292    4.90999985    2.78999996
   13.41611099  121.01000214    4.90999985    2.78999996
   13.41972256  127.41100311    4.90999985    2.78999996
   13.42277813  117.73000336    4.90999985    2.78999996
   13.42611122  125.83399963    4.90999985    2.78999996
   13.42944431  126.63999939    4.90999985    2.78999996
   13.43277836  117.63200378    4.90999985    2.78999996
   13.43611145  125.39600372    4.90999985    2.78999996
   13.43972206  123.07399750    4.90999985    2.78999996
   13.44222260  118.62999725    4.90999985    2.78999996
   13.44333363  127.45899963    4.90999985    2.78999996
   13.44638920  125.99400330    4.90999985    2.78999996
   13.44972229  120.71099854    4.90999985    2.78999996
   13.45305538  121.82299805    4.90999985    2.78999996
   13.45638847  121.50700378    4.90999985    2.78999996
   13.45972157  125.89099884    4.90999985    2.78999996
   13.46277714  124.98699951    4.90999985    2.78999996
   13.46611118  130.98899841    4.90999985    2.78999996
   13.46944427  126.78500366    4.90999985    2.78999996
   13.47277737  117.96600342    4.90999985    2.78999996
   13.47555542  112.89099884    4.90999985    2.78999996
   13.47611046  118.52600098    4.90999985    2.78999996
   13.47944355  113.80699921    4.90999985    2.78999996
   13.48277760  119.29100037    4.90999985    2.78999996
   13.48583317  118.83200073    4.90999985    2.78999996
   13.48916721  118.66300201    4.90999985    2.78999996
   13.49250031  120.69200134    4.90999985    2.78999996
   13.49555588  121.92900085    4.90999985    2.80999994
   13.49888897  122.34400177    4.90999985    2.78999996
   13.50222206  129.89599609    4.90999985    2.78999996
   13.50527763  124.21800232    4.90999985    2.78999996
   13.50861073  125.29599762    4.90999985    2.78999996
   13.50916672  124.29599762    4.90999985    2.78999996
   13.51222229  122.36900330    4.90999985    2.78999996
   13.51555538  127.54699707    4.90999985    2.78999996
   13.51888847  122.09400177    4.90999985    2.78999996
   13.52194405  123.13600159    4.90999985    2.80999994
   13.52527714  119.47599792    4.90999985    2.78999996
   13.52833271  119.67299652    4.90999985    2.78999996
   13.53166676  119.49299622    4.90999985    2.78999996
   13.53500080  121.74900055    4.90999985    2.80999994
   13.53805637  117.13600159    4.90999985    2.80999994
   13.54138947  119.79100037    4.90999985    2.78999996
   13.54250050  119.14399719    4.90999985    2.80999994
   13.54500008  113.02400208    4.90999985    2.80999994
   13.54833412  116.38800049    4.90999985    2.80999994
   13.55166721  122.35299683    4.90999985    2.80999994
   13.55472279  120.96299744    4.90999985    2.78999996
   13.55805588  118.79499817    4.90999985    2.80999994
   13.56138897  119.20700073    4.90999985    2.80999994
   13.56444454  111.21600342    4.90999985    2.80999994
   13.56777763  120.54900360    4.90999985    2.80999994
   13.57083321  118.99400330    4.90999985    2.80999994
   13.57416630  112.54599762    4.90999985    2.80999994
   13.57583332  118.27999878    4.90999985    2.80999994
   13.57805538  108.94100189    4.90999985    2.80999994
   13.58111095  110.77899933    4.90999985    2.80999994
   13.58444405  112.23999786    4.90999985    2.80999994
   13.58777714  117.69300079    4.90999985    2.80999994
   13.59083271  111.44300079    4.90999985    2.80999994
   13.59416676  113.51399994    4.90999985    2.80999994
   13.59722233  112.04199982    4.90999985    2.80999994
   13.60055637  111.26999664    4.90999985    2.80999994
   13.60388947  110.62599945    4.90999985    2.80999994
   13.60694504  108.36299896    4.90999985    2.80999994
   13.60916710  112.59799957    4.90999985    2.80999994
   13.61083412  109.92800140    4.90999985    2.80999994
   13.61388969  109.34700012    4.90999985    2.80999994
   13.61722279  108.12899780    4.90999985    2.80999994
   13.62027836  112.54000092    4.90999985    2.80999994
   13.62361145  111.82800293    4.90999985    2.80999994
   13.62694454  116.16100311    4.90999985    2.80999994
   13.63000011  109.56400299    4.90999985    2.80999994
   13.63333321  118.16999817    4.90999985    2.82999992
   13.63666630  106.87400055    4.90999985    2.82999992
   13.63972187  115.45999908    4.90999985    2.80999994
   13.64249992  110.07900238    4.90999985    2.80999994
   13.64361095  114.74600220    4.90999985    2.80999994
   13.64666653  107.96700287    4.90999985    2.80999994
   13.64999962  114.25299835    4.90999985    2.80999994
   13.65333271  109.67800140    4.90999985    2.80999994
   13.65638828  112.21900177    4.90999985    2.80999994
   13.65972137  110.83999634    4.90999985    2.82999992
   13.66277695  111.05599976    4.90999985    2.80999994
   13.66611099  116.57499695    4.90999985    2.80999994
   13.66944504  111.88400269    4.90999985    2.82999992
   13.67250061  111.35299683    4.90999985    2.82999992
   13.67583370  112.19699860    4.90999985    2.82999992
   13.67638874  112.01599884    4.90999985    2.82999992
   13.67944431  115.65899658    4.90999985    2.80999994
   13.68277836  116.98100281    4.90999985    2.80999994
   13.68611145  114.58000183    4.90999985    2.80999994
   13.68916702  108.73699951    4.90999985    2.80999994
   13.69250011  110.24199677    4.90999985    2.82999992
   13.69555569  111.80000305    4.90999985    2.80999994
   13.69888878  112.69999695    4.90999985    2.82999992
   13.70222187  111.22799683    4.90999985    2.82999992
   13.70527744  107.70999908    4.90999985    2.80999994
   13.81916618   -1.00000000   -1.00000000   -1.00000000
   13.91638851   -1.00000000   -1.00000000   -1.00000000
   14.01722240   -1.00000000   -1.00000000   -1.00000000
   14.05555534   69.79579926    4.90999985    2.84999990
   14.05861092  131.98800659    4.90999985    2.84999990
   14.06194496  132.88299561    4.90999985    2.84999990
   14.06527805  119.37400055    4.90999985    2.84999990
   14.06833363  116.16000366    4.90999985    2.84999990
   14.07166672  113.32900238    4.90999985    2.84999990
   14.07583332  113.32900238    4.90999985    2.84999990
   14.08027744  119.13999939    4.90999985    2.84999990
   14.08333302  131.05000305    4.90999985    2.84999990
   14.08666611  131.06900024    4.90999985    2.84999990
   14.08888817  120.82499695    4.90999985    2.84999990
   14.09000015  116.32700348    4.90999985    2.86999989
   14.09333324  116.19100189    4.90999985    2.84999990
   14.09666634  117.28399658    4.90999985    2.84999990
   14.09972191  113.94799805    4.90999985    2.84999990
   14.10305595  114.84899902    4.90999985    2.84999990
   14.10638905  122.40899658    4.90999985    2.84999990
   14.10944462  117.08100128    4.90999985    2.84999990
   14.11277771  120.60199738    4.90999985    2.84999990
   14.11861134  120.60199738    4.90999985    2.84999990
   14.12277794  120.91200256    4.90999985    2.84999990
   14.12611103  123.40499878    4.90999985    2.86999989
   14.12916660  118.70200348    4.90999985    2.86999989
   14.13249969  121.78600311    4.90999985    2.84999990
   14.13555527  123.82299805    4.90999985    2.86999989
   14.13888836  115.81099701    4.90999985    2.86999989
   14.14222240  116.30100250    4.90999985    2.84999990
   14.14527798  119.91300201    4.90999985    2.86999989
   14.14861107  119.75700378    4.90999985    2.84999990
   14.15166664  119.70800018    4.90999985    2.84999990
   14.15499973  119.34500122    4.90999985    2.84999990
   14.15555477  124.89800262    4.90999985    2.84999990
   14.16138840  124.89800262    4.90999985    2.84999990
   14.16555500  117.83899689    4.90999985    2.86999989
   14.16888905  123.50299835    4.90999985    2.84999990
   14.17194462  116.90799713    4.90999985    2.86999989
   14.17527771  117.93800354    4.90999985    2.86999989
   14.17861176  126.38300323    4.90999985    2.84999990
   14.18166733  124.83899689    4.90999985    2.84999990
   14.18500042  130.13000488    4.90999985    2.86999989
   14.18833351  121.89800262    4.90999985    2.84999990
   14.18888855  120.99800110    4.90999985    2.84999990
   14.19194412  112.06700134    4.90999985    2.84999990
   14.19499969  118.63999939    4.90999985    2.86999989
   14.19833374  108.66999817    4.90999985    2.86999989
   14.20444393  108.66999817    4.90999985    2.86999989
   14.20833302  114.08499908    4.90999985    2.86999989
   14.21166611  115.89900208    4.90999985    2.84999990
   14.21500015  118.83000183    4.90999985    2.84999990
   14.21805477  111.72299957    4.90999985    2.84999990
   14.22138882  112.89600372    4.90999985    2.84999990
   14.22222137  117.93399811    4.90999985    2.84999990
   14.22499943  119.76000214    4.90999985    2.86999989
   14.22805500  117.29000092    4.90999985    2.86999989
   14.23138809  119.57499695    4.90999985    2.84999990
   14.23472214  119.66999817    4.90999985    2.86999989
   14.23777771  117.90599823    4.90999985    2.86999989
   14.24111176  110.58200073    4.90999985    2.86999989
   14.24722290  110.58200073    4.90999985    2.84999990
   14.25138855  115.70600128    4.90999985    2.86999989
   14.25444412  117.90299988    4.90999985    2.86999989
   14.25555515  119.93199921    4.90999985    2.84999990
   14.25833321  114.02799988    4.90999985    2.86999989
   14.26138878  117.47799683    4.90999985    2.86999989
   14.26472187  114.77500153    4.90999985    2.86999989
   14.26805496  124.05699921    4.90999985    2.86999989
   14.27111053  117.65499878    4.90999985    2.86999989
   14.27444458  127.10299683    4.90999985    2.86999989
   14.27777767  113.66600037    4.90999985    2.86999989
   14.28083324  128.27299500    4.90999985    2.86999989
   14.28416729  115.20200348    4.90999985    2.86999989
   14.29027843  115.20200348    4.90999985    2.84999990
   14.29444504  122.68499756    4.90999985    2.86999989
   14.29805565  122.37699890    4.90999985    2.86999989
   14.30138874  123.43099976    4.90999985    2.86999989
   14.30472279  118.31300354    4.90999985    2.86999989
   14.30777836  120.33599854    4.90999985    2.86999989
   14.31111145  120.01000214    4.90999985    2.86999989
   14.31444454  115.43599701    4.90999985    2.86999989
   14.31750011  120.50099945    4.90999985    2.86999989
   14.32083321  116.11100006    4.90999985    2.86999989
   14.32361126  116.07299805    4.90999985    2.86999989
   14.32444477  115.63600159    4.90999985    2.86999989
   14.32777786  109.45899963    4.90999985    2.86999989
   14.33305550  109.45899963    4.90999985    2.86999989
   14.33694458  110.00800323    4.90999985    2.86999989
   14.34027767  115.95999908    4.90999985    2.86999989
   14.34361076  111.05899811    4.90999985    2.86999989
   14.34666634  108.29699707    4.90999985    2.86999989
   14.35000038  111.79699707    4.90999985    2.86999989
   14.35333347  110.67500305    4.90999985    2.86999989
   14.35638905  103.95400238    4.90999985    2.86999989
   14.35694504  108.96199799    4.90999985    2.86999989
   14.36000061  101.44400024    4.90999985    2.86999989
   14.36305618  104.36599731    4.90999985    2.86999989
   14.36638927  104.16899872    4.90999985    2.86999989
   14.36972237  116.80500031    4.90999985    2.84999990
   14.37583351  116.80500031    4.90999985    2.86999989
   14.38000011  102.95899963    4.90999985    2.86999989
   14.38305569  105.24600220    4.90999985    2.86999989
   14.38638878  105.23300171    4.90999985    2.86999989
   14.38972187  109.16799927    4.90999985    2.86999989
   14.39027786  104.76000214    4.90999985    2.86999989
   14.39333344  116.67099762    4.90999985    2.86999989
   14.39638901  108.09200287    4.90999985    2.86999989
   14.39972210  102.15000153    4.90999985    2.89000010
   14.40305519  109.80999756    4.90999985    2.86999989
   14.40611076  107.83599854    4.90999985    2.86999989
   14.40944386  119.72899628    4.90999985    2.89000010
   14.41277695  109.25299835    4.90999985    2.86999989
   14.41861153  109.25299835    4.90999985    2.86999989
   14.42277813  114.67299652    4.90999985    2.86999989
   14.42361164  118.26899719    4.90999985    2.86999989
   14.42638874  107.11399841    4.90999985    2.89000010
   14.42944431  111.24500275    4.90999985    2.86999989
   14.43277836  110.29599762    4.90999985    2.86999989
   14.43611145  109.28399658    4.90999985    2.86999989
   14.43916702  109.61599731    4.90999985    2.86999989
   14.44250011  104.78600311    4.90999985    2.86999989
   14.44583321  114.07700348    4.90999985    2.86999989
   14.44888878  106.73100281    4.90999985    2.86999989
   14.45222187  115.60199738    4.90999985    2.86999989
   14.45527744  107.01799774    4.90999985    2.86999989
   14.45694447   99.98229980    4.90999985    2.86999989
   14.46138859   99.98229980    4.90999985    2.86999989
   14.46555519  102.53399658    4.90999985    2.89000010
   14.46888828  108.75700378    4.90999985    2.86999989
   14.47194386  116.08899689    4.90999985    2.86999989
   14.47527695  125.27600098    4.90999985    2.86999989
   14.47861099  142.67199707    4.90999985    2.86999989
   14.48194408  144.78599548    4.90999985    2.86999989
   14.48500061  141.49899292    4.90999985    2.86999989
   14.48833370  132.22500610    4.90999985    2.86999989
   14.49027824  138.36700439    4.90999985    2.89000010
   14.49194431  141.57499695    4.90999985    2.89000010
   14.49499989  142.09100342    4.90999985    2.86999989
   14.49833393  139.20799255    4.90999985    2.86999989
   14.50444412  139.20799255    4.90999985    2.86999989
   14.50833321  179.37699890    4.90999985    2.86999989
   14.51166630  168.44200134    4.90999985    2.89000010
   14.51500034  152.69700623    4.90999985    2.86999989
   14.51805496  137.92500305    4.90999985    2.89000010
   14.52138901  149.76699829    4.90999985    2.89000010
   14.52361107  139.42999268    4.90999985    2.86999989
   14.52499962  124.53399658    4.90999985    2.89000010
   14.52805519  134.95700073    4.90999985    2.86999989
   14.53138828  129.94599915    4.90999985    2.86999989
   14.53472233  122.86499786    4.90999985    2.89000010
   14.53777790  135.19599915    4.90999985    2.86999989
   14.54111195  158.61099243    4.90999985    2.89000010
   14.54722309  158.61099243    4.90999985    2.86999989
   14.55138874  141.38800049    4.90999985    2.86999989
   14.55444431  139.77400208    4.90999985    2.86999989
   14.55694485  138.05799866    4.90999985    2.89000010
   14.55833340  145.31300354    4.90999985    2.89000010
   14.56138897  135.91200256    4.90999985    2.89000010
   14.56472206  123.33499908    4.90999985    2.86999989
   14.56805515  131.03100586    4.90999985    2.89000010
   14.57111073  110.35900116    4.90999985    2.86999989
   14.57444477  116.82599640    4.90999985    2.89000010
   14.57777786  119.86299896    4.90999985    2.89000010
   14.58083344  132.24800110    4.90999985    2.86999989
   14.58416653  120.82800293    4.90999985    2.86999989
   14.59000015  120.82800293    4.90999985    2.86999989
   14.59416676  122.02999878    4.90999985    2.89000010
   14.59749985  117.78299713    4.90999985    2.89000010
   14.60055637  122.41400146    4.90999985    2.89000010
   14.60388947  127.49600220    4.90999985    2.86999989
   14.60694504  124.29599762    4.90999985    2.89000010
   14.61027813  113.27799988    4.90999985    2.89000010
   14.61361122  113.45400238    4.90999985    2.86999989
   14.61666679  117.75099945    4.90999985    2.89000010
   14.61999989  118.01799774    4.90999985    2.89000010
   14.62333393  123.05799866    4.90999985    2.89000010
   14.62500000  118.27600098    4.90999985    2.89000010
   14.62694454  117.80999756    4.90999985    2.86999989
   14.63277817  117.80999756    4.90999985    2.91000009
   14.63694477  116.09999847    4.90999985    2.89000010
   14.64027786  121.08999634    4.90999985    2.89000010
   14.64333344  111.60800171    4.90999985    2.89000010
   14.64666653  108.71499634    4.90999985    2.89000010
   14.64999962  122.09300232    4.90999985    2.89000010
   14.65305519  118.20300293    4.90999985    2.89000010
   14.65638828  113.26000214    4.90999985    2.89000010
   14.65833282  122.76599884    4.90999985    2.89000010
   14.65999985  122.61599731    4.90999985    2.89000010
   14.66305542  129.30700684    4.90999985    2.89000010
   14.66638851  121.75099945    4.90999985    2.89000010
   14.66972256  123.74600220    4.90999985    2.89000010
   14.67583370  123.74600220    4.90999985    2.89000010
   14.67972279  124.19999695    4.90999985    2.89000010
   14.68305588  121.02600098    4.90999985    2.89000010
   14.68638897  118.21499634    4.90999985    2.86999989
   14.68944454  117.68699646    4.90999985    2.89000010
   14.69194412  124.90799713    4.90999985    2.89000010
   14.69333363  115.61799622    4.90999985    2.89000010
   14.69638920  113.61399841    4.90999985    2.89000010
   14.69972229  115.11299896    4.90999985    2.89000010
   14.70277786  120.87100220    4.90999985    2.89000010
   14.70611095  117.77400208    4.90999985    2.89000010
   14.70944405  116.86199951    4.90999985    2.89000010
   14.71249962  115.90899658    4.90999985    2.89000010
   14.71861076  115.90899658    4.90999985    2.89000010
   14.72277737  114.00599670    4.90999985    2.89000010
   14.72527695  116.76499939    4.90999985    2.89000010
   14.72638798  124.23200226    4.90999985    2.89000010
   14.72944355  115.32399750    4.90999985    2.89000010
   14.73277760  109.16300201    4.90999985    2.91000009
   14.73611164  110.32599640    4.90999985    2.89000010
   14.73916721  113.15799713    4.90999985    2.89000010
   14.74250031  114.33799744    4.90999985    2.89000010
   14.74555588  105.54000092    4.90999985    2.89000010
   14.74888897  117.84799957    4.90999985    2.89000010
   14.75222206  112.82099915    4.90999985    2.89000010
   14.75527763  112.34100342    4.90999985    2.89000010
   14.76138878  112.34100342    4.90999985    2.91000009
   14.76555538  119.77700043    4.90999985    2.89000010
   14.76888847  113.38500214    4.90999985    2.89000010
   14.77194405  114.05200195    4.90999985    2.89000010
   14.77527714  114.50499725    4.90999985    2.89000010
   14.77833271  114.37100220    4.90999985    2.89000010
   14.78166676  109.45700073    4.90999985    2.89000010
   14.78500080  118.35199738    4.90999985    2.89000010
   14.78805637  106.02500153    4.90999985    2.89000010
   14.79138947  112.06600189    4.90999985    2.89000010
   14.79222298  107.98699951    4.90999985    2.89000010
   14.79500008  113.94799805    4.90999985    2.89000010
   14.79833412  121.53099823    4.90999985    2.89000010
   14.80416679  121.53099823    4.90999985    2.89000010
   14.80833340  116.09999847    4.90999985    2.91000009
   14.81166649  117.04799652    4.90999985    2.89000010
   14.81500053  112.01699829    4.90999985    2.89000010
   14.81805515  109.68800354    4.90999985    2.89000010
   14.82138920  107.35600281    4.90999985    2.89000010
   14.82444477  112.75900269    4.90999985    2.89000010
   14.82555580  108.60199738    4.90999985    2.89000010
   14.82833290  115.58100128    4.90999985    2.89000010
   14.83166695  118.12699890    4.90999985    2.89000010
   14.83472157  112.00599670    4.90999985    2.91000009
   14.83805561  113.43499756    4.90999985    2.91000009
   14.84111118  114.76899719    4.90999985    2.91000009
   14.84694386  114.76899719    4.90999985    2.89000010
   14.85111141  102.94799805    4.90999985    2.89000010
   14.85444450  111.92600250    4.90999985    2.89000010
   14.85777855  110.41400146    4.90999985    2.91000009
   14.85916710  104.03500366    4.90999985    2.91000009
   14.86138916  108.64600372    4.90999985    2.89000010
   14.86444473  109.68699646    4.90999985    2.89000010
   14.86777782  112.10399628    4.90999985    2.89000010
   14.87111092  111.82499695    4.90999985    2.91000009
   14.87416649  106.33599854    4.90999985    2.91000009
   14.87750053  108.65599823    4.90999985    2.91000009
   14.88055611  101.07399750    4.90999985    2.89000010
   14.88388920  109.31900024    4.90999985    2.89000010
   14.89000034  109.31900024    4.90999985    2.89000010
   14.89416695  115.50499725    4.90999985    2.89000010
   14.89722252  115.12000275    4.90999985    2.89000010
   14.90055561  112.07399750    4.90999985    2.91000009
   14.90361118  106.64199829    4.90999985    2.91000009
   14.90694427  121.61900330    4.90999985    2.91000009
   14.91027737  114.81300354    4.90999985    2.89000010
   14.91333294  107.90299988    4.90999985    2.91000009
   14.91666698  109.97100067    4.90999985    2.91000009
   14.92000008  111.07700348    4.90999985    2.89000010
   14.92305565  113.65299988    4.90999985    2.89000010
   14.92583370  105.38099670    4.90999985    2.89000010
   14.92694473  112.69200134    4.90999985    2.91000009
   14.93277836  112.69200134    4.90999985    2.91000009
   14.93694496  105.90000153    4.90999985    2.89000010
   14.94000053  105.70999908    4.90999985    2.91000009
   14.94333363  116.91400146    4.90999985    2.91000009
   14.94666672  103.96099854    4.90999985    2.91000009
   14.94972229  107.70700073    4.90999985    2.89000010
   14.95305538  100.04199982    4.90999985    2.89000010
   14.95638847   99.65879822    4.90999985    2.89000010
   14.95916653   98.75080109    4.90999985    2.91000009
   14.96000004  102.78099823    4.90999985    2.91000009
   14.96305561  103.23400116    4.90999985    2.91000009
   14.96638870  113.10600281    4.90999985    2.89000010
   14.96972179  109.90000153    4.90999985    2.91000009
   14.97555542  109.90000153    4.90999985    2.89000010
   14.97972202  109.75700378    4.90999985    2.91000009
   14.98305511  108.38700104    4.90999985    2.89000010
   14.98611164  111.43900299    4.90999985    2.89000010
   14.98944473  109.50099945    4.90999985    2.89000010
   14.99250031  105.57499695    4.90999985    2.91000009
   14.99305534  103.58200073    4.90999985    2.89000010
   14.99611092  108.72799683    4.90999985    2.89000010
   14.99944496  113.06700134    4.90999985    2.91000009
   15.00277805  109.71499634    4.90999985    2.89000010
   15.00583363  114.21700287    4.90999985    2.91000009
   15.00916672  107.15000153    4.90999985    2.89000010
   15.01222229  110.62200165    4.90999985    3.00000000
   15.01833344  110.62200165    0.03000000    0.36000001
   15.02250004  110.62100220    0.03000000    0.07000000
   15.02583313  106.96499634    0.03000000    0.07000000
   15.02638817  107.56800079    0.03000000    0.07000000
   15.02944374  104.77899933    0.03000000    0.07000000
   15.03277779  107.11799622    0.03000000    0.07000000
   15.03611183  106.79100037    0.03000000    0.07000000
   15.03916740  103.26699829    0.03000000    0.07000000
   15.04250050  100.51699829    0.03000000    0.07000000
   15.04555607  111.29499817    0.03000000    0.07000000
   15.04888916  112.31199646    0.03000000    0.07000000
   15.05222225  105.97299957    0.03000000    0.07000000
   15.05527782  109.64099884    0.03000000    0.07000000
   15.07611084  109.64099884    0.03000000    0.07000000
   15.08027744  115.04799652    0.03000000    0.07000000
   15.08333302  116.25199890    0.03000000    0.07000000
   15.08666611  116.17099762    0.03000000    0.07000000
   15.09000015  119.50299835    0.03000000    0.07000000
   15.09305477  116.94799805    0.03000000    0.07000000
   15.09638882  119.21900177    0.03000000    0.07000000
   15.09972191  130.52000427    0.03000000    0.07000000
   15.10277843  125.46399689    0.03000000    0.07000000
   15.10611153  129.02400208    0.03000000    0.07000000
   15.10694504  122.75800323    0.03000000    0.07000000
   15.10944462  127.56400299    0.03000000    0.07000000
   15.11277771  112.34899902    0.03000000    0.07000000
   15.11888885  112.34899902    0.03000000    0.07000000
   15.12305546  119.45700073    0.03000000    0.07000000
   15.12611103  123.15799713    0.03000000    0.07000000
   15.12944412  119.92700195    0.03000000    0.07000000
   15.13277817  121.62699890    0.03000000    0.07000000
   15.13583279  132.63099670    0.03000000    0.07000000
   15.13916683  116.21499634    0.03000000    0.07000000
   15.14027786  118.07499695    0.03000000    0.07000000
   15.14249992  119.89900208    0.03000000    0.07000000
   15.14583302  127.18299866    0.03000000    0.07000000
   15.14916611  106.90299988    0.03000000    0.07000000
   15.15222168  123.17700195    0.03000000    0.07000000
   15.15555477  131.62600708    0.03000000    0.07000000
   15.16166592  131.62600708    0.03000000    0.07000000
   15.16583252  117.26399994    0.03000000    0.07000000
   15.16916656  125.19400024    0.03000000    0.07000000
   15.17222214  113.48699951    0.03000000    0.07000000
   15.17388916  105.19999695    0.03000000    0.07000000
   15.17583370  107.30799866    0.03000000    0.07000000
   15.17916679  113.67800140    0.03000000    0.07000000
   15.18249989  116.56900024    0.03000000    0.07000000
   15.18555546  120.75499725    0.03000000    0.07000000
   15.18888855  124.83200073    0.03000000    0.07000000
   15.19194412  132.84500122    0.03000000    0.07000000
   15.19527817  123.70999908    0.03000000    0.07000000
   15.19944477  114.92099762    0.03000000    0.07000000
   15.20444393  114.92099762    0.03000000    0.07000000
   15.20861053  124.11599731    0.03000000    0.07000000
   15.21194458  127.82299805    0.03000000    0.07000000
   15.21500015  116.21099854    0.03000000    0.07000000
   15.21833324  118.47899628    0.03000000    0.07000000
   15.22166634  125.06500244    0.03000000    0.07000000
   15.22472191  122.07900238    0.03000000    0.07000000
   15.22805500  122.19200134    0.03000000    0.07000000
   15.23138809  127.73799896    0.03000000    0.07000000
   15.23444462  122.39700317    0.03000000    0.07000000
   15.23777771  115.14800262    0.03000000    0.07000000
   15.24055576  122.49299622    0.03000000    0.07000000
   15.24138927  107.02799988    0.03000000    0.07000000
   15.24750042  107.02799988    0.03000000    0.07000000
   15.25138855  122.89499664    0.03000000    0.07000000
   15.25472260  117.64199829    0.03000000    0.07000000
   15.25805569  113.43800354    0.03000000    0.07000000
   15.26111126  110.45300293    0.03000000    0.07000000
   15.26444435  136.12100220    0.03000000    0.07000000
   15.26777744  122.93699646    0.03000000    0.07000000
   15.27083302  115.84100342    0.03000000    0.07000000
   15.27388859  111.26000214    0.03000000    0.07000000
   15.27444458  120.79599762    0.03000000    0.07000000
   15.27777767  117.66300201    0.03000000    0.07000000
   15.28111076  118.22000122    0.03000000    0.07000000
   15.28416729  117.81800079    0.03000000    0.07000000
   15.29027843  117.81800079    0.03000000    0.07000000
   15.29444504  113.76399994    0.03000000    0.07000000
   15.29750061  111.70999908    0.03000000    0.07000000
   15.30083370  109.65499878    0.03000000    0.07000000
   15.30416679  103.99199677    0.03000000    0.07000000
   15.30722237  109.75399780    0.03000000    0.07000000
   15.30749989  111.27700043    0.03000000    0.07000000
   15.31083393  108.54499817    0.03000000    0.07000000
   15.31416702  121.75499725    0.03000000    0.07000000
   15.31722260  111.62899780    0.03000000    0.07000000
   15.32055569   99.96640015    0.03000000    0.07000000
   15.32388878  108.88099670    0.03000000    0.07000000
   15.32694435  126.12999725    0.03000000    0.07000000
   15.33305550  126.12999725    0.03000000    0.07000000
   15.33722210  117.87899780    0.03000000    0.07000000
   15.34055519  115.68800354    0.03000000    0.07000000
   15.34083271  118.03099823    0.03000000    0.07000000
   15.34416676  113.26200104    0.03000000    0.07000000
   15.34749985  107.93399811    0.03000000    0.07000000
   15.35055637  116.84799957    0.03000000    0.07000000
   15.35388947  116.07099915    0.03000000    0.07000000
   15.35694504  116.18499756    0.03000000    0.07000000
   15.36027813  112.86599731    0.03000000    0.07000000
   15.36361122  126.79199982    0.03000000    0.07000000
   15.36666679  113.19100189    0.03000000    0.07000000
   15.36999989  122.81300354    0.03000000    0.07000000
   15.37583351  122.81300354    0.03000000    0.07000000
   15.38000011  117.62599945    0.03000000    0.07000000
   15.38333321  115.98200226    0.03000000    0.07000000
   15.38638878  116.00299835    0.03000000    0.07000000
   15.38972187  115.88400269    0.03000000    0.07000000
   15.39305496  115.59500122    0.03000000    0.07000000
   15.39611053  112.33399963    0.03000000    0.07000000
   15.39944458  112.13899994    0.03000000    0.07000000
   15.40277767  117.44400024    0.03000000    0.07000000
   15.40583324  130.93299866    0.03000000    0.07000000
   15.40722179  111.97699738    0.03000000    0.07000000
   15.40944386  117.76899719    0.03000000    0.07000000
   15.41277695  112.76999664    0.03000000    0.07000000
   15.41888905  112.76999664    0.03000000    0.07000000
   15.42277813  111.19200134    0.03000000    0.07000000
   15.42611122  119.93399811    0.03000000    0.07000000
   15.42944431  108.24099731    0.03000000    0.07000000
   15.43249989  105.12599945    0.03000000    0.07000000
   15.43583298  112.16799927    0.03000000    0.07000000
   15.43916702  104.56900024    0.03000000    0.07000000
   15.44055557  110.61299896    0.03000000    0.07000000
   15.44250011  108.07399750    0.03000000    0.07000000
   15.44583321  114.76499939    0.03000000    0.07000000
   15.44916630  111.91200256    0.03000000    0.07000000
   15.45222187  119.02500153    0.03000000    0.07000000
   15.45555496  114.04900360    0.03000000    0.07000000
   15.46166611  114.04900360    0.03000000    0.07000000
   15.46583271  115.24099731    0.03000000    0.07000000
   15.46888828  118.51499939    0.03000000    0.07000000
   15.47222137  122.25700378    0.03000000    0.07000000
   15.47416592  116.62699890    0.03000000    0.07000000
   15.47583294  114.55100250    0.03000000    0.07000000
   15.47916603  114.68099976    0.03000000    0.07000000
   15.48222160  114.27899933    0.03000000    0.07000000
   15.48555565  119.61399841    0.03000000    0.07000000
   15.48888874  117.85800171    0.03000000    0.07000000
   15.49194431  119.69899750    0.03000000    0.07000000
   15.49527836  119.27400208    0.03000000    0.07000000
   15.49861145  117.64600372    0.03000000    0.07000000
   15.50444412  117.64600372    0.03000000    0.07000000
   15.50861073  121.81400299    0.03000000    0.07000000
   15.51194477  121.39199829    0.03000000    0.07000000
   15.51500034  117.99299622    0.03000000    0.07000000
   15.51833344  120.08100128    0.03000000    0.07000000
   15.52138901  110.52200317    0.03000000    0.07000000
   15.52472210  117.52200317    0.03000000    0.07000000
   15.52805519  108.68399811    0.03000000    0.07000000
   15.53111076  104.86399841    0.03000000    0.07000000
   15.53444481  116.02899933    0.03000000    0.07000000
   15.53777790  120.40399933    0.03000000    0.07000000
   15.54083347  108.92299652    0.03000000    0.07000000
   15.54111195  112.25499725    0.03000000    0.07000000
   15.54722309  112.25499725    0.03000000    0.07000000
   15.55138874  108.12500000    0.03000000    0.07000000
   15.55472279  113.74700165    0.03000000    0.07000000
   15.55777836  111.12000275    0.03000000    0.07000000
   15.56111145  117.04399872    0.03000000    0.07000000
   15.56444454  116.19599915    0.03000000    0.07000000
   15.56750011  114.19100189    0.03000000    0.07000000
   15.57083321  117.80200195    0.03000000    0.07000000
   15.57416630  118.19999695    0.03000000    0.07000000
   15.57444477  118.67299652    0.03000000    0.07000000
   15.57777786  111.56600189    0.03000000    0.07000000
   15.58083344  117.23000336    0.03000000    0.07000000
   15.58416653  110.31600189    0.03000000    0.07000000
   15.59027767  110.31600189    0.03000000    0.07000000
   15.59416676   99.75340271    0.03000000    0.07000000
   15.59749985  101.16100311    0.03000000    0.07000000
   15.60083389  118.02899933    0.03000000    0.07000000
   15.60388947  112.29299927    0.03000000    0.07000000
   15.60722256  103.92400360    0.03000000    0.07000000
   15.60777855  115.53900146    0.03000000    0.07000000
   15.61083412  116.96099854    0.03000000    0.07000000
   15.61416721  120.59200287    0.03000000    0.07000000
   15.61750031  111.47799683    0.03000000    0.07000000
   15.62055588  125.77999878    0.03000000    0.07000000
   15.62388897  118.00900269    0.03000000    0.07000000
   15.62722206  124.59600067    0.03000000    0.07000000
   15.63305569  124.59600067    0.03000000    0.07000000
   15.63722229  130.77299500    0.03000000    0.07000000
   15.64027786  115.34899902    0.03000000    0.07000000
   15.64111137  121.75099945    0.03000000    0.07000000
   15.64416695  114.50299835    0.03000000    0.07000000
   15.64722252  118.41899872    0.03000000    0.07000000
   15.65055561  111.91600037    0.03000000    0.07000000
   15.65361118  112.94000244    0.03000000    0.07000000
   15.65694427  113.44000244    0.03000000    0.07000000
   15.66027737  120.82199860    0.03000000    0.07000000
   15.66333294  124.91899872    0.03000000    0.07000000
   15.66666698  114.05100250    0.03000000    0.07000000
   15.67000008  124.56400299    0.03000000    0.07000000
   15.67583370  124.56400299    0.03000000    0.07000000
   15.68000031  124.12100220    0.03000000    0.07000000
   15.68305588  110.27999878    0.03000000    0.07000000
   15.68638897  110.45800018    0.03000000    0.07000000
   15.68972206  107.02600098    0.03000000    0.07000000
   15.69277763  118.50599670    0.03000000    0.07000000
   15.69611073  122.04000092    0.03000000    0.07000000
   15.69944477  124.27899933    0.03000000    0.07000000
   15.70249939  109.61799622    0.03000000    0.07000000
   15.70583344  113.47599792    0.03000000    0.07000000
   15.70777798  117.33499908    0.03000000    0.07000000
   15.70944405  121.47599792    0.03000000    0.07000000
   15.71249962  116.42900085    0.03000000    0.07000000
   15.71861076  116.42900085    0.03000000    0.07000000
   15.72277737  127.77300262    0.03000000    0.07000000
   15.72611046  120.31999969    0.03000000    0.07000000
   15.72916603  122.31400299    0.03000000    0.07000000
   15.73249912  118.60099792    0.03000000    0.07000000
   15.73583317  115.79499817    0.03000000    0.07000000
   15.73888874  125.31900024    0.03000000    0.07000000
   15.74111176  116.50499725    0.03000000    0.07000000
   15.74277782  121.68599701    0.03000000    0.07000000
   15.74583340  124.38700104    0.03000000    0.07000000
   15.74916649  111.15499878    0.03000000    0.07000000
   15.75222206  120.35900116    0.03000000    0.07000000
   15.75555515  116.29000092    0.03000000    0.07000000
   15.76166630  116.29000092    0.03000000    0.07000000
   15.76555538  116.68399811    0.03000000    0.07000000
   15.76888847  111.79100037    0.03000000    0.07000000
   15.77222157  114.99400330    0.03000000    0.07000000
   15.77444458  119.73799896    0.03000000    0.07000000
   15.77583313  116.40299988    0.03000000    0.07000000
   15.77888870  113.46900177    0.03000000    0.07000000
   15.78222179  125.77300262    0.03000000    0.07000000
   15.78527832  113.04100037    0.03000000    0.07000000
   15.78861141  124.27100372    0.03000000    0.07000000
   15.79194450  121.43099976    0.03000000    0.07000000
