    HOUR (UT)   FLARE FACTOR    SKY TESTER    SUN TESTER
   12.34305477   -1.00000000   -1.00000000   -1.00000000
   12.36861134   94.50620270    0.00000000    0.00000000
   12.37194443   96.96600342    0.00000000    0.00000000
   12.37555599   99.00959778    0.00000000    0.00000000
   12.37861156   97.05960083    0.00000000    0.00000000
   12.38194466   94.08370209    0.00000000    0.00000000
   12.38500023  102.48699951    0.00000000    0.00000000
   12.38916683  102.48699951    0.00000000    0.00000000
   12.39333344   91.77330017    0.00000000    0.00000000
   12.39666653   96.51860046    0.00000000    0.00000000
   12.39972210   93.62879944    0.00000000    0.00000000
   12.40194416   92.13330078    0.00000000    0.00000000
   12.40361118   95.34400177    0.00000000    0.00000000
   12.40666676  104.92700195    2.64000010    1.98000002
   12.40999985   98.30809784    2.64000010    1.98000002
   12.41333294   89.62439728    2.64000010    1.98000002
   12.41638851  103.16799927    2.64000010    1.98000002
   12.41972256   92.78970337    2.64000010    1.98000002
   12.42305565   90.74259949    2.64000010    1.98000002
   12.42611122   89.88749695    2.64000010    1.98000002
   12.43222237   89.88749695    2.64000010    1.98000002
   12.43611145   89.63110352    2.64000010    1.98000002
   12.43944454   92.10820007    2.64000010    1.98000002
   12.44277763   96.34529877    2.64000010    1.98000002
   12.44583321   90.46230316    2.64000010    1.98000002
   12.44916630   90.38729858    2.64000010    1.98000002
   12.45249939   91.65409851    2.64000010    1.98000002
   12.45555496   97.35870361    2.64000010    1.98000002
   12.45888901   96.54799652    2.64000010    1.98000002
   12.46194458   91.05300140    2.64000010    1.98000002
   12.46527767   89.13220215    2.64000010    1.98000002
   12.46861076   88.79650116    2.64000010    1.98000002
   12.46916580   90.90229797    2.64000010    1.98000002
   12.47499943   90.90229797    2.64000010    1.98000002
   12.47916603  102.24900055    2.64000010    1.98000002
   12.48222160   96.77059937    2.64000010    1.98000002
   12.48555565   90.74819946    2.64000010    1.98000002
   12.48888874   89.55180359    2.64000010    1.98000002
   12.49222279   93.57800293    2.64000010    1.98000002
   12.49555588   91.73490143    2.64000010    1.98000002
   12.49861145   90.10569763    2.64000010    1.98000002
   12.50194454   89.25930023    2.64000010    1.98000002
   12.50249958   88.22270203    2.64000010    1.98000002
   12.50555515   89.32980347    2.64000010    1.98000002
   12.50861073   86.90280151    2.64000010    1.98000002
   12.51194477   92.24060059    2.64000010    1.98000002
   12.51777744   92.24060059    2.64000010    1.98000002
   12.52194405   90.90429688    2.64000010    1.98000002
   12.52527714   88.77829742    2.64000010    1.98000002
   12.52833271   90.66069794    2.64000010    1.98000002
   12.53166676   92.69409943    2.64000010    1.98000002
   12.53500080   88.52639771    2.64000010    1.98000002
   12.53583336   92.15589905    2.64000010    1.98000002
   12.53861141   89.51730347    2.64000010    1.98000002
   12.54166698   93.54209900    2.64000010    1.98000002
   12.54500008   87.98449707    2.64000010    1.98000002
   12.54805565   93.55870056    2.64000010    1.98000002
   12.55138874   88.32980347    2.64000010    1.98000002
   12.55472279   90.74250031    2.64000010    1.98000002
   12.56055546   90.74250031    2.64000010    1.98000002
   12.56472206   95.82129669    2.64000010    1.98000002
   12.56805515   88.44239807    2.64000010    1.98000002
   12.56916618   95.21649933    2.64000010    1.98000002
   12.57166672   90.29799652    2.64000010    1.98000002
   12.57472229   86.90090179    2.64000010    1.98000002
   12.57805538   92.15840149    2.64000010    1.98000002
   12.58111095   87.94989777    2.64000010    1.98000002
   12.58500004   90.29530334    2.64000010    1.98000002
   12.58833313   86.53980255    2.64000010    1.98000002
   12.59138870   98.57959747    2.64000010    1.98000002
   12.59472179  101.41400146    2.64000010    1.98000002
   12.59777737   85.21499634    2.64000010    1.98000002
   12.60361195   85.21499634    2.64000010    1.98000002
   12.60777855  123.57499695    2.64000010    1.98000002
   12.61111164   95.19950104    2.64000010    1.98000002
   12.61444473   93.10820007    2.64000010    1.98000002
   12.61750031   98.19170380    2.64000010    1.98000002
   12.62083340   92.19319916    2.64000010    1.98000002
   12.62388897   90.12999725    2.64000010    1.98000002
   12.62722206   88.99430084    2.64000010    1.98000002
   12.63055611   92.38050079    2.64000010    1.98000002
   12.63361073   86.77339935    2.64000010    1.98000002
   12.63583279   89.31860352    2.64000010    1.98000002
   12.63749981   87.57029724    2.64000010    1.98000002
   12.64055538   86.64050293    2.64000010    1.98000002
   12.64638901   86.64050293    2.64000010    1.98000002
   12.65055561   93.60379791    2.64000010    1.98000002
   12.65361118   93.44779968    2.64000010    1.98000002
   12.65694427   90.19329834    2.64000010    1.98000002
   12.66027737   90.82689667    2.64000010    1.98000002
   12.66333294   86.28089905    2.64000010    1.98000002
   12.66666698   86.48799896    2.64000010    1.98000002
   12.66916656   90.86779785    2.64000010    1.98000002
   12.67027855   88.42530060    2.64000010    1.98000002
   12.67333412   83.70030212    2.64000010    1.98000002
   12.67666721   86.23320007    2.64000010    1.98000002
   12.67972279   86.55970001    2.64000010    1.98000002
   12.68305588   85.59400177    2.64000010    1.98000002
   12.68916702   85.59400177    2.64000010    1.98000002
   12.69333363   87.80979919    2.64000010    1.98000002
   12.69666672   87.78260040    2.64000010    1.98000002
   12.69972229   89.96089935    2.64000010    1.98000002
   12.70249939   87.62729645    2.64000010    1.98000002
   12.70361137   85.73719788    2.64000010    1.98000002
   12.70666695   84.34770203    2.64000010    1.98000002
   12.71000004   95.44730377    2.64000010    1.98000002
   12.71305561   88.64550018    2.64000010    1.98000002
   12.71638870   83.23850250    2.64000010    1.98000002
   12.71972179   86.99379730    2.64000010    1.98000002
   12.72277737   84.03079987    2.64000010    1.98000002
   12.72611046   86.88020325    2.64000010    1.98000002
   12.73194408   86.88020325    2.64000010    1.98000002
   12.73611164   85.12380219    2.64000010    1.98000002
   12.73944473   86.66809845    2.64000010    1.98000002
   12.74250031   92.65370178    2.64000010    1.98000002
   12.74583340   84.61260223    2.64000010    1.98000002
   12.74916649   87.22260284    2.64000010    1.98000002
   12.75222206   89.27610016    2.64000010    1.98000002
   12.75555515   82.42530060    2.64000010    1.98000002
   12.75888920   85.67479706    2.64000010    1.98000002
   12.76194477   82.66510010    2.64000010    1.98000002
   12.76527786   83.34320068    2.64000010    1.98000002
   12.76833344   83.02989960    2.64000010    1.98000002
   12.76916599   83.92720032    2.64000010    1.98000002
   12.77499962   83.92720032    2.64000010    1.98000002
   12.77916622   83.86139679    2.64000010    1.98000002
   12.78222179   86.60900116    2.64000010    1.98000002
   12.78555584   88.25170135    2.64000010    1.98000002
   12.78861141   86.65840149    2.64000010    1.98000002
   12.79194450   84.34159851    2.64000010    1.98000002
   12.79527855   85.76380157    2.64000010    1.98000002
   12.79833412   86.32630157    2.64000010    1.98000002
   12.80166721   86.34839630    2.64000010    1.98000002
   12.80249977   83.93849945    2.64000010    1.98000002
   12.80527782   85.29889679    2.64000010    1.98000002
   12.80833340   82.58399963    2.64000010    1.98000002
   12.81166649   83.35209656    2.64000010    1.98000002
   12.81777763   83.35209656    2.64000010    1.98000002
   12.82194424   86.48570251    2.64000010    1.98000002
   12.82499981   88.87560272    2.64000010    1.98000002
   12.82833290   80.62020111    2.64000010    1.98000002
   12.83166695   87.70780182    2.64000010    1.98000002
   12.83472157   83.49479675    2.64000010    1.98000002
   12.83611107   81.82730103    2.64000010    1.98000002
   12.83861065   83.11260223    2.64000010    1.98000002
   12.84194374   80.72499847    2.64000010    1.98000002
   12.84527779   85.53669739    2.64000010    1.98000002
   12.84833336   88.40409851    2.64000010    1.98000002
   12.85166740   83.92459869    2.64000010    1.98000002
   12.85500050   80.67500305    2.64000010    1.98000002
   12.86055565   80.67500305    2.64000010    1.98000002
   12.86472225   80.34200287    2.64000010    1.98000002
   12.86805534   84.28070068    2.64000010    1.98000002
   12.86916637   84.86630249    2.64000010    1.98000002
   12.87166691   86.36029816    2.64000010    1.98000002
   12.87472248   85.12979889    2.64000010    1.98000002
   12.87805557   85.40309906    2.64000010    1.98000002
   12.88138866   84.54540253    2.64000010    1.98000002
   12.88444424   87.04499817    2.64000010    1.98000002
   12.88777733   83.06199646    2.64000010    1.98000002
   12.89083290   84.71320343    2.64000010    1.98000002
   12.89416695   87.09269714    2.64000010    1.98000002
   12.89750004   84.40850067    2.64000010    1.98000002
   12.90333271   84.40850067    2.64000010    1.98000002
   12.90749931   83.57749939    2.64000010    1.98000002
   12.91083336   83.47039795    2.64000010    1.98000002
   12.91388893   84.21060181    2.64000010    1.98000002
   12.91722298   85.08280182    2.64000010    1.98000002
   12.92055607   85.48220062    2.64000010    1.98000002
   12.92361164   88.40209961    2.64000010    1.98000002
   12.92694473   83.21140289    2.64000010    1.98000002
   12.93027782   84.18930054    2.64000010    1.98000002
   12.93333340   83.67910004    2.64000010    1.98000002
   12.93583298   88.15560150    2.64000010    1.98000002
   12.93722248   83.93920135    2.64000010    1.98000002
   12.94027805   84.31580353    2.64000010    1.98000002
   12.94611073   84.31580353    2.64000010    1.98000002
   12.95027733   83.64420319    2.64000010    1.98000002
   12.95361137   83.20469666    2.64000010    1.98000002
   12.95694447   84.08290100    2.64000010    1.98000002
   12.96000004   80.08319855    2.64000010    1.98000002
   12.96333313   83.93399811    2.64000010    1.98000002
   12.96666622   83.53220367    2.64000010    1.98000002
   12.96916580   82.05339813    2.64000010    1.98000002
   12.97027779   81.61070251    2.64000010    1.98000002
   12.97333336   83.46150208    2.64000010    1.98000002
   12.97666645   84.34690094    2.64000010    1.98000002
   12.97999954   79.98639679    2.64000010    1.98000002
   12.98305511   82.46939850    2.64000010    1.98000002
   12.98916721   82.46939850    2.64000010    1.98000002
   12.99333382   84.25270081    2.64000010    1.98000002
   12.99638939   85.94629669    2.64000010    1.98000002
   12.99972248   88.28029633    2.64000010    1.98000002
   13.00249958   91.44529724    2.64000010    1.98000002
   13.00333309   84.87359619    2.64000010    1.98000002
   13.00638866   80.20610046    2.64000010    1.98000002
   13.00972176   84.58409882    2.64000010    1.98000002
   13.01305580   86.35559845    2.64000010    1.98000002
   13.01611137   81.88529968    2.64000010    1.98000002
   13.01944447   81.66600037    2.64000010    1.98000002
   13.02250004   85.21510315    2.64000010    1.98000002
   13.02583313   83.99430084    2.64000010    1.98000002
   13.03194427   83.99430084    2.64000010    1.98000002
   13.03611183   81.80249786    2.64000010    1.98000002
   13.03916740   82.72170258    2.64000010    1.98000002
   13.04250050   85.85559845    2.64000010    1.98000002
   13.04583359   85.66030121    2.64000010    1.98000002
   13.04888916   84.35209656    2.64000010    1.98000002
   13.05222225   86.41629791    2.64000010    1.98000002
   13.05527782   83.90630341    2.64000010    1.98000002
   13.05861092   86.79699707    2.64000010    1.98000002
   13.06194496   82.64820099    2.64000010    1.98000002
   13.06500053   79.54029846    2.64000010    1.98000002
   13.06833363   82.00199890    2.64000010    1.98000002
   13.06916618   83.70980072    2.64000010    1.98000002
   13.07472229   83.70980072    2.64000010    1.98000002
   13.07888889   83.23650360    2.64000010    1.98000002
   13.08222198   89.18019867    2.64000010    1.98000002
   13.08527756   84.84989929    2.64000010    1.98000002
   13.08861065   84.04789734    2.64000010    1.98000002
   13.09166622   86.88040161    2.64000010    1.98000002
   13.09499931   81.67790222    2.64000010    1.98000002
   13.09833336   86.15540314    2.64000010    1.98000002
   13.10138893   88.86019897    2.64000010    1.98000002
   13.10249996   84.90910339    2.64000010    1.98000002
   13.10527802   86.57489777    2.64000010    1.98000002
   13.10833359   84.29969788    2.64000010    1.98000002
   13.11166668   81.12799835    2.64000010    1.98000002
   13.11750031   81.12799835    2.64000010    1.98000002
   13.12166691   84.79299927    2.64000010    1.98000002
   13.12500000   82.30349731    2.64000010    1.98000002
   13.12805557   82.94290161    2.64000010    1.98000002
   13.13138866   78.51480103    2.64000010    1.98000002
   13.13472176   86.41989899    2.64000010    1.98000002
   13.13583279   82.51740265    2.64000010    1.98000002
   13.13833332   80.85600281    2.64000010    1.98000002
   13.14138889   90.10489655    2.64000010    1.98000002
   13.14472198   84.13009644    2.64000010    1.98000002
   13.14805508   85.87460327    2.64000010    1.98000002
   13.15111065   86.25610352    2.64000010    1.98000002
   13.15444374   82.17479706    2.64000010    1.98000002
   13.16055489   82.17479706    2.64000010    1.98000002
   13.16444397   84.47149658    2.64000010    1.98000002
   13.16777802   79.82060242    2.64000010    1.98000002
   13.16916656   81.03820038    2.64000010    1.98000002
   13.17138958   79.61489868    2.64000010    1.98000002
   13.17444515   82.27020264    2.64000010    1.98000002
   13.17777824   78.73889923    2.64000010    1.98000002
   13.18111134   81.18550110    2.64000010    1.98000002
   13.18416691   82.86350250    2.64000010    1.98000002
   13.18750000   89.52809906    2.64000010    1.98000002
   13.19055557   87.47850037    2.64000010    1.98000002
   13.19388866   78.82009888    2.64000010    1.98000002
   13.19722271   81.88030243    2.64000010    1.98000002
   13.20333290   81.88030243    2.64000010    1.98000002
   13.20749950   76.61609650    2.64000010    1.98000002
   13.21055508   82.14700317    2.64000010    1.98000002
   13.21388912   82.62930298    2.64000010    1.98000002
   13.21722221   79.17790222    2.64000010    1.98000002
   13.22027779   78.45570374    2.64000010    1.98000002
   13.22361088   80.60469818    2.64000010    1.98000002
   13.22666645   82.55159760    2.64000010    1.98000002
   13.22999954   83.62640381    2.64000010    1.98000002
   13.23333359   80.40100098    2.64000010    1.98000002
   13.23583317   79.54930115    2.64000010    1.98000002
   13.23694515   80.48860168    2.64000010    1.98000002
   13.24000072   79.74739838    2.64000010    1.98000002
   13.24611092   79.74739838    2.64000010    1.98000002
   13.25027752   76.48179626    2.64000010    1.98000002
   13.25361156   77.92729950    2.64000010    1.98000002
   13.25666714   78.94020081    2.64000010    1.98000002
   13.26000023   76.45520020    2.64000010    1.98000002
   13.26333332   81.01629639    2.64000010    1.98000002
   13.26638889   81.99079895    2.64000010    1.98000002
   13.26916599   77.93019867    2.64000010    1.98000002
   13.27027798   77.89679718    2.64000010    1.98000002
   13.27333355   81.32420349    2.64000010    1.98000002
   13.27666664   77.59110260    2.64000010    1.98000002
   13.27999973   83.49310303    2.64000010    1.98000002
   13.28305531   79.54969788    2.64000010    1.98000002
   13.28888893   79.54969788    2.64000010    1.98000002
   13.29305553   81.91760254    2.64000010    1.98000002
   13.29638958   77.46160126    2.64000010    1.98000002
   13.29972267   78.18389893    2.64000010    1.98000002
   13.30249977   85.25119781    2.64000010    1.98000002
   13.30333328   80.16860199    2.64000010    1.98000002
   13.30638885   80.21260071    2.64000010    1.98000002
   13.30972195   76.61810303    2.64000010    1.98000002
   13.31305599   79.41010284    2.64000010    1.98000002
   13.31611156   78.94010162    2.64000010    1.98000002
   13.31944466   78.23349762    2.64000010    1.98000002
   13.32250023   80.79799652    2.64000010    1.98000002
   13.32583332   78.71939850    2.64000010    1.98000002
   13.33194447   78.71939850    2.64000010    1.98000002
   13.33611107   76.72059631    2.64000010    1.98000002
   13.33916664   78.90889740    2.64000010    1.98000002
   13.34249973   79.62840271    2.64000010    1.98000002
   13.34555531   79.84539795    2.64000010    1.98000002
   13.34888840   80.36869812    2.64000010    1.98000002
   13.35222244   79.16000366    2.64000010    1.98000002
   13.35527802   84.87879944    2.64000010    1.98000002
   13.35861111   78.26499939    2.64000010    1.98000002
   13.36194515   82.74259949    2.64000010    1.98000002
   13.36500072   78.29550171    2.64000010    1.98000002
   13.36833382   82.82569885    2.64000010    1.98000002
   13.36916637   83.24279785    2.64000010    1.98000002
   13.39000034   83.24279785    2.64000010    1.98000002
   13.39416695   82.08910370    2.64000010    1.98000002
   13.39722252   82.44899750    2.64000010    1.98000002
   13.40055561   83.24150085    2.64000010    1.98000002
   13.40249920   86.20110321    2.64000010    1.98000002
   13.40416622   83.25640106    2.64000010    1.98000002
   13.40722179   81.05049896    2.64000010    1.98000002
   13.41055489   94.31749725    2.64000010    1.98000002
   13.41388893   90.51830292    2.64000010    1.98000002
   13.41694450   78.70130157    2.64000010    1.98000002
   13.42027855   78.93250275    2.64000010    1.98000002
   13.42361164   80.83840179    2.64000010    1.98000002
   13.42666721   86.77600098    2.64000010    1.98000002
   13.43277836   86.77600098    2.64000010    1.98000002
   13.43694496   89.60299683    2.64000010    1.98000002
   13.44000053   91.16100311    2.64000010    1.98000002
   13.44333363   82.32949829    2.64000010    1.98000002
   13.44638920   77.41560364    2.64000010    1.98000002
   13.44972229   77.57299805    2.64000010    1.98000002
   13.45305538   98.95069885    2.64000010    1.98000002
   13.45611095   82.79409790    2.64000010    1.98000002
   13.45944405   83.58619690    2.64000010    1.98000002
   13.46277714   88.78540039    2.64000010    1.98000002
   13.46583271   95.97740173    2.64000010    1.98000002
   13.46916580   95.63639832    2.64000010    1.98000002
   13.46972179   99.49130249    2.64000010    1.98000002
   13.47555542   99.49130249    2.64000010    1.98000002
   13.47972202   96.27749634    2.64000010    1.98000002
   13.48277760   82.78040314    2.64000010    1.98000002
   13.48611164   91.75050354    2.64000010    1.98000002
   13.48944473   87.38099670    2.64000010    1.98000002
   13.49250031   90.22370148    2.64000010    1.98000002
   13.49583340   94.63179779    2.64000010    1.98000002
   13.49916649   94.58450317    2.64000010    1.98000002
   13.50222206   92.57369995    2.64000010    1.98000002
   13.50305557   81.10449982    2.64000010    1.98000002
   13.50583363   84.25910187    2.64000010    1.98000002
   13.50916672   96.84210205    2.64000010    1.98000002
   13.51249981   99.55879974    2.64000010    1.98000002
   13.51833344   99.55879974    2.64000010    1.98000002
   13.52250004   80.74359894    2.64000010    1.98000002
   13.52583313   94.16190338    2.64000010    1.98000002
   13.52888870   82.85649872    2.64000010    1.98000002
   13.53222179   77.49040222    2.64000010    1.98000002
   13.53527832   92.46980286    2.64000010    1.98000002
   13.53638935  100.35099792    2.64000010    1.98000002
   13.53888893   86.24440002    2.64000010    1.98000002
   13.54222298   97.74729919    2.64000010    1.98000002
   13.54555607   85.32540131    2.64000010    1.98000002
   13.54861164   95.77519989    2.64000010    1.98000002
   13.55194473   85.19560242    2.64000010    1.98000002
   13.55527782   83.18820190    2.64000010    1.98000002
   13.56111145   83.18820190    2.64000010    1.98000002
   13.56527805   85.50749969    2.64000010    1.98000002
   13.56861115   85.75810242    2.64000010    1.98000002
   13.56972218   88.74780273    2.64000010    1.98000002
   13.57194424   83.91300201    2.64000010    1.98000002
   13.57527733   83.00820160    2.64000010    1.98000002
   13.57861137   85.72669983    2.64000010    1.98000002
   13.58166695   79.25019836    2.64000010    1.98000002
   13.58500004   82.10829926    2.64000010    1.98000002
   13.58833313   86.02020264    2.64000010    1.98000002
   13.59138870   83.88749695    2.64000010    1.98000002
   13.59472179   82.93869781    2.64000010    1.98000002
   13.59777737   80.66249847    2.64000010    1.98000002
   13.60416698   80.66249847    2.64000010    1.98000002
   13.60805607   80.53929901    2.64000010    1.98000002
   13.61138916   79.86260223    2.64000010    1.98000002
   13.61472225   88.68569946    2.64000010    1.98000002
   13.61777782   94.11329651    2.64000010    1.98000002
   13.62111092   87.27179718    2.64000010    1.98000002
   13.62444496   80.51560211    2.64000010    1.98000002
   13.62750053   83.82219696    2.64000010    1.98000002
   13.63083363   83.70449829    2.64000010    1.98000002
   13.63388920   87.66539764    2.64000010    1.98000002
   13.63638878   81.41130066    2.64000010    1.98000002
   13.63777733   82.07689667    2.64000010    1.98000002
   13.64083290   83.63110352    2.64000010    1.98000002
   13.64694405   83.63110352    2.64000010    1.98000002
   13.65111065   90.06999969    2.64000010    1.98000002
   13.65444374   83.14450073    2.64000010    1.98000002
   13.65749931   88.67669678    2.64000010    1.98000002
   13.66083336   88.81330109    2.64000010    1.98000002
   13.66388893   90.08370209    2.64000010    1.98000002
   13.66722298   93.45739746    2.64000010    1.98000002
   13.66972256   94.49389648    2.64000010    1.98000002
   13.67111111   84.34490204    2.64000010    1.98000002
   13.67416668   90.49440002    2.64000010    1.98000002
   13.67750072   92.11389923    2.64000010    1.98000002
   13.68055630   91.53869629    2.64000010    1.98000002
   13.68388939   92.49210358    2.64000010    1.98000002
   13.68972206   92.49210358    2.64000010    1.98000002
   13.69388866   89.77549744    2.64000010    1.98000002
   13.69722271   90.91989899    2.64000010    1.98000002
   13.70027733   86.74299622    2.64000010    1.98000002
   13.70305538   83.82879639    2.64000010    1.98000002
   13.70416641   82.10569763    2.64000010    1.98000002
   13.70722198   84.24539948    2.64000010    1.98000002
   13.71055508   83.03459930    2.64000010    1.98000002
   13.71361065   85.90229797    2.64000010    1.98000002
   13.71694374   85.43499756    2.64000010    1.98000002
   13.72027779   82.76889801    2.64000010    1.98000002
   13.72361088   87.84089661    2.64000010    1.98000002
   13.72666645   92.74299622    2.64000010    1.98000002
   13.73249912   92.74299622    2.64000010    1.98000002
   13.73666668   83.26689911    2.64000010    1.98000002
   13.74000072   91.10220337    2.64000010    1.98000002
   13.74305534   91.12039948    2.64000010    1.98000002
   13.74638939   88.92549896    2.64000010    1.98000002
   13.74972248   83.65630341    2.64000010    1.98000002
   13.75277805   84.31459808    2.64000010    1.98000002
   13.75611115   88.37419891    2.64000010    1.98000002
   13.75944424   85.82520294    2.64000010    1.98000002
   13.76249981   89.92720032    2.64000010    1.98000002
   13.76583290   80.87960052    2.64000010    1.98000002
   13.76888847   82.09629822    2.64000010    1.98000002
   13.76972198   87.70459747    2.64000010    1.98000002
   13.77555561   87.70459747    2.64000010    1.98000002
   13.77944374   86.25820160    2.64000010    1.98000002
   13.78277779   81.33670044    2.64000010    1.98000002
   13.78611183   87.80329895    2.64000010    1.98000002
   13.78916740   80.74919891    2.64000010    1.98000002
   13.79250050   81.71720123    2.64000010    1.98000002
   13.79583359   80.39980316    2.64000010    1.98000002
   13.79888916   86.65889740    2.64000010    1.98000002
   13.80222225   81.34140015    2.64000010    1.98000002
   13.80305576   82.62979889    2.64000010    1.98000002
   13.80583382   80.85169983    2.64000010    1.98000002
   13.80888939   86.97959900    2.64000010    1.98000002
   13.81222248   84.56410217    2.64000010    1.98000002
   13.81833363   84.56410217    2.64000010    1.98000002
   13.82250023   86.63539886    2.64000010    1.98000002
   13.82555580   84.43360138    2.64000010    1.98000002
   13.82888889   85.34230042    2.64000010    1.98000002
   13.83222198   79.96659851    2.64000010    1.98000002
   13.83527756   87.45829773    2.64000010    1.98000002
   13.83638859   85.46610260    2.64000010    1.98000002
   13.83916664   86.85330200    2.64000010    1.98000002
   13.84222221   81.34919739    2.64000010    1.98000002
   13.84555531   79.25479889    2.64000010    1.98000002
   13.84861088   82.01679993    2.64000010    1.98000002
   13.85194492   84.48889923    2.64000010    1.98000002
   13.85527802   82.76499939    2.64000010    1.98000002
   13.86111164   82.76499939    2.64000010    1.98000002
   13.86527824   83.44159698    2.64000010    1.98000002
   13.86861134   82.55729675    2.64000010    1.98000002
   13.86972237   93.47830200    2.64000010    1.98000002
   13.87222195   87.36229706    2.64000010    1.98000002
   13.87527752   87.89540100    2.64000010    1.98000002
   13.87861156   84.97979736    2.64000010    1.98000002
   13.88166714   84.07199860    2.64000010    1.98000002
   13.88500023   83.67259979    2.64000010    1.98000002
   13.88833332   83.47299957    2.64000010    1.98000002
   13.89138889   84.14070129    2.64000010    1.98000002
   13.89472198   89.87039948    2.64000010    1.98000002
   13.89805508   84.97560120    2.64000010    1.98000002
   13.90388870   84.97560120    2.64000010    1.98000002
   13.90805531   77.74210358    2.64000010    1.98000002
   13.91138840   81.10690308    2.64000010    1.98000002
   13.91444397   85.64649963    2.64000010    1.98000002
   13.91777802   84.11229706    2.64000010    1.98000002
   13.92111111   83.12270355    2.64000010    1.98000002
   13.92416668   87.28659821    2.64000010    1.98000002
   13.92750072   81.49479675    2.64000010    1.98000002
   13.93083382   78.85530090    2.64000010    1.98000002
   13.93388939   86.95400238    2.64000010    1.98000002
   13.93638897   82.31310272    2.64000010    1.98000002
   13.93777752   83.26300049    2.64000010    1.98000002
   13.94083309   80.15409851    2.64000010    1.98000002
   13.94694424   80.15409851    2.64000010    1.98000002
   13.95083332   83.13500214    2.64000010    1.98000002
   13.95416641   83.68550110    2.64000010    1.98000002
   13.95749950   85.79479980    2.64000010    1.98000002
   13.96055508   82.20989990    2.64000010    1.98000002
   13.96388912   84.31300354    2.64000010    1.98000002
   13.96722221   79.92279816    2.64000010    1.98000002
   13.96972179   81.15350342    2.64000010    1.98000002
   13.97083282   79.65830231    2.64000010    1.98000002
   13.97388840   83.93949890    2.64000010    1.98000002
   13.97722149   79.43939972    2.64000010    1.98000002
   13.98055553   86.58850098    2.64000010    1.98000002
   13.98361111   79.73079681    2.64000010    1.98000002
   13.98972225   79.73079681    2.64000010    1.98000002
   13.99388885   84.80359650    2.64000010    1.98000002
   13.99694443   83.97190094    2.64000010    1.98000002
   14.00027752   81.45989990    2.64000010    1.98000002
   14.00305557   81.53549957    2.64000010    1.98000002
   14.00388908   77.83760071    2.64000010    1.98000002
   14.00694466   89.56340027    2.64000010    1.98000002
   14.01027775   81.77230072    2.64000010    1.98000002
   14.01333332   88.56880188    2.64000010    1.98000002
   14.01666641   86.15750122    2.64000010    1.98000002
   14.01999950   80.77719879    2.64000010    1.98000002
   14.02333355   78.74369812    2.64000010    1.98000002
   14.02666664   79.73590088    2.64000010    1.98000002
   14.03249931   79.73590088    2.64000010    1.98000002
   14.03666687   81.05879974    2.64000010    1.98000002
   14.04000092   81.70210266    2.64000010    1.98000002
   14.04305553   89.36139679    2.64000010    1.98000002
   14.04638958   89.96700287    2.64000010    1.98000002
   14.04944515   83.87290192    2.64000010    1.98000002
   14.05277824   89.11769867    2.64000010    1.98000002
   14.05611134   81.40519714    2.64000010    1.98000002
   14.05916691   78.83049774    2.64000010    1.98000002
   14.06250000   98.28299713    2.64000010    1.98000002
   14.06583309   84.00370026    2.64000010    1.98000002
   14.06888866   81.01159668    2.64000010    1.98000002
   14.06972218   86.70339966    2.64000010    1.98000002
   14.07527733   86.70339966    2.64000010    1.98000002
   14.07944393   80.99790192    2.64000010    1.98000002
   14.08277798   79.94409943    2.64000010    1.98000002
   14.08583260   83.62619781    2.64000010    1.98000002
   14.08916664   85.18489838    2.64000010    1.98000002
   14.09249973   87.17700195    2.64000010    1.98000002
   14.09555531   78.85720062    2.64000010    1.98000002
   14.09888840   81.30390167    2.64000010    1.98000002
   14.10222244   80.87519836    2.64000010    1.98000002
   14.10305595   78.59629822    2.64000010    1.98000002
   14.10583401   84.07810211    2.64000010    1.98000002
   14.10888958   79.48269653    2.64000010    1.98000002
   14.11222267   90.91929626    2.64000010    1.98000002
   14.11833382   90.91929626    2.64000010    1.98000002
   14.12222195   82.00689697    2.64000010    1.98000002
   14.12555599   84.45420074    2.64000010    1.98000002
   14.12888908   78.35279846    2.64000010    1.98000002
   14.13194466   80.54509735    2.64000010    1.98000002
   14.13527775   83.66269684    2.64000010    1.98000002
   14.13638878   83.75540161    2.64000010    1.98000002
   14.13888836   82.64859772    2.64000010    1.98000002
   14.14194393   81.85420227    2.64000010    1.98000002
   14.14527798   81.65160370    2.64000010    1.98000002
   14.14861107   83.55519867    2.64000010    1.98000002
   14.15166664   84.05570221    2.64000010    1.98000002
   14.15499973   88.95099640    2.64000010    1.98000002
   14.16111088   88.95099640    2.64000010    1.98000002
   14.16527748   85.62819672    2.64000010    1.98000002
   14.16833401   87.93859863    2.64000010    1.98000002
   14.16972256   93.92559814    2.64000010    1.98000002
   14.17222214   83.90170288    2.64000010    1.98000002
   14.17555618   90.12349701    2.64000010    1.98000002
   14.17861176   82.74479675    2.64000010    1.98000002
   14.18194485   84.20330048    2.64000010    1.98000002
   14.18500042   87.86969757    2.64000010    1.98000002
   14.18833351   95.66909790    2.64000010    1.98000002
   14.19166660   82.94940186    2.64000010    1.98000002
   14.19472218   77.09770203    2.64000010    1.98000002
   14.19805527   77.58640289    2.64000010    1.98000002
   14.20388889   77.58640289    2.64000010    1.98000002
   14.20805550   82.13719940    2.64000010    1.98000002
   14.21138859   78.06189728    2.64000010    1.98000002
   14.21444416   88.12200165    2.64000010    1.98000002
   14.21777725   75.93969727    2.64000010    1.98000002
   14.22083282   81.06559753    2.64000010    1.98000002
   14.22416592   77.08339691    2.64000010    1.98000002
   14.22749996   82.40329742    2.64000010    1.98000002
   14.23083305   78.29139709    2.64000010    1.98000002
   14.23388958   75.76360321    2.64000010    1.98000002
   14.23638916   79.52670288    2.64000010    1.98000002
   14.23777771   90.47769928    2.64000010    1.98000002
   14.24083328   78.42900085    2.64000010    1.98000002
   14.24666691   78.42900085    2.64000010    1.98000002
   14.25083351   81.45040131    2.64000010    1.98000002
   14.25416660   84.71810150    2.64000010    1.98000002
   14.25722218   84.96530151    2.64000010    1.98000002
   14.26055527   83.82150269    2.64000010    1.98000002
   14.26388931   82.65229797    2.64000010    1.98000002
   14.26694393   87.89990234    2.64000010    1.98000002
   14.26972198   84.49749756    2.64000010    1.98000002
   14.27083302   86.18240356    2.64000010    1.98000002
   14.27388859   82.33039856    2.64000010    1.98000002
   14.27722168   83.16639709    2.64000010    1.98000002
   14.28055573   83.92669678    2.64000010    1.98000002
   14.28361130   77.64040375    2.64000010    1.98000002
   14.28972244   77.64040375    2.64000010    1.98000002
   14.29361153   81.35849762    2.64000010    1.98000002
   14.29694462   88.47499847    2.64000010    1.98000002
   14.30027771   79.11710358    2.64000010    1.98000002
   14.30305576   81.93280029    2.64000010    1.98000002
   14.30388927   80.53540039    2.64000010    1.98000002
   14.30694485   78.85250092    2.64000010    1.98000002
   14.31027794   83.22509766    2.64000010    1.98000002
   14.31361103   77.40049744    2.64000010    1.98000002
   14.31666660   78.01399994    2.64000010    1.98000002
   14.31999969   77.82150269    2.64000010    1.98000002
   14.32333374   79.58660126    2.64000010    1.98000002
   14.32638836   82.59140015    2.64000010    1.98000002
   14.33249950   82.59140015    2.64000010    1.98000002
   14.33666611   80.25039673    2.64000010    1.98000002
   14.33972168   83.32289886    2.64000010    1.98000002
   14.34305477   84.90080261    2.64000010    1.98000002
   14.34611034   84.43319702    2.64000010    1.98000002
   14.34944439   79.91419983    2.64000010    1.98000002
   14.35277843   78.82109833    2.64000010    1.98000002
   14.35583401   89.77189636    2.64000010    1.98000002
   14.35916710   79.33760071    2.64000010    1.98000002
   14.36250019   84.61309814    2.64000010    1.98000002
   14.36555576   80.24909973    2.64000010    1.98000002
   14.36888885   85.54789734    2.64000010    1.98000002
   14.36972237   87.96669769    2.64000010    1.98000002
   14.37527752   87.96669769    2.64000010    1.98000002
   14.37944412   79.43389893    2.64000010    1.98000002
   14.38249969   87.81770325    2.64000010    1.98000002
   14.38583279   80.04290009    2.64000010    1.98000002
   14.40333271   80.64990234    2.64000010    1.98000002
   14.40583324   78.96949768    2.64000010    1.98000002
   14.40916634   81.93370056    2.64000010    1.98000002
   14.41222191   79.40280151    2.64000010    1.98000002
   14.41833401   79.40280151    2.64000010    1.98000002
   14.42250061   83.72859955    2.64000010    1.98000002
   14.42555618   85.00240326    2.64000010    1.98000002
   14.42888927   81.17089844    2.64000010    1.98000002
   14.43222237   75.61830139    2.64000010    1.98000002
   14.43527794   86.01799774    2.64000010    1.98000002
   14.43666649   82.52110291    2.64000010    1.98000002
   14.43916702   84.24389648    2.64000010    1.98000002
   14.44222260   77.07240295    2.64000010    1.98000002
   14.44555569   76.11340332    2.64000010    1.98000002
   14.44888878   84.55069733    2.64000010    1.98000002
   14.45194435   82.10369873    2.64000010    1.98000002
   14.45527744   80.60659790    2.64000010    1.98000002
   14.46111107   80.60659790    2.64000010    1.98000002
   14.46527767   80.13079834    2.64000010    1.98000002
   14.46861076   77.10970306    2.64000010    1.98000002
   14.46999931   81.33750153    2.64000010    1.98000002
   14.47222137   81.62580109    2.64000010    1.98000002
   14.47527695   77.72779846    2.64000010    1.98000002
   14.47861099   81.73179626    2.64000010    1.98000002
   14.48194408   75.65360260    2.64000010    1.98000002
   14.48500061   77.88990021    2.64000010    1.98000002
   14.48833370   83.52420044    2.64000010    1.98000002
   14.49166679   78.72339630    2.64000010    1.98000002
   14.49472237   83.30870056    2.64000010    1.98000002
   14.49805546   77.72039795    2.64000010    1.98000002
   14.50388908   77.72039795    2.64000010    1.98000002
   14.50805569   86.38439941    2.64000010    1.98000002
   14.51138878   79.80950165    2.64000010    1.98000002
   14.51444435   83.70570374    2.64000010    1.98000002
   14.51777744   85.36170197    2.64000010    1.98000002
   14.52111053   88.42269897    2.64000010    1.98000002
   14.52416611   78.17109680    2.64000010    1.98000002
   14.52750015   84.11530304    2.64000010    1.98000002
   14.53083324   87.17160034    2.64000010    1.98000002
   14.53388977   82.20320129    2.64000010    1.98000002
   14.53666687   84.26529694    2.64000010    1.98000002
   14.53750038   87.57859802    2.64000010    1.98000002
   14.54055595   82.28260040    2.64000010    1.98000002
   14.54694462   82.28260040    2.64000010    1.98000002
   14.55111122   79.86849976    2.64000010    1.98000002
   14.55416679   80.46410370    2.64000010    1.98000002
   14.55749989   84.82270050    2.64000010    1.98000002
   14.56055546   76.42449951    2.64000010    1.98000002
   14.56388950   82.46690369    2.64000010    1.98000002
   14.56722260   91.64849854    2.64000010    1.98000002
   14.56999969   74.45520020    2.64000010    1.98000002
   14.57083321   80.98780060    2.64000010    1.98000002
   14.57416630   77.43049622    2.64000010    1.98000002
   14.57722187   93.41600037    2.64000010    1.98000002
   14.58055592   77.82859802    2.64000010    1.98000002
   14.58388901   83.12809753    2.64000010    1.98000002
   14.58972168   83.12809753    2.64000010    1.98000002
   14.59388828   88.04989624    2.64000010    1.98000002
   14.59694386   92.16680145    2.64000010    1.98000002
   14.60027790   92.97190094    2.64000010    1.98000002
   14.60333347   80.79949951    2.64000010    1.98000002
   14.60388947   83.73380280    2.64000010    1.98000002
   14.60694504   86.17919922    2.64000010    1.98000002
   14.61027813   90.12950134    2.64000010    1.98000002
   14.61361122   83.39279938    2.64000010    1.98000002
   14.61666679   85.61119843    2.64000010    1.98000002
   14.61999989   93.00160217    2.64000010    1.98000002
   14.62333393   87.06990051    2.64000010    1.98000002
   14.62666702   82.21430206    2.64000010    1.98000002
   14.63249969   82.21430206    2.64000010    1.98000002
   14.63666630   84.02100372    2.64000010    1.98000002
   14.63722229   89.69490051    2.64000010    1.98000002
   14.64027786   92.26740265    2.64000010    1.98000002
   14.64361095   93.56849670    2.64000010    1.98000002
   14.64694405   74.08940125    2.64000010    1.98000002
   14.64999962   83.22589874    2.64000010    1.98000002
   14.65333271   78.39540100    2.64000010    1.98000002
   14.65666676   82.97930145    2.64000010    1.98000002
   14.65972137   85.79759979    2.64000010    1.98000002
   14.66305542   81.80310059    2.64000010    1.98000002
   14.66638851   83.30349731    2.64000010    1.98000002
   14.66944504   76.58779907    2.64000010    1.98000002
   14.67000008   82.59140015    2.64000010    1.98000002
   14.67527771   82.59140015    2.64000010    1.98000002
   14.67944431   83.91649628    2.64000010    1.98000002
   14.68277836   85.99620056    2.64000010    1.98000002
   14.68583298   89.62409973    2.64000010    1.98000002
   14.68916702   90.00879669    2.64000010    1.98000002
   14.69250011   85.21399689    2.64000010    1.98000002
   14.69555569   78.32160187    2.64000010    1.98000002
   14.69888878   80.93659973    2.64000010    1.98000002
   14.70222187   87.03919983    2.64000010    1.98000002
   14.70333290   85.02890015    2.64000010    1.98000002
   14.70583344   84.85379791    2.64000010    1.98000002
   14.70916653   82.28469849    2.64000010    1.98000002
   14.71222210   81.20719910    2.64000010    1.98000002
   14.71833324   81.20719910    2.64000010    1.98000002
   14.72222137   79.16889954    2.64000010    1.98000002
   14.72555542   82.87349701    2.64000010    1.98000002
   14.72888851   90.86630249    2.64000010    1.98000002
   14.73194408   85.87529755    2.64000010    1.98000002
   14.73527813   85.85790253    2.64000010    1.98000002
   14.73666668   89.14170074    2.64000010    1.98000002
   14.73888874   84.75830078    2.64000010    1.98000002
   14.74222279   85.43029785    2.64000010    1.98000002
   14.74527836   86.83830261    2.64000010    1.98000002
   14.74861145   84.10829926    2.64000010    1.98000002
   14.75166702   85.31420135    2.64000010    1.98000002
   14.75500011   80.63390350    2.64000010    1.98000002
   14.76111126   80.63390350    2.64000010    1.98000002
   14.76527786   81.76210022    2.64000010    1.98000002
   14.76833344   75.24259949    2.64000010    1.98000002
   14.76999950   80.44529724    2.64000010    1.98000002
   14.77194405   80.92169952    2.64000010    1.98000002
   14.77527714   87.70580292    2.64000010    1.98000002
   14.77833271   84.72619629    2.64000010    1.98000002
   14.78166676   86.25730133    2.64000010    1.98000002
   14.78472233   79.12210083    2.64000010    1.98000002
   14.78805637   84.27890015    2.64000010    1.98000002
   14.79138947   80.69770050    2.64000010    1.98000002
   14.79444504   79.90789795    2.64000010    1.98000002
   14.79777813   84.24939728    2.64000010    1.98000002
   14.80388927   84.24939728    2.64000010    1.98000002
   14.80805588   80.63870239    2.64000010    1.98000002
   14.81138897   80.00689697    2.64000010    1.98000002
   14.81444454   75.69239807    2.64000010    1.98000002
   14.81777763   83.40799713    2.64000010    1.98000002
   14.82111073   86.88189697    2.64000010    1.98000002
   14.82416630   82.75029755    2.64000010    1.98000002
   14.82750034   75.01779938    2.64000010    1.98000002
   14.83083344   74.55069733    2.64000010    1.98000002
   14.83388901   79.34639740    2.64000010    1.98000002
   14.83666611   79.10199738    2.64000010    1.98000002
   14.83749962   79.24559784    2.64000010    1.98000002
   14.84083271   77.51129913    2.64000010    1.98000002
   14.84666634   77.51129913    2.64000010    1.98000002
   14.85083389   84.54219818    2.64000010    1.98000002
   14.85416698   81.29869843    2.64000010    1.98000002
   14.85750008   78.58589935    2.64000010    1.98000002
   14.86055565   82.41169739    2.64000010    1.98000002
   14.86388969   80.57520294    2.64000010    1.98000002
   14.86694431   85.70149994    2.64000010    1.98000002
   14.86999989   82.92299652    2.64000010    1.98000002
   14.87083340   82.47709656    2.64000010    1.98000002
   14.87416649   79.38890076    2.64000010    1.98000002
   14.87722206   80.95310211    2.64000010    1.98000002
   14.88055611   86.50650024    2.64000010    1.98000002
   14.88361073   81.46900177    2.64000010    1.98000002
   14.88972187   81.46900177    2.64000010    1.98000002
   14.89388847   78.18810272    2.64000010    1.98000002
   14.89694405   83.17829895    2.64000010    1.98000002
   14.90027714   90.21690369    2.64000010    1.98000002
   14.90333271   82.46920013    2.64000010    1.98000002
   14.90388870   87.28959656    2.64000010    1.98000002
   14.90722179   88.03489685    2.64000010    1.98000002
   14.91027737   91.83850098    2.64000010    1.98000002
   14.91361046   95.49700165    2.64000010    1.98000002
   14.91666698   86.15709686    2.64000010    1.98000002
   14.92000008   80.64250183    2.64000010    1.98000002
   14.92333412   94.34040070    2.64000010    1.98000002
   14.92638874   85.28970337    2.64000010    1.98000002
   14.93249989   85.28970337    2.64000010    1.98000002
   14.93666649   94.73259735    2.64000010    1.98000002
   14.93722248   83.64289856    2.64000010    1.98000002
   14.94027805   79.24949646    2.64000010    1.98000002
   14.94361115   83.76219940    2.64000010    1.98000002
   14.94694424   80.06549835    2.64000010    1.98000002
   14.94999981   82.51049805    2.64000010    1.98000002
   14.95333290   80.85549927    2.64000010    1.98000002
   14.95666695   79.53140259    2.64000010    1.98000002
   14.95972157   75.45749664    2.64000010    1.98000002
   14.96305561   80.27839661    2.64000010    1.98000002
   14.96611118   76.09300232    2.64000010    1.98000002
   14.96944427   88.74250031    2.64000010    1.98000002
   14.97055531   83.49259949    2.64000010    1.98000002
   14.97527695   83.49259949    2.64000010    1.98000002
   14.97944355   85.24900055    2.64000010    1.98000002
   14.98277760   99.82599640    2.64000010    1.98000002
   14.98583317   91.33350372    2.64000010    1.98000002
   14.98916721   80.06179810    2.64000010    1.98000002
   14.99250031   85.36579895    2.64000010    1.98000002
   14.99555588   85.81700134    2.64000010    1.98000002
   14.99888897   91.26100159    2.64000010    1.98000002
   15.00222206   92.24949646    2.64000010    1.98000002
   15.00388908   94.63240051    2.64000010    1.98000002
   15.00555515   80.47170258    2.64000010    1.98000002
   15.00888920   91.59210205    2.64000010    1.98000002
   15.01222229   86.72869873    2.64000010    1.98000002
   15.01805496   86.72869873    2.64000010    1.98000002
   15.02222157   84.97100067    2.64000010    1.98000002
   15.02555561   92.34159851    2.64000010    1.98000002
   15.02861118   87.03399658    2.64000010    1.98000002
   15.03194427   76.82730103    2.64000010    1.98000002
   15.03527832   95.44010162    2.64000010    1.98000002
   15.03722286   93.09329987    2.64000010    1.98000002
   15.03861141   75.16159821    2.64000010    1.98000002
   15.04194450   88.28240204    2.64000010    1.98000002
   15.04527855   81.86370087    2.64000010    1.98000002
   15.04833412   82.32140350    2.64000010    1.98000002
   15.05166721   89.96939850    2.64000010    1.98000002
   15.05500031   83.56020355    2.64000010    1.98000002
   15.06111145   83.56020355    2.64000010    1.98000002
   15.06500053   81.56759644    2.64000010    1.98000002
   15.06833363   84.40080261    2.64000010    1.98000002
   15.07055569   76.99949646    2.64000010    1.98000002
   15.07194424   89.37899780    2.64000010    1.98000002
   15.07527733   78.59079742    2.64000010    1.98000002
   15.07861137   85.03500366    2.64000010    1.98000002
   15.08166695   85.82510376    2.64000010    1.98000002
   15.08500004   77.60700226    2.64000010    1.98000002
   15.08833313   77.34329987    2.64000010    1.98000002
   15.09138870   78.17160034    2.64000010    1.98000002
   15.09472179   83.44660187    2.64000010    1.98000002
   15.09777737   78.97270203    2.64000010    1.98000002
   15.10388947   78.97270203    2.64000010    1.98000002
   15.10805607  113.56400299    2.64000010    1.98000002
   15.11111164   81.18000031    2.64000010    1.98000002
   15.11444473   81.01699829    2.64000010    1.98000002
   15.11777782   83.52380371    2.64000010    1.98000002
   15.12083340   97.00260162    2.64000010    1.98000002
   15.12416649   93.89600372    2.64000010    1.98000002
   15.12750053   93.11889648    2.64000010    1.98000002
   15.13055611   92.54010010    2.64000010    1.98000002
   15.13388920   83.32250214    2.64000010    1.98000002
   15.13694477   84.79129791    2.64000010    1.98000002
   15.13888836   93.40789795    2.64000010    1.98000002
   15.14083290   97.59529877    2.64000010    1.98000002
   15.14666653   97.59529877    2.64000010    1.98000002
   15.15083313  101.58399963    2.64000010    1.98000002
   15.15416622   97.64340210    2.64000010    1.98000002
   15.26027775   -1.00000000   -1.00000000   -1.00000000
   15.35000038   -1.00000000   -1.00000000   -1.00000000
   15.45138836   -1.00000000   -1.00000000   -1.00000000
   15.54555607   -1.00000000   -1.00000000   -1.00000000
   15.65972137   -1.00000000   -1.00000000   -1.00000000
   15.75638866   -1.00000000   -1.00000000   -1.00000000
   15.78249931   95.81310272    2.64000010    1.98000002
   15.78555584   89.67019653    2.64000010    1.98000002
   15.78888893   92.96399689    2.64000010    1.98000002
   15.79194450   87.62290192    2.64000010    1.98000002
   15.79527855   99.98560333    2.64000010    1.98000002
   15.79861164   90.34310150    2.64000010    1.98000002
   15.80277824   90.34310150    2.64000010    1.98000002
   15.80666733   98.48259735    2.64000010    1.98000002
   15.81000042   90.57890320    2.64000010    1.98000002
   15.81333351   92.61940002    2.64000010    1.98000002
   15.81555557   88.53569794    2.64000010    1.98000002
   15.81694412   89.51159668    2.64000010    1.98000002
   15.81999969   77.92459869    2.64000010    1.98000002
   15.82333374   80.62840271    2.64000010    1.98000002
   15.82666683   75.74530029    2.64000010    1.98000002
   15.82972240   77.96920013    2.64000010    1.98000002
   15.83305550   86.75650024    2.64000010    1.98000002
   15.83638859   95.76930237    2.64000010    1.98000002
   15.83944416   82.20210266    2.64000010    1.98000002
   15.84555531   82.20210266    2.64000010    1.98000002
   15.84972191   86.49220276    2.64000010    1.98000002
   15.85277843   89.33429718    2.64000010    1.98000002
   15.85611153   80.77559662    2.64000010    1.98000002
   15.85944462   77.95349884    2.64000010    1.98000002
   15.86250019   82.51170349    2.64000010    1.98000002
   15.86583328   75.35679626    2.64000010    1.98000002
   15.86888885   74.13590240    2.64000010    1.98000002
   15.87222195   82.35220337    2.64000010    1.98000002
   15.87555599   79.09999847    2.64000010    1.98000002
   15.87861156   80.14489746    2.64000010    1.98000002
   15.88194466   78.16290283    2.64000010    1.98000002
   15.88249969   74.04029846    2.64000010    1.98000002
   15.88833332   74.04029846    2.64000010    1.98000002
   15.89249992   76.20269775    2.64000010    1.98000002
   15.89583302   76.85510254    2.64000010    1.98000002
   15.89888859   79.42440033    2.64000010    1.98000002
   15.90222168   87.24780273    2.64000010    1.98000002
   15.90527725   75.23930359    2.64000010    1.98000002
   15.90861034   76.77980042    2.64000010    1.98000002
   15.91194439   81.65769958    2.64000010    1.98000002
   15.91499996   85.88880157    2.64000010    1.98000002
   15.91583252   81.18689728    2.64000010    1.98000002
   15.91888905   81.14489746    2.64000010    1.98000002
   15.92194462   81.70030212    2.64000010    1.98000002
   15.92527771   75.60449982    2.64000010    1.98000002
   15.93111134   75.60449982    2.64000010    1.98000002
   15.93527794   95.98380280    2.64000010    1.98000002
   15.93861103   86.30400085    2.64000010    1.98000002
   15.94166660   89.69499969    2.64000010    1.98000002
   15.94499969   77.79429626    2.64000010    1.98000002
   15.94833374   81.85279846    2.64000010    1.98000002
   15.94916630   76.64330292    2.64000010    1.98000002
   15.95194435   73.52500153    2.64000010    1.98000002
   15.95499992   75.21219635    2.64000010    1.98000002
   15.95833302   75.98229980    2.64000010    1.98000002
   15.96166611   76.23149872    2.64000010    1.98000002
   15.96472168   75.08439636    2.64000010    1.98000002
   15.96805477   88.26460266    2.64000010    1.98000002
   15.97416592   88.26460266    2.64000010    1.98000002
   15.97805500   74.23179626    2.64000010    1.98000002
   15.98138809   72.88950348    2.64000010    1.98000002
   15.98249912   75.43199921    2.64000010    1.98000002
   15.98527813   77.53299713    2.64000010    1.98000002
   15.98833370   74.03040314    2.64000010    1.98000002
   15.99166679   76.29329681    2.64000010    1.98000002
   15.99472237   77.63469696    2.64000010    1.98000002
   15.99805546   74.69020081    2.64000010    1.98000002
   16.00138855   78.06259918    2.64000010    1.98000002
   16.00444412   78.98419952    2.64000010    1.98000002
   16.00777817   78.90350342    2.64000010    1.98000002
   16.01111031   77.67749786    2.64000010    1.98000002
   16.01694489   77.67749786    2.64000010    1.98000002
   16.02111053   71.06379700    2.64000010    1.98000002
   16.02416611   79.79709625    2.64000010    1.98000002
   16.02750015   75.79499817    2.64000010    1.98000002
   16.03083229   73.89739990    2.64000010    1.98000002
   16.03416634   74.66889954    2.64000010    1.98000002
   16.03722191   77.78269958    2.64000010    1.98000002
   16.04055595   73.81159973    2.64000010    1.98000002
   16.04361153   75.34010315    2.64000010    1.98000002
   16.04694366   79.12049866    2.64000010    1.98000002
   16.04916573   76.34839630    2.64000010    1.98000002
   16.05083275   76.93350220    2.64000010    1.98000002
   16.05388832   85.98100281    2.64000010    1.98000002
   16.05972099   85.98100281    2.64000010    1.98000002
   16.06388855   76.25879669    2.64000010    1.98000002
   16.06722260   78.38990021    2.64000010    1.98000002
   16.07027817   73.22440338    2.64000010    1.98000002
   16.07361221   71.92179871    2.64000010    1.98000002
   16.07666779   76.73529816    2.64000010    1.98000002
   16.08000183   76.76170349    2.64000010    1.98000002
   16.08250046   73.47250366    2.64000010    1.98000002
   16.08388901   76.99610138    2.64000010    1.98000002
   16.08694458   79.97899628    2.64000010    1.98000002
   16.09027863   72.89230347    2.64000010    1.98000002
   16.09333420   80.73190308    2.64000010    1.98000002
   16.09666824   92.95870209    2.64000010    1.98000002
   16.10250092   92.95870209    2.64000010    1.98000002
   16.10666656   81.21540070    2.64000010    1.98000002
   16.11000061   86.80699921    2.64000010    1.98000002
   16.11305618   95.34829712    2.64000010    1.98000002
   16.11583328   93.65350342    2.64000010    1.98000002
   16.11694527   92.70310211    2.64000010    1.98000002
   16.12000084   86.87960052    2.64000010    1.98000002
   16.12333298   86.68579865    2.64000010    1.98000002
   16.12638855   93.80599976    2.64000010    1.98000002
   16.12972260   88.55549622    2.64000010    1.98000002
   16.13305473   97.01100159    2.64000010    1.98000002
   16.13611031   99.74299622    2.64000010    1.98000002
   16.13944435   90.82659912    2.64000010    1.98000002
   16.14555550   90.82659912    2.64000010    1.98000002
   16.14944458   80.45770264    2.64000010    1.98000002
   16.15277672   80.92649841    2.64000010    1.98000002
   16.15611076   85.75199890    2.64000010    1.98000002
   16.15916634   77.33820343    2.64000010    1.98000002
   16.16250038   78.88200378    2.64000010    1.98000002
   16.16583252   80.76519775    2.64000010    1.98000002
   16.16888809   78.20169830    2.64000010    1.98000002
   16.17222214   75.38700104    2.64000010    1.98000002
   16.17527771   76.66400146    2.64000010    1.98000002
   16.17860985   92.52429962    2.64000010    1.98000002
   16.18194389   84.25869751    2.64000010    1.98000002
   16.18249893   80.00279999    2.64000010    1.98000002
   16.18833160   80.00279999    2.64000010    1.98000002
   16.19249916   96.44869995    2.64000010    1.98000002
   16.19555473   76.96040344    2.64000010    1.98000002
   16.19888878   92.90969849    2.64000010    1.98000002
   16.20222282   95.57550049    2.64000010    1.98000002
   16.20527840   90.75679779    2.64000010    1.98000002
   16.20861244   93.09420013    2.64000010    1.98000002
   16.21194458   89.13819885    2.64000010    1.98000002
   16.21500015   87.03500366    2.64000010    1.98000002
   16.21583366   87.77169800    2.64000010    1.98000002
   16.21888924   86.52670288    2.64000010    1.98000002
   16.22194481   87.53649902    2.64000010    1.98000002
   16.22527885   78.24739838    2.64000010    1.98000002
   16.23111153   78.24739838    2.64000010    1.98000002
   16.23527718   89.05049896    2.64000010    1.98000002
   16.23861122   76.58090210    2.64000010    1.98000002
   16.24166679   85.37129974    2.64000010    1.98000002
   16.24500084   75.95850372    2.64000010    1.98000002
   16.24805641   82.33399963    2.64000010    1.98000002
   16.24916649   84.50389862    2.64000010    1.98000002
   16.25194359   89.39959717    2.64000010    1.98000002
   16.25499916   84.22699738    2.64000010    1.98000002
   16.25833321   85.23249817    2.64000010    1.98000002
   16.26166725   77.53369904    2.64000010    1.98000002
   16.26472282   79.29429626    2.64000010    1.98000002
   16.26805496   78.82700348    2.64000010    1.98000002
   16.27388954   78.82700348    2.64000010    1.98000002
   16.27805519   78.72209930    2.64000010    1.98000002
   16.28138924   87.13600159    2.64000010    1.98000002
   16.28249931   82.92209625    2.64000010    1.98000002
   16.28499985   75.07129669    2.64000010    1.98000002
   16.28805542   79.87030029    2.64000010    1.98000002
   16.29138756   81.67819977    2.64000010    1.98000002
   16.29472160   81.58239746    2.64000010    1.98000002
   16.29777718   86.69129944    2.64000010    1.98000002
   16.30111122   78.63829803    2.64000010    1.98000002
   16.30444336   83.31289673    2.64000010    1.98000002
   16.30749893   82.46690369    2.64000010    1.98000002
   16.31083298   78.32279968    2.64000010    1.98000002
   16.31694603   78.32279968    2.64000010    1.98000002
   16.32083511   77.86710358    2.64000010    1.98000002
   16.32416725   83.20469666    2.64000010    1.98000002
   16.32750130   81.52220154    2.64000010    1.98000002
   16.33055687   73.79270172    2.64000010    1.98000002
   16.33388901   89.83039856    2.64000010    1.98000002
   16.33722305   89.33460236    2.64000010    1.98000002
   16.34027863   86.26190186    2.64000010    1.98000002
   16.34361267   80.88780212    2.64000010    1.98000002
   16.34666824   82.14209747    2.64000010    1.98000002
   16.34916687   73.21489716    2.64000010    1.98000002
   16.35055542   79.09889984    2.64000010    1.98000002
   16.35361099   77.99659729    2.64000010    1.98000002
   16.35972214   77.99659729    2.64000010    1.98000002
   16.36388969   86.95320129    2.64000010    1.98000002
   16.36694527   78.35849762    2.64000010    1.98000002
   16.37027740   81.67980194    2.64000010    1.98000002
   16.37361145   84.01750183    2.64000010    1.98000002
   16.37666702   82.27870178    2.64000010    1.98000002
   16.38000107   77.69419861    2.64000010    1.98000002
   16.38249969   77.84269714    2.64000010    1.98000002
   16.38361168   76.08249664    2.64000010    1.98000002
   16.38666725   77.45149994    2.64000010    1.98000002
   16.38999939   81.80619812    2.64000010    1.98000002
   16.39333344   81.64170074    2.64000010    1.98000002
   16.39638901   84.25170135    2.64000010    1.98000002
   16.40250015   84.25170135    2.64000010    1.98000002
   16.40666580   77.84439850    2.64000010    1.98000002
   16.40999985   76.13069916    2.64000010    1.98000002
   16.41305542   87.92769623    2.64000010    1.98000002
   16.41583252   77.35610199    2.64000010    1.98000002
   16.41694450   78.04830170    2.64000010    1.98000002
   16.42000008   83.19920349    2.64000010    1.98000002
   16.42333221   81.56710052    2.64000010    1.98000002
   16.42666626   88.48690033    2.64000010    1.98000002
   16.42972183   77.32199860    2.64000010    1.98000002
   16.43305397   87.09670258    2.64000010    1.98000002
   16.43638802   89.63760376    2.64000010    1.98000002
   16.43944359   84.49120331    2.64000010    1.98000002
   16.44527626   84.49120331    2.64000010    1.98000002
   16.44944382   89.94799805    2.64000010    1.98000002
   16.45277786   87.38400269    2.64000010    1.98000002
   16.45583344   78.38539886    2.64000010    1.98000002
   16.45916748   81.59760284    2.64000010    1.98000002
   16.46250153   82.59279633    2.64000010    1.98000002
   16.46555710   73.03269958    2.64000010    1.98000002
   16.46888924   72.81459808    2.64000010    1.98000002
   16.47222328   76.19049835    2.64000010    1.98000002
   16.47527885   78.25659943    2.64000010    1.98000002
   16.47861099   74.44809723    2.64000010    1.98000002
   16.48166656   79.24759674    2.64000010    1.98000002
   16.48250008   82.31600189    2.64000010    1.98000002
   16.48833275   82.31600189    2.64000010    1.98000002
   16.49222183   78.34519958    2.64000010    1.98000002
   16.49555588   81.41239929    2.64000010    1.98000002
   16.49888992   83.47979736    2.64000010    1.98000002
   16.50194359   79.37339783    2.64000010    1.98000002
   16.50527763   73.31449890    2.64000010    1.98000002
   16.50861168   85.10559845    2.64000010    1.98000002
   16.51166725   77.26110077    2.64000010    1.98000002
   16.51499939   76.39209747    2.64000010    1.98000002
   16.51583290   73.85959625    2.64000010    1.98000002
   16.51861000   83.54309845    2.64000010    1.98000002
   16.52166557   72.79209900    2.64000010    1.98000002
   16.52499962   82.18620300    2.64000010    1.98000002
   16.53111076   82.18620300    2.64000010    1.98000002
   16.53527641   79.08270264    2.64000010    1.98000002
   16.53833199   81.91889954    2.64000010    1.98000002
   16.54166603   82.47669983    2.64000010    1.98000002
   16.54472160   74.94170380    2.64000010    1.98000002
   16.54805565   87.32810211    2.64000010    1.98000002
   16.54916573   76.40239716    2.64000010    1.98000002
   16.55166626   86.67240143    2.64000010    1.98000002
   16.55472183   76.67009735    2.64000010    1.98000002
   16.55805397   81.47290039    2.64000010    1.98000002
   16.56138802   78.55159760    2.64000010    1.98000002
   16.56444359   77.64209747    2.64000010    1.98000002
   16.56777954   80.14360046    2.64000010    1.98000002
   16.57389069   80.14360046    2.64000010    1.98000002
   16.57805634   83.01779938    2.64000010    1.98000002
   16.58111191   78.71230316    2.64000010    1.98000002
   16.58250046   78.33570099    2.64000010    1.98000002
   16.58500099   81.37419891    2.64000010    1.98000002
   16.58805656   84.87439728    2.64000010    1.98000002
   16.59138870   77.18499756    2.64000010    1.98000002
   16.59472275   86.11820221    2.64000010    1.98000002
   16.59777832   92.53790283    2.64000010    1.98000002
   16.60111237   92.63439941    2.64000010    1.98000002
   16.60444450   88.47760010    2.64000010    1.98000002
   16.60750008   91.56900024    2.64000010    1.98000002
   16.61083412   90.83339691    2.64000010    1.98000002
   16.61666679   90.83339691    2.64000010    1.98000002
   16.62083435   77.30930328    2.64000010    1.98000002
   16.62416649   76.42440033    2.64000010    1.98000002
   16.62722206   79.86419678    2.64000010    1.98000002
   16.63055611   79.24430084    2.64000010    1.98000002
   16.63388824   82.14759827    2.64000010    1.98000002
   16.63694382   78.10900116    2.64000010    1.98000002
   16.64027786   77.17849731    2.64000010    1.98000002
   16.64361191   81.16670227    2.64000010    1.98000002
   16.64666748   74.69619751    2.64000010    1.98000002
   16.64916611   87.64550018    2.64000010    1.98000002
   16.65055466   80.36289978    2.64000010    1.98000002
   16.65388870   77.49299622    2.64000010    1.98000002
   16.65944481   77.49299622    2.64000010    1.98000002
   16.66361046   75.76750183    2.64000010    1.98000002
   16.66694450   76.65480042    2.64000010    1.98000002
   16.67027664   75.70780182    2.64000010    1.98000002
   16.67333221   81.85970306    2.64000010    1.98000002
   16.67666626   85.46209717    2.64000010    1.98000002
   16.67972183   78.95300293    2.64000010    1.98000002
   16.68249893   79.76329803    2.64000010    1.98000002
   16.68361092   79.01450348    2.64000010    1.98000002
   16.68694305   87.07810211    2.64000010    1.98000002
   16.68999863   76.63030243    2.64000010    1.98000002
   16.69333267   78.89540100    2.64000010    1.98000002
   16.69638824   90.46420288    2.64000010    1.98000002
   16.70250130   90.46420288    2.64000010    1.98000002
   16.70666695   80.33679962    2.64000010    1.98000002
   16.70972252   89.19560242    2.64000010    1.98000002
   16.71305656   84.69249725    2.64000010    1.98000002
   16.71583366   86.27400208    2.64000010    1.98000002
   16.71666718   92.49440002    2.64000010    1.98000002
   16.72000122   81.14399719    2.64000010    1.98000002
   16.72305679   71.12460327    2.64000010    1.98000002
   16.72638893   75.26429749    2.64000010    1.98000002
   16.72944450  102.90000153    2.64000010    1.98000002
   16.73277855   92.08029938    2.64000010    1.98000002
   16.73611069  102.97599792    2.64000010    1.98000002
   16.73916626   98.41970062    2.64000010    1.98000002
   16.74527740   98.41970062    2.64000010    1.98000002
   16.74944496   96.87220001    2.64000010    1.98000002
   16.75250053   94.26439667    2.64000010    1.98000002
   16.75583267   87.46790314    2.64000010    1.98000002
   16.75916672  108.72000122    2.64000010    1.98000002
   16.76222229   97.40529633    2.64000010    1.98000002
   16.76555634   89.07990265    2.64000010    1.98000002
   16.76888847   85.80439758    2.64000010    1.98000002
   16.77194405   90.56390381    2.64000010    1.98000002
   16.77527809   84.68090057    2.64000010    1.98000002
   16.77833366   92.10430145    2.64000010    1.98000002
   16.78166580   76.95390320    2.64000010    1.98000002
   16.78249931   89.47550201    2.64000010    1.98000002
   16.80333328   89.47550201    2.64000010    1.98000002
   16.80749893   80.22419739    2.64000010    1.98000002
   16.81055450   86.20680237    2.64000010    1.98000002
   16.81388855   82.30269623    2.64000010    1.98000002
   16.81583214   74.99569702    2.64000010    1.98000002
   16.81750107   74.69650269    2.64000010    1.98000002
   16.82083511   77.14589691    2.64000010    1.98000002
   16.82389069   78.25610352    2.64000010    1.98000002
   16.82722282   78.75820160    2.64000010    1.98000002
   16.83055687   78.19439697    2.64000010    1.98000002
   16.83361244   79.83689880    2.64000010    1.98000002
   16.83694458   79.70220184    2.64000010    1.98000002
   16.84000015   92.86630249    2.64000010    1.98000002
   16.84611130   92.86630249    2.64000010    1.98000002
   16.85027885   77.06330109    2.64000010    1.98000002
   16.85333443   77.56529999    2.64000010    1.98000002
   16.85666656   74.60299683    2.64000010    1.98000002
   16.86000061   73.33300018    2.64000010    1.98000002
   16.86305618   84.17739868    2.64000010    1.98000002
   16.86638832   72.90499878    2.64000010    1.98000002
   16.86944389   78.34510040    2.64000010    1.98000002
   16.87277794   82.44439697    2.64000010    1.98000002
   16.87611198   80.63500214    2.64000010    1.98000002
   16.87916756   73.90470123    2.64000010    1.98000002
   16.88249969   76.08709717    2.64000010    1.98000002
   16.88305473   75.35289764    2.64000010    1.98000002
   16.88888931   75.35289764    2.64000010    1.98000002
   16.89305496   78.06600189    2.64000010    1.98000002
   16.89638901   72.00360107    2.64000010    1.98000002
   16.89944458   72.39489746    2.64000010    1.98000002
   16.90277672   74.92169952    2.64000010    1.98000002
   16.90583229   76.80139923    2.64000010    1.98000002
   16.90916634   78.21369934    2.64000010    1.98000002
   16.91250038   82.98419952    2.64000010    1.98000002
   16.91555595   87.63230133    2.64000010    1.98000002
   16.91638756   80.63899994    2.64000010    1.98000002
   16.91944313   81.09519958    2.64000010    1.98000002
   16.92249870   75.78929901    2.64000010    1.98000002
   16.92583275   74.38130188    2.64000010    1.98000002
   16.93166542   74.38130188    2.64000010    1.98000002
   16.93583298   75.45690155    2.64000010    1.98000002
   16.93916512   71.39890289    2.64000010    1.98000002
   16.94222069   74.53690338    2.64000010    1.98000002
   16.94555473   76.87180328    2.64000010    1.98000002
   16.94888878   71.49430084    2.64000010    1.98000002
   16.94972038   81.35089874    2.64000010    1.98000002
   16.95250130   72.62529755    2.64000010    1.98000002
   16.95555687   73.47630310    2.64000010    1.98000002
   16.95888901   75.92310333    2.64000010    1.98000002
   16.96194458   75.80639648    2.64000010    1.98000002
   16.96527863   72.32779694    2.64000010    1.98000002
   16.96861076   77.10949707    2.64000010    1.98000002
   16.97444534   77.10949707    2.64000010    1.98000002
   16.97861099   74.76940155    2.64000010    1.98000002
   16.98194504   75.76570129    2.64000010    1.98000002
   16.98305511   73.54949951    2.64000010    1.98000002
   16.98555565   76.07060242    2.64000010    1.98000002
   16.98861122   76.01640320    2.64000010    1.98000002
   16.99194527   74.97820282    2.64000010    1.98000002
   16.99500084   74.07230377    2.64000010    1.98000002
   16.99833298   82.16719818    2.64000010    1.98000002
   17.00166702   79.32740021    2.64000010    1.98000002
   17.00472260   72.68969727    2.64000010    1.98000002
   17.00805473   73.73989868    2.64000010    1.98000002
   17.01138878   74.23840332    2.64000010    1.98000002
   17.01749992   74.23840332    2.64000010    1.98000002
   17.02166557   78.40450287    2.64000010    1.98000002
   17.02472115   72.91369629    2.64000010    1.98000002
   17.02805519   72.19219971    2.64000010    1.98000002
   17.03138924   77.96730042    2.64000010    1.98000002
   17.03444481   75.78379822    2.64000010    1.98000002
   17.03777695   73.70339966    2.64000010    1.98000002
   17.04083252   78.46040344    2.64000010    1.98000002
   17.04416656   82.75209808    2.64000010    1.98000002
   17.04749870   75.62020111    2.64000010    1.98000002
   17.04972076   76.99269867    2.64000010    1.98000002
   17.05111122   80.17040253    2.64000010    1.98000002
   17.05416679   74.62909698    2.64000010    1.98000002
   17.06027794   74.62909698    2.64000010    1.98000002
   17.06444359   79.95760345    2.64000010    1.98000002
   17.06750107   75.27690125    2.64000010    1.98000002
   17.07083511   73.11090088    2.64000010    1.98000002
   17.07416725   74.32019806    2.64000010    1.98000002
   17.07722282   73.21209717    2.64000010    1.98000002
   17.08055687   73.46189880    2.64000010    1.98000002
   17.08305550   72.69789886    2.64000010    1.98000002
   17.08416748   72.87429810    2.64000010    1.98000002
   17.08722305   74.33869934    2.64000010    1.98000002
   17.09055710   77.45659637    2.64000010    1.98000002
   17.09361267   74.57569885    2.64000010    1.98000002
   17.09694481   71.59700012    2.64000010    1.98000002
   17.10305595   71.59700012    2.64000010    1.98000002
   17.10722351   73.19740295    2.64000010    1.98000002
   17.11055565   72.58390045    2.64000010    1.98000002
   17.11361122   73.14739990    2.64000010    1.98000002
   17.11638832   76.83750153    2.64000010    1.98000002
   17.11750031   88.43430328    2.64000010    1.98000002
   17.12055588   83.07869720    2.64000010    1.98000002
   17.12388992   91.87020111    2.64000010    1.98000002
   17.12694550   84.31340027    2.64000010    1.98000002
   17.13027763   73.80799866    2.64000010    1.98000002
   17.13361168   76.47049713    2.64000010    1.98000002
   17.13694382   79.03230286    2.64000010    1.98000002
   17.13999939   81.84819794    2.64000010    1.98000002
   17.14583397   81.84819794    2.64000010    1.98000002
   17.14999962   73.14839935    2.64000010    1.98000002
   17.15333366   76.43939972    2.64000010    1.98000002
   17.15666580   75.32740021    2.64000010    1.98000002
   17.15972137   72.82440186    2.64000010    1.98000002
   17.16305542   72.61879730    2.64000010    1.98000002
   17.16611099   73.33609772    2.64000010    1.98000002
   17.16944313   75.29959869    2.64000010    1.98000002
   17.17277718   75.58180237    2.64000010    1.98000002
   17.17583275   77.50789642    2.64000010    1.98000002
   17.17916679   82.69360352    2.64000010    1.98000002
   17.18249893   72.47810364    2.64000010    1.98000002
   17.18305397   77.65689850    2.64000010    1.98000002
   17.18888855   77.65689850    2.64000010    1.98000002
   17.19305420   72.31800079    2.64000010    1.98000002
   17.19610977   77.73480225    2.64000010    1.98000002
   17.19944382   87.55760193    2.64000010    1.98000002
   17.20250130   83.51789856    2.64000010    1.98000002
   17.20583344   84.94139862    2.64000010    1.98000002
   17.20916748   77.55280304    2.64000010    1.98000002
   17.21222305   81.29429626    2.64000010    1.98000002
   17.21555710   77.75489807    2.64000010    1.98000002
   17.21638870   73.96890259    2.64000010    1.98000002
   17.21916771   78.81620026    2.64000010    1.98000002
   17.22222328   71.88819885    2.64000010    1.98000002
   17.22555542   82.10209656    2.64000010    1.98000002
   17.23166656   82.10209656    2.64000010    1.98000002
   17.23583412   71.02919769    2.64000010    1.98000002
   17.23888969   72.66970062    2.64000010    1.98000002
   17.24222183   76.49120331    2.64000010    1.98000002
   17.24555588   74.08229828    2.64000010    1.98000002
   17.24861145   76.30760193    2.64000010    1.98000002
   17.24972153   73.36219788    2.64000010    1.98000002
   17.25250053   77.93650055    2.64000010    1.98000002
   17.25555611   73.91400146    2.64000010    1.98000002
   17.25888824   78.42520142    2.64000010    1.98000002
   17.26222229   71.21959686    2.64000010    1.98000002
   17.26527786   76.64520264    2.64000010    1.98000002
   17.26861000   72.69280243    2.64000010    1.98000002
   17.27444458   72.69280243    2.64000010    1.98000002
   17.27861023   76.17839813    2.64000010    1.98000002
   17.28194427   77.58940125    2.64000010    1.98000002
   17.28305435   71.84249878    2.64000010    1.98000002
   17.28555489   75.19110107    2.64000010    1.98000002
   17.28861046   91.67739868    2.64000010    1.98000002
   17.29194450   87.20860291    2.64000010    1.98000002
   17.29527664   77.78199768    2.64000010    1.98000002
   17.29833221   74.80069733    2.64000010    1.98000002
   17.30166626   75.48999786    2.64000010    1.98000002
   17.30499840   78.48960114    2.64000010    1.98000002
   17.30805397   75.92130280    2.64000010    1.98000002
   17.31138802   76.90119934    2.64000010    1.98000002
   17.31722260   76.90119934    2.64000010    1.98000002
   17.32139015   74.67970276    2.64000010    1.98000002
   17.32472229   72.27629852    2.64000010    1.98000002
   17.32805634   74.01249695    2.64000010    1.98000002
   17.33111191   72.57489777    2.64000010    1.98000002
   17.33444595   79.17199707    2.64000010    1.98000002
   17.33777809   72.18119812    2.64000010    1.98000002
   17.34083366   75.77079773    2.64000010    1.98000002
   17.34416771   73.24900055    2.64000010    1.98000002
   17.34722328   74.10150146    2.64000010    1.98000002
   17.34972191   78.21080017    2.64000010    1.98000002
   17.35111237   78.21199799    2.64000010    1.98000002
   17.35416794   73.19730377    2.64000010    1.98000002
   17.36027908   73.19730377    2.64000010    1.98000002
   17.36444473   73.76349640    2.64000010    1.98000002
   17.36750031   78.09059906    2.64000010    1.98000002
   17.37083435   78.45800018    2.64000010    1.98000002
   17.37388992   79.64810181    2.64000010    1.98000002
   17.37722206   76.89620209    2.64000010    1.98000002
   17.38055611   90.61070251    2.64000010    1.98000002
   17.38305473   88.70020294    2.64000010    1.98000002
   17.38416672   90.06269836    2.64000010    1.98000002
   17.38750076   91.31469727    2.64000010    1.98000002
   17.39055634   85.17539978    2.64000010    1.98000002
   17.39388847   83.00279999    2.64000010    1.98000002
   17.39694405   78.73380280    2.64000010    1.98000002
   17.40305519   78.73380280    2.64000010    1.98000002
   17.40722275   79.65619659    2.64000010    1.98000002
   17.41027832   89.78450012    2.64000010    1.98000002
   17.41361046   84.03780365    2.64000010    1.98000002
   17.41638756   83.76809692    2.64000010    1.98000002
   17.41722107   94.78150177    2.64000010    1.98000002
   17.42027664   89.41909790    2.64000010    1.98000002
   17.42361069   83.17449951    2.64000010    1.98000002
   17.42694473  101.82599640    2.64000010    1.98000002
   17.43000031   87.53859711    2.64000010    1.98000002
   17.43333244   75.57489777    2.64000010    1.98000002
   17.43666649   78.84950256    2.64000010    1.98000002
   17.43972206   80.90450287    2.64000010    1.98000002
   17.44583321   80.90450287    2.64000010    1.98000002
   17.45000076   81.22470093    2.64000010    1.98000002
   17.45333481   86.82530212    2.64000010    1.98000002
   17.45639038   85.13089752    2.64000010    1.98000002
   17.45972252   87.13379669    2.64000010    1.98000002
   17.46305656   76.20369720    2.64000010    1.98000002
   17.46611214   80.04419708    2.64000010    1.98000002
   17.46944427   75.00749969    2.64000010    1.98000002
   17.47277832   82.37190247    2.64000010    1.98000002
   17.47583389   79.39060211    2.64000010    1.98000002
   17.47916794   80.28649902    2.64000010    1.98000002
   17.48222351   81.98519897    2.64000010    1.98000002
   17.48305511   75.24939728    2.64000010    1.98000002
   17.48861122   75.24939728    2.64000010    1.98000002
   17.49277878   82.01210022    2.64000010    1.98000002
   17.49611092   74.95860291    2.64000010    1.98000002
   17.49944496   79.45929718    2.64000010    1.98000002
   17.50250053   86.07379913    2.64000010    1.98000002
   17.50583267   74.47760010    2.64000010    1.98000002
   17.50888824   76.59750366    2.64000010    1.98000002
   17.51222229   77.16719818    2.64000010    1.98000002
   17.51555634   88.17320251    2.64000010    1.98000002
   17.51638794   87.48229980    2.64000010    1.98000002
   17.51916695   83.29799652    2.64000010    1.98000002
   17.52222252   81.70310211    2.64000010    1.98000002
   17.52555466   84.29940033    2.64000010    1.98000002
   17.53166580   84.29940033    2.64000010    1.98000002
   17.53583336   78.20130157    2.64000010    1.98000002
   17.53888893   75.58450317    2.64000010    1.98000002
   17.54222107   77.68759918    2.64000010    1.98000002
   17.54527664   75.92939758    2.64000010    1.98000002
   17.54861069   76.09179688    2.64000010    1.98000002
   17.54972076   84.27089691    2.64000010    1.98000002
   17.55222130   77.35230255    2.64000010    1.98000002
   17.55527687   74.83049774    2.64000010    1.98000002
   17.55861092   73.22139740    2.64000010    1.98000002
   17.56194305   81.60150146    2.64000010    1.98000002
   17.56499863   77.29979706    2.64000010    1.98000002
   17.56833458   79.59320068    2.64000010    1.98000002
   17.57444572   79.59320068    2.64000010    1.98000002
   17.57861137   74.88120270    2.64000010    1.98000002
   17.58166695   76.93460083    2.64000010    1.98000002
   17.58305550   75.81009674    2.64000010    1.98000002
   17.58555603   74.67769623    2.64000010    1.98000002
   17.58889008   88.78510284    2.64000010    1.98000002
   17.59194565   78.09940338    2.64000010    1.98000002
   17.59527779   81.01580048    2.64000010    1.98000002
   17.59833336   84.70480347    2.64000010    1.98000002
   17.60166740   74.91290283    2.64000010    1.98000002
   17.60499954   78.65660095    2.64000010    1.98000002
   17.60805511   81.28070068    2.64000010    1.98000002
   17.61138916   75.15570068    2.64000010    1.98000002
   17.61722183   75.15570068    2.64000010    1.98000002
   17.62138939   71.64340210    2.64000010    1.98000002
   17.62472153   90.58750153    2.64000010    1.98000002
   17.62777710   85.97480011    2.64000010    1.98000002
   17.63111115   71.71700287    2.64000010    1.98000002
   17.63444519   80.59349823    2.64000010    1.98000002
   17.63750076   80.14610291    2.64000010    1.98000002
   17.64083290   76.35379791    2.64000010    1.98000002
   17.64416695   91.13379669    2.64000010    1.98000002
   17.64722252   83.77429962    2.64000010    1.98000002
   17.64972115   78.92659760    2.64000010    1.98000002
   17.65083313   78.62920380    2.64000010    1.98000002
   17.65416718   81.46649933    2.64000010    1.98000002
   17.65999985   81.46649933    2.64000010    1.98000002
   17.66416550   82.80560303    2.64000010    1.98000002
   17.66749954   81.48459625    2.64000010    1.98000002
   17.67083359   76.80719757    2.64000010    1.98000002
   17.67388916   83.56900024    2.64000010    1.98000002
   17.67722130   73.82830048    2.64000010    1.98000002
   17.68055534   87.18509674    2.64000010    1.98000002
   17.68305397   79.59259796    2.64000010    1.98000002
   17.68416595   93.92109680    2.64000010    1.98000002
   17.68750000   77.86129761    2.64000010    1.98000002
   17.69055557   84.43520355    2.64000010    1.98000002
   17.69388771   83.34239960    2.64000010    1.98000002
   17.69694328   83.27819824    2.64000010    1.98000002
   17.70305634   83.27819824    2.64000010    1.98000002
   17.70722389   82.91600037    2.64000010    1.98000002
   17.71027946   87.67539978    2.64000010    1.98000002
   17.71361160   83.18560028    2.64000010    1.98000002
   17.71638870   87.83959961    2.64000010    1.98000002
   17.71722221   84.05039978    2.64000010    1.98000002
   17.72055626   93.57720184    2.64000010    1.98000002
   17.72361183   88.17099762    2.64000010    1.98000002
   17.72694588   95.13639832    2.64000010    1.98000002
   17.73000145   92.06729889    2.64000010    1.98000002
   17.73333359   88.57450104    2.64000010    1.98000002
   17.73666763   87.77950287    2.64000010    1.98000002
   17.73972321   83.93399811    2.64000010    1.98000002
   17.74583435   83.93399811    2.64000010    1.98000002
   17.75000000   89.05549622    2.64000010    1.98000002
   17.75305557   86.04570007    2.64000010    1.98000002
   17.75638962   78.66459656    2.64000010    1.98000002
   17.75972176   95.66639709    2.64000010    1.98000002
   17.76277733   82.15219879    2.64000010    1.98000002
   17.76611137   75.94709778    2.64000010    1.98000002
   17.76944351   79.60729980    2.64000010    1.98000002
   17.77249908   72.82610321    2.64000010    1.98000002
   17.77583313   87.45089722    2.64000010    1.98000002
   17.77888870   96.07160187    2.64000010    1.98000002
   17.78222275   80.50720215    2.64000010    1.98000002
   17.78305435   77.93060303    2.64000010    1.98000002
   17.78861046   77.93060303    2.64000010    1.98000002
   17.79277802   88.39649963    2.64000010    1.98000002
   17.79611015   87.76159668    2.64000010    1.98000002
   17.79916573   95.22630310    2.64000010    1.98000002
   17.81694603   94.03610229    2.64000010    1.98000002
   17.81916809   81.23419952    2.64000010    1.98000002
   17.82250023   81.59839630    2.64000010    1.98000002
   17.82583427   81.02909851    2.64000010    1.98000002
   17.83166695   81.02909851    2.64000010    1.98000002
   17.83583450   93.99749756    2.64000010    1.98000002
   17.83916664   88.91369629    2.64000010    1.98000002
   17.84222221   88.20149994    2.64000010    1.98000002
   17.84555626   84.35970306    2.64000010    1.98000002
   17.84889030   83.79609680    2.64000010    1.98000002
   17.85000038   80.50969696    2.64000010    1.98000002
   17.85250092   83.73470306    2.64000010    1.98000002
   17.85583305   81.30269623    2.64000010    1.98000002
   17.85888863   91.30940247    2.64000010    1.98000002
   17.86222267   78.35569763    2.64000010    1.98000002
   17.86555672   77.61460114    2.64000010    1.98000002
   17.86861038   80.49970245    2.64000010    1.98000002
   17.87444496   80.49970245    2.64000010    1.98000002
   17.87861061   80.07929993    2.64000010    1.98000002
   17.88194466   83.23719788    2.64000010    1.98000002
   17.88333321   77.82530212    2.64000010    1.98000002
   17.88555527   74.90110016    2.64000010    1.98000002
   17.88888931   84.58920288    2.64000010    1.98000002
   17.89194489   80.00299835    2.64000010    1.98000002
   17.89527702   79.94809723    2.64000010    1.98000002
   17.89861107   83.91349792    2.64000010    1.98000002
   17.90166664   81.76490021    2.64000010    1.98000002
   17.90499878   80.69080353    2.64000010    1.98000002
   17.90833282   85.31690216    2.64000010    1.98000002
   17.91166687   73.81050110    2.64000010    1.98000002
   17.91749954   73.81050110    2.64000010    1.98000002
   17.92138863   84.00769806    2.64000010    1.98000002
   17.92472076   74.03389740    2.64000010    1.98000002
   17.92805481   74.63529968    2.64000010    1.98000002
   17.93111038   78.71320343    2.64000010    1.98000002
   17.93444443   76.70040131    2.64000010    1.98000002
   17.93777657   73.31929779    2.64000010    1.98000002
   17.94083214   75.24800110    2.64000010    1.98000002
   17.94416618   78.04239655    2.64000010    1.98000002
   17.94722176   82.70410156    2.64000010    1.98000002
   17.95000076   76.36779785    2.64000010    1.98000002
   17.95111275   78.85469818    2.64000010    1.98000002
   17.95444489   76.22799683    2.64000010    1.98000002
   17.96027946   76.22799683    2.64000010    1.98000002
   17.96444511   81.49620056    2.64000010    1.98000002
   17.96750069   82.86519623    2.64000010    1.98000002
   17.97083473   91.45839691    2.64000010    1.98000002
   17.97416687   80.67669678    2.64000010    1.98000002
   17.97722244   83.95320129    2.64000010    1.98000002
   17.98055649   79.77909851    2.64000010    1.98000002
   17.98333359   83.63649750    2.64000010    1.98000002
   17.98416710   81.73639679    2.64000010    1.98000002
   17.98750114   92.63870239    2.64000010    1.98000002
   17.99083328   79.75009918    2.64000010    1.98000002
   17.99388885   98.68560028    2.64000010    1.98000002
   17.99722290   99.57250214    2.64000010    1.98000002
   18.00305557   99.57250214    2.64000010    1.98000002
   18.00722313   94.47470093    2.64000010    1.98000002
   18.01055527   86.20809937    2.64000010    1.98000002
   18.01361084   88.12840271    2.64000010    1.98000002
   18.01666641   80.31800079    2.64000010    1.98000002
   18.01722145   92.04679871    2.64000010    1.98000002
   18.02055550   83.22969818    2.64000010    1.98000002
   18.02361107   90.33059692    2.64000010    1.98000002
   18.02694511   82.05329895    2.64000010    1.98000002
   18.03027725   97.94309998    2.64000010    1.98000002
   18.03333282   91.99800110    2.64000010    1.98000002
   18.03666687   87.02570343    2.64000010    1.98000002
   18.03972244   82.74819946    2.64000010    1.98000002
   18.04583359   82.74819946    2.64000010    1.98000002
   18.04999924   84.11679840    2.64000010    1.98000002
   18.05055428   91.57180023    2.64000010    1.98000002
   18.05388832   89.44490051    2.64000010    1.98000002
   18.05694389   84.58010101    2.64000010    1.98000002
   18.06027794   84.88089752    2.64000010    1.98000002
   18.06361008   94.69719696    2.64000010    1.98000002
   18.06666756   96.37370300    2.64000010    1.98000002
   18.07000160   80.16210175    2.64000010    1.98000002
   18.07305717   85.43810272    2.64000010    1.98000002
   18.07638931   80.98100281    2.64000010    1.98000002
   18.07972336   84.36910248    2.64000010    1.98000002
   18.08277893   83.23570251    2.64000010    1.98000002
   18.08333397   91.29959869    2.64000010    1.98000002
   18.08861160   91.29959869    2.64000010    1.98000002
   18.09277916   76.42829895    2.64000010    1.98000002
   18.09611130   98.45439911    2.64000010    1.98000002
   18.09916687   83.45110321    2.64000010    1.98000002
   18.10250092   87.96029663    2.64000010    1.98000002
   18.10583305   79.16660309    2.64000010    1.98000002
   18.10888863   81.81950378    2.64000010    1.98000002
   18.11222267   87.20179749    2.64000010    1.98000002
   18.11555672   83.14430237    2.64000010    1.98000002
   18.11666679   86.31659698    2.64000010    1.98000002
   18.11916733   88.47799683    2.64000010    1.98000002
   18.12249947   79.80609894    2.64000010    1.98000002
   18.12555504   73.94239807    2.64000010    1.98000002
   18.13166618   73.94239807    2.64000010    1.98000002
   18.13583374   91.59559631    2.64000010    1.98000002
   18.13888931   88.37319946    2.64000010    1.98000002
   18.14222145   83.43460083    2.64000010    1.98000002
   18.14527702   85.36920166    2.64000010    1.98000002
   18.14861107   90.25550079    2.64000010    1.98000002
   18.14999962   81.36190033    2.64000010    1.98000002
   18.15222168   80.11460114    2.64000010    1.98000002
   18.15555573   97.42559814    2.64000010    1.98000002
   18.15861130   83.27649689    2.64000010    1.98000002
   18.16194344   83.46040344    2.64000010    1.98000002
   18.16527748   89.15840149    2.64000010    1.98000002
   18.16833305   82.45379639    2.64000010    1.98000002
   18.17444420   82.45379639    2.64000010    1.98000002
   18.17860985   82.99659729    2.64000010    1.98000002
   18.18166542   87.75440216    2.64000010    1.98000002
   18.18333244   86.52980042    2.64000010    1.98000002
   18.18527603   84.15859985    2.64000010    1.98000002
   18.18861008   84.46849823    2.64000010    1.98000002
   18.19166565   79.09719849    2.64000010    1.98000002
   18.19499969   76.31330109    2.64000010    1.98000002
   18.19833183   87.73709869    2.64000010    1.98000002
   18.20138931   90.64119720    2.64000010    1.98000002
   18.20472336   82.42600250    2.64000010    1.98000002
   18.20805550   87.37580109    2.64000010    1.98000002
   18.21111107   81.45059967    2.64000010    1.98000002
   18.21722221   81.45059967    2.64000010    1.98000002
   18.22138977   78.34880066    2.64000010    1.98000002
   18.22472191   83.13559723    2.64000010    1.98000002
   18.22777748   81.77549744    2.64000010    1.98000002
   18.23111153   87.49890137    2.64000010    1.98000002
   18.23444557   78.58570099    2.64000010    1.98000002
   18.23750114   80.49019623    2.64000010    1.98000002
   18.24083328   79.53759766    2.64000010    1.98000002
   18.24416733   88.60970306    2.64000010    1.98000002
   18.24722290   80.59380341    2.64000010    1.98000002
   18.25000000   77.74949646    2.64000010    1.98000002
   18.25083351   78.87629700    2.64000010    1.98000002
   18.25416756   78.50000000    2.64000010    1.98000002
   18.26000023   78.50000000    2.64000010    1.98000002
   18.26416588   85.35929871    2.64000010    1.98000002
   18.26749992   73.13729858    2.64000010    1.98000002
   18.27083397   74.61319733    2.64000010    1.98000002
   18.27388954   71.89929962    2.64000010    1.98000002
   18.27722168   73.99549866    2.64000010    1.98000002
   18.28027725   80.86750031    2.64000010    1.98000002
   18.28333282   75.36949921    2.64000010    1.98000002
   18.28388786   75.11129761    2.64000010    1.98000002
   18.28722191   75.87879944    2.64000010    1.98000002
   18.29027748   77.68409729    2.64000010    1.98000002
   18.29361153   79.30400085    2.64000010    1.98000002
   18.29694366   72.92050171    2.64000010    1.98000002
   18.30305481   72.92050171    2.64000010    1.98000002
   18.30694389   88.89420319    2.64000010    1.98000002
   18.31027794   89.92919922    2.64000010    1.98000002
   18.31361008   78.67729950    2.64000010    1.98000002
   18.31666756   79.56500244    2.64000010    1.98000002
   18.31722260   75.40470123    2.64000010    1.98000002
   18.32055664   83.20459747    2.64000010    1.98000002
   18.32361221   73.69609833    2.64000010    1.98000002
   18.32694626   76.32430267    2.64000010    1.98000002
   18.33027840   75.68360138    2.64000010    1.98000002
   18.33333397   80.72029877    2.64000010    1.98000002
   18.33666801   78.59940338    2.64000010    1.98000002
   18.33972359   77.25980377    2.64000010    1.98000002
   18.34583473   77.25980377    2.64000010    1.98000002
   18.35000038   75.44090271    2.64000010    1.98000002
   18.35055542   82.12190247    2.64000010    1.98000002
   18.35361099   73.92839813    2.64000010    1.98000002
   18.35694504   73.45089722    2.64000010    1.98000002
   18.36027908   76.27989960    2.64000010    1.98000002
   18.36333466   78.61329651    2.64000010    1.98000002
   18.36666679   77.48619843    2.64000010    1.98000002
   18.37000084   82.36940002    2.64000010    1.98000002
   18.37305641   83.65889740    2.64000010    1.98000002
   18.37638855   78.19100189    2.64000010    1.98000002
   18.37944412   82.20099640    2.64000010    1.98000002
   18.38277817   87.55069733    2.64000010    1.98000002
   18.38388824   82.61959839    2.64000010    1.98000002
   18.38861084   82.61959839    2.64000010    1.98000002
   18.39277840   85.03070068    2.64000010    1.98000002
   18.39611053   92.66790009    2.64000010    1.98000002
   18.39916611   74.12480164    2.64000010    1.98000002
   18.40250015   82.30049896    2.64000010    1.98000002
   18.40583229   75.20339966    2.64000010    1.98000002
   18.40888786   75.98960114    2.64000010    1.98000002
   18.41222191   80.31919861    2.64000010    1.98000002
   18.41555595   79.31549835    2.64000010    1.98000002
   18.41722107   78.35359955    2.64000010    1.98000002
   18.41888809   83.69830322    2.64000010    1.98000002
   18.42222214   76.90239716    2.64000010    1.98000002
   18.42555428   77.39060211    2.64000010    1.98000002
   18.43138885   77.39060211    2.64000010    1.98000002
   18.43555450   91.18329620    2.64000010    1.98000002
   18.43888855   90.68910217    2.64000010    1.98000002
   18.44222069   90.37629700    2.64000010    1.98000002
   18.44527626   86.04039764    2.64000010    1.98000002
   18.44861031   85.91510010    2.64000010    1.98000002
   18.45055580   80.03150177    2.64000010    1.98000002
   18.45194435   87.41940308    2.64000010    1.98000002
   18.45527840   75.76529694    2.64000010    1.98000002
   18.45861244   94.97499847    2.64000010    1.98000002
   18.46166801   90.21109772    2.64000010    1.98000002
   18.46500015   75.65599823    2.64000010    1.98000002
   18.46805573   79.44049835    2.64000010    1.98000002
   18.47444534   79.44049835    2.64000010    1.98000002
   18.47861099   82.75420380    2.64000010    1.98000002
   18.48166656   82.22059631    2.64000010    1.98000002
   18.48388863   79.55110168    2.64000010    1.98000002
   18.48555565   87.27950287    2.64000010    1.98000002
   18.48861122   78.14720154    2.64000010    1.98000002
   18.49194527   76.75279999    2.64000010    1.98000002
   18.49500084   79.20670319    2.64000010    1.98000002
   18.49833298   88.33370209    2.64000010    1.98000002
   18.50166702   80.05789948    2.64000010    1.98000002
   18.50472260   93.18289948    2.64000010    1.98000002
   18.50805473   78.73120117    2.64000010    1.98000002
   18.51138878   74.59950256    2.64000010    1.98000002
   18.51722145   74.59950256    2.64000010    1.98000002
   18.52138901   87.90709686    2.64000010    1.98000002
   18.52472115   88.50219727    2.64000010    1.98000002
   18.52777672   79.56439972    2.64000010    1.98000002
   18.53111076   87.03350067    2.64000010    1.98000002
   18.53416634   79.19069672    2.64000010    1.98000002
   18.53750038   90.27619934    2.64000010    1.98000002
   18.54083252   89.89350128    2.64000010    1.98000002
   18.54388809   80.38339996    2.64000010    1.98000002
   18.54722214   96.04959869    2.64000010    1.98000002
   18.55027771   85.80239868    2.64000010    1.98000002
   18.55222130  114.51000214    2.64000010    1.98000002
   18.55416679   91.78500366    2.64000010    1.98000002
   18.55999947   91.78500366    2.64000010    1.98000002
   18.56416512   89.59259796    2.64000010    1.98000002
   18.56750107   95.93180084    2.64000010    1.98000002
   18.57055664   88.37570190    2.64000010    1.98000002
   18.57389069   90.93199921    2.64000010    1.98000002
   18.57694626   86.96620178    2.64000010    1.98000002
   18.58027840   82.41960144    2.64000010    1.98000002
   18.58361244   90.01460266    2.64000010    1.98000002
   18.58555603   88.62310028    2.64000010    1.98000002
   18.58722305   97.66639709    2.64000010    1.98000002
   18.59027863   91.51889801    2.64000010    1.98000002
   18.59361267  100.17199707    2.64000010    1.98000002
   18.59694481   90.81400299    2.64000010    1.98000002
   18.60277748   90.81400299    2.64000010    1.98000002
   18.60694504  104.11900330    2.64000010    1.98000002
   18.61027908   93.43869781    2.64000010    1.98000002
   18.61333466   86.42089844    2.64000010    1.98000002
   18.61666679  100.69899750    2.64000010    1.98000002
   18.61916733  102.60399628    2.64000010    1.98000002
   18.62027740  108.25499725    2.64000010    1.98000002
   18.62361145   95.53079987    2.64000010    1.98000002
   18.62694550  101.27200317    2.64000010    1.98000002
   18.63000107  107.36100006    2.64000010    1.98000002
   18.63333321   92.71990204    2.64000010    1.98000002
   18.63666725   85.92420197    2.64000010    1.98000002
   18.63972282   94.13040161    2.64000010    1.98000002
   18.64583397   94.13040161    2.64000010    1.98000002
   18.64999962   87.22139740    2.64000010    1.98000002
   18.65250015   87.62359619    2.64000010    1.98000002
   18.65361023   87.09829712    2.64000010    1.98000002
   18.65666580   91.91239929    2.64000010    1.98000002
   18.65999985  105.36100006    2.64000010    1.98000002
   18.66305542   90.04149628    2.64000010    1.98000002
   18.66638756   98.93879700    2.64000010    1.98000002
   18.66972160   95.72129822    2.64000010    1.98000002
   18.67277718   95.53919983    2.64000010    1.98000002
   18.67611122   82.31420135    2.64000010    1.98000002
   18.67916679  104.42199707    2.64000010    1.98000002
   18.68249893   92.19400024    2.64000010    1.98000002
   18.68861008   92.19400024    2.64000010    1.98000002
   18.69277763   92.74610138    2.64000010    1.98000002
   18.69583321  107.30300140    2.64000010    1.98000002
   18.69916534  102.83699799    2.64000010    1.98000002
   18.70250130  103.93399811    2.64000010    1.98000002
   18.70555687  116.44999695    2.64000010    1.98000002
   18.70888901  101.62200165    2.64000010    1.98000002
   18.71194458   96.23390198    2.64000010    1.98000002
   18.71527863   91.11949921    2.64000010    1.98000002
   18.71861076   94.40959930    2.64000010    1.98000002
   18.71944427  102.08599854    2.64000010    1.98000002
   18.72222328  105.46299744    2.64000010    1.98000002
   18.72527885   96.59660339    2.64000010    1.98000002
   18.73139000   96.59660339    2.64000010    1.98000002
   18.73555565   91.96970367    2.64000010    1.98000002
   18.73888969   99.17700195    2.64000010    1.98000002
   18.74194527   98.81060028    2.64000010    1.98000002
   18.74527740  104.23500061    2.64000010    1.98000002
   18.74861145   88.26170349    2.64000010    1.98000002
   18.75166702   88.64769745    2.64000010    1.98000002
   18.75277710   98.87840271    2.64000010    1.98000002
   18.75555611  101.37699890    2.64000010    1.98000002
   18.75861168   94.22840118    2.64000010    1.98000002
   18.76194382   78.84030151    2.64000010    1.98000002
   18.76527786   99.93029785    2.64000010    1.98000002
   18.76833344   85.67220306    2.64000010    1.98000002
   18.77416611   85.67220306    2.64000010    1.98000002
   18.77833366   88.68530273    2.64000010    1.98000002
   18.78166580   84.05529785    2.64000010    1.98000002
   18.78472137  103.62000275    2.64000010    1.98000002
   18.78638840  105.15599823    2.64000010    1.98000002
   18.78833199  102.26899719    2.64000010    1.98000002
   18.79166603  118.56400299    2.64000010    1.98000002
   18.79500008  131.75700378    2.64000010    1.98000002
   18.79805565  140.23199463    2.64000010    1.98000002
   18.80138779  168.05200195    2.64000010    1.98000002
   18.80472183  140.02900696    2.64000010    1.98000002
   18.80777740  132.92999268    2.64000010    1.98000002
   18.81110954  147.75999451    2.64000010    1.98000002
   18.81722260  147.75999451    2.64000010    1.98000002
   18.83555603  152.07299805    2.64000010    1.98000002
   18.83861160  149.30499268    2.64000010    1.98000002
   18.84194565  164.56399536    2.64000010    1.98000002
   18.84527779  171.36300659    2.64000010    1.98000002
   18.84833336  161.13200378    2.64000010    1.98000002
   18.85166740  170.50000000    2.64000010    1.98000002
   18.85499954  138.80299377    2.64000010    1.98000002
   18.86027908  138.80299377    2.64000010    1.98000002
   18.86444473  167.30900574    2.64000010    1.98000002
   18.86750031  143.67199707    2.64000010    1.98000002
   18.86861038  149.92399597    2.64000010    1.98000002
   18.87111092  138.72000122    2.64000010    1.98000002
   18.87444496  145.87600708    2.64000010    1.98000002
   18.87777710  129.54899597    2.64000010    1.98000002
   18.88083267  147.87600708    2.64000010    1.98000002
   18.88416672  136.30799866    2.64000010    1.98000002
   18.88750076  128.38999939    2.64000010    1.98000002
   18.89055634  147.19299316    2.64000010    1.98000002
   18.89388847  132.84300232    2.64000010    1.98000002
   18.89722252  127.92400360    2.64000010    1.98000002
   18.90305519  127.92400360    2.64000010    1.98000002
   18.90722275  149.66700745    2.64000010    1.98000002
   18.91055489  130.64500427    2.64000010    1.98000002
   18.91361046  136.02600098    2.64000010    1.98000002
   18.91694450  135.00100708    2.64000010    1.98000002
   18.92000008  131.71499634    2.64000010    1.98000002
   18.92333221  125.58000183    2.64000010    1.98000002
   18.92666626  123.17400360    2.64000010    1.98000002
   18.92972183  105.43199921    2.64000010    1.98000002
   18.93305397  117.68000031    2.64000010    1.98000002
   18.93527603  127.04499817    2.64000010    1.98000002
   18.93638802  102.62300110    2.64000010    1.98000002
   18.93972206   94.39289856    2.64000010    1.98000002
   18.94583321   94.39289856    2.64000010    1.98000002
   18.95000076  113.47399902    2.64000010    1.98000002
   18.95333481  111.07599640    2.64000010    1.98000002
   18.95666695  100.61599731    2.64000010    1.98000002
   18.95972252  109.95200348    2.64000010    1.98000002
   18.96305656   94.60759735    2.64000010    1.98000002
   18.96611214  110.12500000    2.64000010    1.98000002
   18.96861076   99.72530365    2.64000010    1.98000002
   18.96972275   86.55919647    2.64000010    1.98000002
   18.97305679  109.06600189    2.64000010    1.98000002
   18.97638893  104.69699860    2.64000010    1.98000002
   18.97944450  107.90799713    2.64000010    1.98000002
   18.98277855  101.00599670    2.64000010    1.98000002
   18.98888969  101.00599670    2.64000010    1.98000002
   18.99277878   96.29370117    2.64000010    1.98000002
   18.99611092   98.07230377    2.64000010    1.98000002
   18.99944496  106.80899811    2.64000010    1.98000002
   19.00194359   90.62599945    2.64000010    1.98000002
   19.00305557   97.45760345    2.64000010    1.98000002
   19.00611115  105.92400360    2.64000010    1.98000002
   19.00944519  106.33699799    2.64000010    1.98000002
   19.01250076   96.43270111    2.64000010    1.98000002
   19.01583290   97.80760193    2.64000010    1.98000002
   19.01916695   95.56670380    2.64000010    1.98000002
   19.02222252  104.42099762    2.64000010    1.98000002
   19.02555466  108.72299957    2.64000010    1.98000002
   19.03166580  108.72299957    2.64000010    1.98000002
   19.03583336  107.04199982    2.64000010    1.98000002
   19.03888893   92.26039886    2.64000010    1.98000002
   19.04222107   99.64479828    2.64000010    1.98000002
   19.04555511   88.16239929    2.64000010    1.98000002
   19.04861069   84.93350220    2.64000010    1.98000002
   19.05194283   95.81539917    2.64000010    1.98000002
   19.05499840  100.09999847    2.64000010    1.98000002
   19.05833244   98.98580170    2.64000010    1.98000002
   19.06166649  100.72000122    2.64000010    1.98000002
   19.06472206   99.34660339    2.64000010    1.98000002
   19.06805611   90.24909973    2.64000010    1.98000002
   19.06861115   93.54859924    2.64000010    1.98000002
   19.07444572   93.54859924    2.64000010    1.98000002
   19.07861137   97.54010010    2.64000010    1.98000002
   19.08166695   97.07700348    2.64000010    1.98000002
   19.08500099   98.60710144    2.64000010    1.98000002
   19.08833313   92.92140198    2.64000010    1.98000002
   19.09166718   85.41639709    2.64000010    1.98000002
   19.09472275   98.83999634    2.64000010    1.98000002
   19.09805679   96.26119995    2.64000010    1.98000002
   19.10111237  108.62000275    2.64000010    1.98000002
   19.10194397   97.14250183    2.64000010    1.98000002
   19.10499954   93.35299683    2.64000010    1.98000002
   19.10805511  100.15299988    2.64000010    1.98000002
   19.11138916   88.04290009    2.64000010    1.98000002
   19.11722183   88.04290009    2.64000010    1.98000002
   19.12138939   89.45980072    2.64000010    1.98000002
   19.12472153   97.90640259    2.64000010    1.98000002
   19.12777710   87.35359955    2.64000010    1.98000002
   19.13111115  101.47000122    2.64000010    1.98000002
   19.13444519   95.09980011    2.64000010    1.98000002
   19.13527679   87.69830322    2.64000010    1.98000002
   19.13805580   85.19419861    2.64000010    1.98000002
   19.14111137   85.36579895    2.64000010    1.98000002
   19.14444351   92.70809937    2.64000010    1.98000002
   19.14749908   81.00379944    2.64000010    1.98000002
   19.15083313   83.43859863    2.64000010    1.98000002
   19.15416718   84.90080261    2.64000010    1.98000002
   19.16027832   84.90080261    2.64000010    1.98000002
   19.16416550   92.01869965    2.64000010    1.98000002
   19.16749954   90.34269714    2.64000010    1.98000002
   19.16860962   83.58480072    2.64000010    1.98000002
   19.17111015   80.87449646    2.64000010    1.98000002
   19.17416573   90.02970123    2.64000010    1.98000002
   19.17749977   73.09799957    2.64000010    1.98000002
   19.18055534   78.77089691    2.64000010    1.98000002
   19.18388748   88.68350220    2.64000010    1.98000002
   19.18722153   89.30049896    2.64000010    1.98000002
   19.19027710   93.66739655    2.64000010    1.98000002
   19.19361115   85.93199921    2.64000010    1.98000002
   19.19694328   83.31469727    2.64000010    1.98000002
   19.20305634   83.31469727    2.64000010    1.98000002
   19.20722389   91.29460144    2.64000010    1.98000002
   19.21027946   94.61859894    2.64000010    1.98000002
   19.21361160   87.00920105    2.64000010    1.98000002
   19.21694565   93.08239746    2.64000010    1.98000002
   19.22000122   82.37640381    2.64000010    1.98000002
   19.22333336   86.04589844    2.64000010    1.98000002
   19.22638893   90.19640350    2.64000010    1.98000002
   19.22972298   84.56359863    2.64000010    1.98000002
   19.23305511   89.48940277    2.64000010    1.98000002
   19.23527718   89.40599823    2.64000010    1.98000002
   19.23666763   95.41310120    2.64000010    1.98000002
   19.23972321   90.76799774    2.64000010    1.98000002
   19.24583435   90.76799774    2.64000010    1.98000002
   19.25000000  102.34899902    2.64000010    1.98000002
   19.25333405  101.00900269    2.64000010    1.98000002
   19.25638962   97.03659821    2.64000010    1.98000002
   19.25972176   92.31020355    2.64000010    1.98000002
   19.26277733   95.82109833    2.64000010    1.98000002
   19.26611137  102.93099976    2.64000010    1.98000002
   19.26861000  101.58100128    2.64000010    1.98000002
   19.27000046   90.74629974    2.64000010    1.98000002
   19.27305603   88.31320190    2.64000010    1.98000002
   19.27638817   90.00129700    2.64000010    1.98000002
   19.27944374   93.47260284    2.64000010    1.98000002
   19.28277779   89.62529755    2.64000010    1.98000002
   19.28861046   89.62529755    2.64000010    1.98000002
   19.29277802   88.75689697    2.64000010    1.98000002
   19.29611015   84.45860291    2.64000010    1.98000002
   19.29916573   93.49549866    2.64000010    1.98000002
   19.30194283   96.95570374    2.64000010    1.98000002
   19.30305481   85.93750000    2.64000010    1.98000002
   19.30611038   99.10250092    2.64000010    1.98000002
   19.30944443   98.37860107    2.64000010    1.98000002
   19.31250000   97.74859619    2.64000010    1.98000002
   19.31583214  103.53700256    2.64000010    1.98000002
   19.31916809   94.33679962    2.64000010    1.98000002
   19.32222366   93.72769928    2.64000010    1.98000002
   19.32555580  101.77500153    2.64000010    1.98000002
   19.33166695  101.77500153    2.64000010    1.98000002
   19.33555603  102.37699890    2.64000010    1.98000002
   19.33889008  105.53600311    2.64000010    1.98000002
   19.34222221  116.74099731    2.64000010    1.98000002
   19.34527779   96.02799988    2.64000010    1.98000002
   19.34861183   90.36000061    2.64000010    1.98000002
   19.35194397  102.62799835    2.64000010    1.98000002
   19.35499954   79.25530243    2.64000010    1.98000002
   19.35833359   81.30449677    2.64000010    1.98000002
   19.36166763   83.12480164    2.64000010    1.98000002
   19.36472321   95.40899658    2.64000010    1.98000002
   19.36805534   93.59410095    2.64000010    1.98000002
   19.36861038   90.78330231    2.64000010    1.98000002
   19.37444496   90.78330231    2.64000010    1.98000002
   19.37861061   87.49749756    2.64000010    1.98000002
   19.38166618  107.08699799    2.64000010    1.98000002
   19.38500023   89.19360352    2.64000010    1.98000002
   19.38805580   84.03330231    2.64000010    1.98000002
   19.39138794   87.48280334    2.64000010    1.98000002
   19.39472198   79.14299774    2.64000010    1.98000002
   19.39777756   85.68240356    2.64000010    1.98000002
   19.40111160   85.44049835    2.64000010    1.98000002
   19.40194321   89.32659912    2.64000010    1.98000002
   19.40472221  107.92900085    2.64000010    1.98000002
   19.40777779  106.37999725    2.64000010    1.98000002
   19.41110992   97.48429871    2.64000010    1.98000002
   19.41722107   97.48429871    2.64000010    1.98000002
   19.42138863   95.03730011    2.64000010    1.98000002
   19.42444420   97.96759796    2.64000010    1.98000002
   19.42777634   85.39830017    2.64000010    1.98000002
   19.43111038   88.92729950    2.64000010    1.98000002
   19.43416595   85.71549988    2.64000010    1.98000002
   19.43527603   91.80719757    2.64000010    1.98000002
   19.43805504   91.78289795    2.64000010    1.98000002
   19.44111061  106.48200226    2.64000010    1.98000002
   19.44444275  110.30400085    2.64000010    1.98000002
   19.44777679   91.69930267    2.64000010    1.98000002
   19.45083427   95.06169891    2.64000010    1.98000002
   19.45416832   80.88749695    2.64000010    1.98000002
   19.46000099   80.88749695    2.64000010    1.98000002
   19.46416664   92.92520142    2.64000010    1.98000002
   19.46750069   90.86440277    2.64000010    1.98000002
   19.46861076   93.27349854    2.64000010    1.98000002
   19.47111130   86.27320099    2.64000010    1.98000002
   19.47416687   97.77459717    2.64000010    1.98000002
   19.47750092   87.05840302    2.64000010    1.98000002
   19.48083305   89.83229828    2.64000010    1.98000002
   19.48388863   82.33550262    2.64000010    1.98000002
   19.48722267   82.40740204    2.64000010    1.98000002
   19.49027824   84.15270233    2.64000010    1.98000002
   19.49361229   89.00910187    2.64000010    1.98000002
   19.49694443   84.82589722    2.64000010    1.98000002
   19.50277710   84.82589722    2.64000010    1.98000002
   19.50694466   96.57430267    2.64000010    1.98000002
   19.51027870  106.83999634    2.64000010    1.98000002
   19.51361084   91.86630249    2.64000010    1.98000002
   19.51666641   93.52909851    2.64000010    1.98000002
   19.52000046   90.92849731    2.64000010    1.98000002
   19.52305603   90.52410126    2.64000010    1.98000002
   19.52638817  100.10700226    2.64000010    1.98000002
   19.52972221   93.86879730    2.64000010    1.98000002
   19.53277779   91.80909729    2.64000010    1.98000002
   19.53527641  104.70300293    2.64000010    1.98000002
   19.53666687   89.49389648    2.64000010    1.98000002
   19.53972244   92.80609894    2.64000010    1.98000002
   19.54583359   92.80609894    2.64000010    1.98000002
   19.54999924   83.52320099    2.64000010    1.98000002
   19.55305481   94.05000305    2.64000010    1.98000002
   19.55638885   88.54550171    2.64000010    1.98000002
   19.55944443   86.24829865    2.64000010    1.98000002
   19.56277657   86.16680145    2.64000010    1.98000002
   19.56611061   89.97540283    2.64000010    1.98000002
   19.56861115   94.34079742    2.64000010    1.98000002
   19.56972313   88.66280365    2.64000010    1.98000002
   19.57277870   86.10030365    2.64000010    1.98000002
   19.57611275   99.48169708    2.64000010    1.98000002
   19.57944489  100.19100189    2.64000010    1.98000002
   19.58250046   89.08930206    2.64000010    1.98000002
   19.58861160   89.08930206    2.64000010    1.98000002
   19.59277916   98.10089874    2.64000010    1.98000002
   19.59583473   96.44390106    2.64000010    1.98000002
   19.59916687   88.44349670    2.64000010    1.98000002
   19.60194397   93.36669922    2.64000010    1.98000002
   19.60277748   87.08830261    2.64000010    1.98000002
   19.60583305   83.63610077    2.64000010    1.98000002
   19.60916710   99.25460052    2.64000010    1.98000002
   19.61250114   91.50530243    2.64000010    1.98000002
   19.61555672   83.94760132    2.64000010    1.98000002
   19.61888885  101.72899628    2.64000010    1.98000002
   19.62194443   90.67469788    2.64000010    1.98000002
   19.62527847   81.31999969    2.64000010    1.98000002
   19.63138962   81.31999969    2.64000010    1.98000002
   19.63555527  100.77600098    2.64000010    1.98000002
   19.63888931   92.46060181    2.64000010    1.98000002
   19.64194489   84.78410339    2.64000010    1.98000002
   19.64527702   98.81259918    2.64000010    1.98000002
   19.64861107   99.69760132    2.64000010    1.98000002
   19.65166664   89.82420349    2.64000010    1.98000002
   19.65499878   94.19750214    2.64000010    1.98000002
   19.65833282   97.74610138    2.64000010    1.98000002
   19.66138840  101.80999756    2.64000010    1.98000002
   19.66472244   88.32170105    2.64000010    1.98000002
   19.66777802   91.67749786    2.64000010    1.98000002
   19.66860962   83.46510315    2.64000010    1.98000002
   19.67444420   83.46510315    2.64000010    1.98000002
   19.67833328   87.95600128    2.64000010    1.98000002
   19.68166542   86.61889648    2.64000010    1.98000002
   19.68499947   88.25650024    2.64000010    1.98000002
   19.68805504   81.01979828    2.64000010    1.98000002
   19.69138718   92.83039856    2.64000010    1.98000002
   19.69472122   89.30210114    2.64000010    1.98000002
   19.69777679   89.71320343    2.64000010    1.98000002
   19.70111275   83.99569702    2.64000010    1.98000002
   19.70194435   92.27059937    2.64000010    1.98000002
   19.70472336   84.49790192    2.64000010    1.98000002
   19.70777893   90.56849670    2.64000010    1.98000002
   19.71111107   87.97489929    2.64000010    1.98000002
   19.71722221   87.97489929    2.64000010    1.98000002
   19.72138977   90.93869781    2.64000010    1.98000002
   19.72444534   93.46949768    2.64000010    1.98000002
   19.72777748   88.01470184    2.64000010    1.98000002
   19.73111153   90.42089844    2.64000010    1.98000002
   19.73444557   85.46089935    2.64000010    1.98000002
   19.73527718   88.37809753    2.64000010    1.98000002
   19.73805618  101.14600372    2.64000010    1.98000002
   19.74111176   89.39569855    2.64000010    1.98000002
   19.74444389   90.52059937    2.64000010    1.98000002
   19.74777794   96.95549774    2.64000010    1.98000002
   19.75083351   89.50129700    2.64000010    1.98000002
   19.75416756   79.00140381    2.64000010    1.98000002
   19.76000023   79.00140381    2.64000010    1.98000002
   19.76416588   -1.00000000    2.64000010    1.98000002
   19.76805496   -1.00000000    2.64000010    1.98000002
   19.77166557  255.38800049    2.64000010    1.98000002
   19.77472115  188.08900452    2.64000010    1.98000002
   19.77805519  155.67799377    2.64000010    1.98000002
   19.78111076  200.80999756    2.64000010    1.98000002
   19.78444481  243.43400574    2.64000010    1.98000002
   19.78777695  233.95399475    2.64000010    1.98000002
   19.79083252   78.32440186    2.64000010    1.98000002
   19.79416656   -1.00000000    2.64000010    1.98000002
   19.79749870   83.40000153    2.64000010    1.98000002
   19.80277634   83.40000153    2.64000010    1.98000002
   19.80694389   96.42919922    2.64000010    1.98000002
   19.81027794  128.72999573    2.64000010    1.98000002
   19.81333351  131.39999390    2.64000010    1.98000002
   19.81666756  158.64100647    2.64000010    1.98000002
   19.82000160  211.54800415    2.64000010    1.98000002
   19.82305717  158.29800415    2.64000010    1.98000002
   19.82638931  188.16799927    2.64000010    1.98000002
   19.82972336  188.87899780    2.64000010    1.98000002
   19.83277893  227.55000305    2.64000010    1.98000002
   19.83527756  221.61000061    2.64000010    1.98000002
   19.86000061   -1.00000000    2.64000010    1.98000002
