    HOUR (UT)   FLARE FACTOR    SKY TESTER    SUN TESTER
   11.64583302   -1.00000000   -1.00000000   -1.00000000
   11.67472267  202.97300720    0.67000002    0.94000000
   11.67805576  193.49899292    0.67000002    0.94000000
   11.68111134  207.62399292    0.67000002    0.94000000
   11.68444443  186.37100220    0.69000000    0.94000000
   11.68777752  201.25100708    0.67000002    0.94000000
   11.69083309  192.99400330    0.67000002    0.94000000
   11.69499969  192.99400330    0.67000002    0.94000000
   11.69916630  190.46400452    0.67000002    0.94000000
   11.70249939  180.36199951    0.67000002    0.94000000
   11.70555496  177.73300171    0.67000002    0.94000000
   11.70805550  191.22599792    0.67000002    0.94000000
   11.70944405  186.96499634    0.67000002    0.94000000
   11.71249962  185.42599487    0.67000002    0.94000000
   11.71583271  207.04800415    0.67000002    0.94000000
   11.71888828  201.78500366    0.67000002    0.94000000
   11.72222137  175.63999939    0.67000002    0.94000000
   11.72555542  200.01100159    0.67000002    0.94000000
   11.72861099  185.80700684    0.67000002    0.94000000
   11.73194408  178.56700134    0.64999998    0.94000000
   11.73777771  178.56700134    0.67000002    0.94000000
   11.74194431  175.65100098    0.64999998    0.94000000
   11.74527836  165.88200378    0.64999998    0.94000000
   11.74833393  162.52799988    0.64999998    0.94000000
   11.75166702  198.63900757    0.64999998    0.94000000
   11.75500011  186.49499512    0.64999998    0.94000000
   11.75805569  182.29299927    0.64999998    0.94000000
   11.76138878  202.29800415    4.90999985    2.73000002
   11.76472187  199.01100159    4.90999985    2.73000002
   11.76777744  178.63999939    4.90999985    2.67000008
   11.77111053  202.39599609    3.30999994    2.64000010
   11.77416611  189.13800049    3.28999996    2.66000009
   11.77472210  172.61099243    3.30999994    2.66000009
   11.78083324  172.61099243    3.28999996    2.64000010
   11.78472233  185.95199585    3.30999994    2.66000009
   11.78805637  207.26400757    3.28999996    2.66000009
   11.79138947  194.95599365    3.28999996    2.66000009
   11.79444504  200.83999634    3.28999996    2.66000009
   11.79777813  194.00199890    3.28999996    2.66000009
   11.80111122  187.51899719    3.28999996    2.66000009
   11.80416679  193.33900452    3.28999996    2.66000009
   11.80749989  200.97200012    3.28999996    2.66000009
   11.80805588  177.58500671    3.26999998    2.67000008
   11.81111145  177.83500671    3.28999996    2.66000009
   11.81444454  174.03900146    3.28999996    2.66000009
   11.81750011  197.89199829    3.28999996    2.66000009
   11.82361126  197.89199829    3.28999996    2.66000009
   11.82777786  176.55000305    3.20000005    2.66000009
   11.83111095  203.30700684    3.20000005    2.66000009
   11.83416653  230.87399292    3.20000005    2.66000009
   11.83749962  202.73399353    3.20000005    2.66000009
   11.84055519  193.02699280    3.20000005    2.67000008
   11.84138870  183.38000488    3.20000005    2.67000008
   11.84416676  193.10400391    3.20000005    2.64000010
   11.84749985  196.25700378    3.21000004    2.67000008
   11.85055637  180.30000305    3.21000004    2.66000009
   11.85388947  192.39399719    3.20000005    2.66000009
   11.85722256  193.58200073    3.20000005    2.66000009
   11.86027813  212.91400146    3.20000005    2.66000009
   11.86638927  212.91400146    3.18000007    2.66000009
   11.87055588  195.14999390    3.18000007    2.66000009
   11.87388897  183.44999695    3.16000009    2.67000008
   11.87472248  214.86700439    3.16000009    2.67000008
   11.87750053  215.06199646    3.16000009    2.67000008
   11.88083363  190.90600586    3.16000009    2.66000009
   11.88388920  202.68299866    3.16000009    2.67000008
   11.88722229  194.70899963    3.16000009    2.66000009
   11.89055538  191.07699585    3.16000009    2.67000008
   11.89361095  207.04200745    3.16000009    2.67000008
   11.89694405  189.89300537    3.16000009    2.67000008
   11.89999962  182.66200256    3.16000009    2.66000009
   11.90333271  190.68200684    3.16000009    2.66000009
   11.90916634  190.68200684    3.14000010    2.67000008
   11.91333294  181.39100647    3.14000010    2.67000008
   11.91666698  188.41700745    3.14000010    2.67000008
   11.91972256  207.97099304    3.16000009    2.66000009
   11.92305565  204.02299500    3.16000009    2.67000008
   11.92638874  199.72999573    3.14000010    2.67000008
   11.92944431  182.40499878    3.14000010    2.66000009
   11.93277836  183.27499390    3.14000010    2.67000008
   11.93611145  171.69500732    3.14000010    2.67000008
   11.93916702  187.31599426    3.14000010    2.67000008
   11.94138908  194.06599426    3.14000010    2.67000008
   11.94277763  172.53700256    3.14000010    2.67000008
   11.94611073  183.23300171    3.11999989    2.67000008
   11.95222187  183.23300171    3.11999989    2.67000008
   11.95611095  180.55799866    3.16000009    2.69000006
   11.95944405  176.89599609    3.20000005    2.67000008
   11.96277714  179.16600037    3.21000004    2.67000008
   11.96583271  173.77900696    3.25000000    2.67000008
   11.96916580  176.24699402    3.36999989    2.67000008
   11.97249985  178.94299316    3.45000005    2.67000008
   11.97472191  194.22200012    3.51999998    2.67000008
   11.97611046  195.19599915    3.57999992    2.67000008
   11.97944355  185.38600159    3.99000001    2.69000006
   11.98249912  194.44299316    4.32999992    2.67000008
   11.98583317  188.77999878    4.34999990    2.66000009
   11.98916721  185.58599854    4.32999992    2.64000010
   11.99499989  185.58599854    3.34999990    2.69000006
   11.99916649  175.30200195    3.01999998    2.69000006
   12.00222206  182.97599792    3.01999998    2.66000009
   12.00555515  172.22599792    3.01999998    2.69000006
   12.00805569  176.42300415    3.01999998    2.69000006
   12.00916672  168.46200562    3.01999998    2.69000006
   12.01249981  174.02099609    3.01999998    2.67000008
   12.01555538  209.19799805    3.01999998    2.71000004
   12.01888847  182.55299377    3.01999998    2.69000006
   12.02222157  160.35400391    3.00000000    2.71000004
   12.02527714  184.34199524    3.00000000    2.69000006
   12.02861118  163.02400208    3.00000000    2.69000006
   12.03166676  171.41900635    3.00000000    2.69000006
   12.03777790  171.41900635    2.98000002    2.69000006
   12.04194450  183.73399353    3.00000000    2.69000006
   12.04527855  176.92199707    2.98000002    2.69000006
   12.04833412  203.56300354    2.98000002    2.69000006
   12.05166721  183.37199402    2.96000004    2.69000006
   12.05472279  189.55200195    2.96000004    2.71000004
   12.05805588  186.68099976    2.96000004    2.71000004
   12.06138897  175.82400513    2.96000004    2.69000006
   12.06444454  168.59700012    2.94000006    2.69000006
   12.06777763  171.27900696    2.94000006    2.69000006
   12.07111073  175.30900574    2.94000006    2.69000006
   12.07416630  170.94799805    2.93000007    2.71000004
   12.07499981  166.06900024    2.93000007    2.69000006
   12.08055592  166.06900024    2.91000009    2.69000006
   12.08472157  171.38900757    2.91000009    2.69000006
   12.08805561  174.52400208    2.91000009    2.71000004
   12.09111118  177.30400085    2.91000009    2.71000004
   12.09444427  163.66299438    2.91000009    2.69000006
   12.09777737  175.10800171    2.89000010    2.69000006
   12.10083389  163.47000122    2.89000010    2.69000006
   12.10416698  161.63000488    2.86999989    2.69000006
   12.10750008  182.24400330    2.86999989    2.69000006
   12.10833359  169.10800171    2.86999989    2.69000006
   12.11083412  187.41799927    2.86999989    2.71000004
   12.11416721  166.88600159    2.84999990    2.69000006
   12.11722279  165.67300415    2.84999990    2.71000004
   12.12361145  165.67300415    2.84999990    2.71000004
   12.12750053  175.97799683    2.84999990    2.71000004
   12.13083363  172.08399963    2.84999990    2.71000004
   12.13416672  167.92300415    2.84999990    2.71000004
   12.13722229  173.03700256    2.86999989    2.69000006
   12.14055538  181.86599731    2.86999989    2.69000006
   12.14166641  163.72099304    2.86999989    2.71000004
   12.14416695  171.76499939    2.86999989    2.71000004
   12.14750004  161.55799866    2.84999990    2.71000004
   12.15055561  169.96099854    2.84999990    2.71000004
   12.15388870  175.99400330    2.84999990    2.71000004
   12.15722179  161.71899414    2.84999990    2.71000004
   12.16027737  188.75399780    2.84999990    2.71000004
   12.16638851  188.75399780    2.84999990    2.71000004
   12.17055607  160.46099854    2.84999990    2.71000004
   12.17361164  173.95899963    2.84999990    2.73000002
   12.17500019  185.04899597    2.82999992    2.71000004
   12.17722225  195.75500488    2.82999992    2.73000002
   12.18055630  188.37199402    2.80999994    2.71000004
   12.18361092  167.20899963    2.80999994    2.71000004
   12.18694496  180.83700562    2.78999996    2.71000004
   12.19027805  179.02600098    2.78999996    2.71000004
   12.19333363  175.05799866    2.78999996    2.73000002
   12.19666672  160.05999756    2.76999998    2.71000004
   12.19999981  197.36900330    2.76999998    2.71000004
   12.20305538  169.88999939    2.76999998    2.71000004
   12.20916653  169.88999939    2.76999998    2.73000002
   12.21333313  168.99200439    2.76999998    2.71000004
   12.21666622  166.39799500    2.78999996    2.71000004
   12.21972179  190.08099365    2.76999998    2.73000002
   12.22305489  183.99600220    2.76999998    2.73000002
   12.22611046  178.83500671    2.76999998    2.73000002
   12.22944355  161.03900146    2.75000000    2.73000002
   12.23277760  185.39500427    2.75000000    2.71000004
   12.23583317  185.51100159    2.75000000    2.73000002
   12.23916721  147.17799377    2.73000002    2.71000004
   12.24166679  153.87699890    2.75000000    2.73000002
   12.24277782  175.78300476    2.75000000    2.73000002
   12.24611092  160.86500549    2.73000002    2.73000002
   12.25194454  160.86500549    2.73000002    2.71000004
   12.25611115  178.30400085    2.71000004    2.73000002
   12.25944424  189.52900696    2.71000004    2.73000002
   12.26249981  182.01899719    2.71000004    2.73000002
   12.26583290  165.76100159    2.71000004    2.73000002
   12.26916599  175.64100647    2.71000004    2.73000002
   12.27250004  196.73800659    2.73000002    2.73000002
   12.27499962  161.04100037    2.73000002    2.73000002
   12.27583313  208.82099915    2.73000002    2.73000002
   12.27916622  171.74800110    2.71000004    2.73000002
   12.28222179  195.53999329    2.73000002    2.73000002
   12.28555584  190.02499390    2.73000002    2.73000002
   12.28888893  182.66099548    2.73000002    2.73000002
   12.29500008  182.66099548    2.73000002    2.73000002
   12.29888916  207.41400146    2.75000000    2.75000000
   12.30222225  198.91700745    2.75000000    2.75000000
   12.30555534  214.05400085    2.75000000    2.73000002
   12.30833340  213.81599426    2.75000000    2.73000002
   12.30916691  202.35899353    2.75000000    2.75000000
   12.31250000  194.83799744    2.75000000    2.73000002
   12.31555557  215.07099915    2.75000000    2.73000002
   12.31888866  212.33599854    2.75000000    2.73000002
   12.32222176  220.58399963    2.73000002    2.73000002
   12.32527733  210.29499817    2.73000002    2.73000002
   12.32861137  257.72100830    2.73000002    2.75000000
   12.33194447  197.88900757    2.73000002    2.75000000
   12.33777714  197.88900757    2.71000004    2.75000000
   12.34194374  239.89999390    2.71000004    2.73000002
   12.34499931  234.49499512    2.71000004    2.75000000
   12.34833336  259.79199219    2.71000004    2.73000002
   12.35166740  226.46699524    2.71000004    2.73000002
   12.35472298  191.60099792    2.71000004    2.75000000
   12.35805607  212.83900452    2.69000006    2.73000002
   12.36111164  229.43299866    2.69000006    2.73000002
   12.36444473  229.31900024    2.69000006    2.73000002
   12.36777782  252.22599792    2.69000006    2.75000000
   12.37083340  232.74699402    2.69000006    2.75000000
   12.37416649  260.79199219    2.69000006    2.75000000
   12.37500000  240.57800293    2.69000006    2.75000000
   12.38055611  240.57800293    2.67000008    2.75000000
   12.38472176  250.13499451    2.67000008    2.75000000
   12.38805580  240.53900146    2.67000008    2.75000000
   12.39111137  229.88600159    2.67000008    2.75000000
   12.39444447  274.98599243    2.67000008    2.75000000
   12.39750004  261.94799805    2.69000006    2.75000000
   12.40083313  256.30398560    2.67000008    2.75000000
   12.40416622  233.38000488    2.67000008    2.75000000
   12.40722179  258.77499390    2.67000008    2.73000002
   12.40833282  266.92700195    2.67000008    2.75000000
   12.41083336  243.14700317    2.67000008    2.75000000
   12.41416645  228.14700317    2.69000006    2.75000000
   12.41750050  257.14999390    2.71000004    2.75000000
   12.42333412  257.14999390    2.69000006    2.75000000
   12.42750072  270.04299927    2.71000004    2.75000000
   12.43083382  263.44198608    2.71000004    2.73000002
   12.43388939  253.09300232    2.71000004    2.75000000
   12.43722248  274.88000488    2.71000004    2.75000000
   12.44055557  260.49899292    2.71000004    2.75000000
   12.44166660  252.93299866    2.71000004    2.75000000
   12.44388866  259.34100342    2.71000004    2.75000000
   12.44722271  255.12300110    2.67000008    2.75000000
   12.45055580  263.17401123    2.67000008    2.75000000
   12.45361137  267.02600098    2.67000008    2.75000000
   12.45694447  250.97900391    2.66000009    2.75000000
   12.46000004  344.26300049    2.66000009    2.75000000
   12.46222210  262.54400635    2.66000009    2.75000000
   12.46333313  272.67599487    2.66000009    2.76999998
   12.46472168  282.54901123    2.66000009    2.73000002
   12.46611118  259.40399170    2.66000009    2.75000000
   12.46749973  264.45901489    2.66000009    2.75000000
   12.46888828  299.95901489    2.64000010    2.75000000
   12.47027779  285.21301270    2.64000010    2.75000000
   12.47166634  309.37298584    2.64000010    2.76999998
   12.47305489  252.04899597    2.64000010    2.75000000
   12.47444439  252.19099426    2.64000010    2.76999998
   12.47583294  289.76098633    2.61999989    2.76999998
   12.47722149  256.19400024    2.64000010    2.75000000
   12.47861099  318.45700073    2.61999989    2.75000000
   12.47999954  267.59100342    2.64000010    2.75000000
   12.48138809  296.97799683    2.61999989    2.75000000
   12.48277760  253.89300537    2.59999990    2.75000000
   12.48416710  282.65600586    2.61999989    2.75000000
   12.48555565  269.72500610    2.59999990    2.75000000
   12.48694515  304.98599243    2.59999990    2.76999998
   12.48833370  289.36599731    2.59999990    2.75000000
   12.48972225  325.40399170    2.59999990    2.75000000
   12.49111176  318.84899902    2.59999990    2.76999998
   12.49250031  295.80200195    2.59999990    2.75000000
   12.49388885  270.90200806    2.59999990    2.76999998
   12.49527836  300.69799805    2.59999990    2.76999998
   12.49666691  267.80899048    2.59999990    2.75000000
   12.49805546  261.23901367    2.59999990    2.75000000
   12.49944496  258.92098999    2.59999990    2.76999998
   12.50083351  278.93798828    2.59999990    2.76999998
   12.50222206  301.58599854    2.59999990    2.76999998
   12.50361156  252.87100220    2.59999990    2.75000000
   12.50500011  270.04998779    2.59999990    2.75000000
   12.50638866  250.92300415    2.59999990    2.75000000
   12.50777817  271.50299072    2.59999990    2.75000000
   12.50916672  246.01699829    2.61999989    2.75000000
   12.50944424  255.12300110    2.67000008    2.75000000
   12.50944424  263.17401123    2.67000008    2.75000000
   12.50944424  267.02600098    2.67000008    2.75000000
   12.50972176  250.97900391    2.66000009    2.75000000
   12.50972176  344.26300049    2.66000009    2.75000000
   12.51000023  253.09300232    2.71000004    2.75000000
   12.51000023  274.88000488    2.71000004    2.75000000
   12.51000023  260.49899292    2.71000004    2.75000000
   12.51027775  259.34100342    2.71000004    2.75000000
   12.51083374  266.21200562    2.61999989    2.75000000
   12.51388931  265.63598633    2.64000010    2.75000000
   12.51722240  279.83401489    2.64000010    2.78999996
   12.52027798  289.15200806    2.64000010    2.76999998
   12.52361107  298.90499878    2.64000010    2.76999998
   12.52999973  298.90499878    2.64000010    2.76999998
   12.53416729  284.30801392    2.61999989    2.75000000
   12.53750038  285.85800171    2.61999989    2.75000000
   12.54055595  300.35501099    2.59999990    2.78999996
   12.54277802  285.37200928    2.59999990    2.76999998
   12.54388905  292.85000610    2.57999992    2.76999998
   12.54527855  276.67498779    2.57999992    2.75000000
   12.54666710  273.82000732    2.57999992    2.76999998
   12.54805565  259.74700928    2.55999994    2.78999996
   12.54944515  267.16598511    2.55999994    2.76999998
   12.55083370  284.94900513    2.55999994    2.76999998
   12.55222225  274.33700562    2.53999996    2.75000000
   12.55361176  288.68499756    2.53999996    2.78999996
   12.55500031  238.50000000    2.51999998    2.76999998
   12.55527782  266.21200562    2.61999989    2.75000000
   12.55527782  265.63598633    2.64000010    2.75000000
   12.55527782  279.83401489    2.64000010    2.78999996
   12.55555534  289.15200806    2.64000010    2.76999998
   12.55555534  298.90499878    2.64000010    2.76999998
   12.55555534  284.30801392    2.61999989    2.75000000
   12.55583382  285.85800171    2.61999989    2.75000000
   12.55583382  300.35501099    2.59999990    2.78999996
   12.55638885  302.33801270    2.51999998    2.76999998
   12.55861092  280.48999023    2.50000000    2.76999998
   12.55972195  265.53799438    2.50000000    2.76999998
   12.56111145  246.36599731    2.50000000    2.76999998
   12.56138897  302.33801270    2.51999998    2.76999998
   12.56194496  273.79299927    2.50000000    2.75000000
   12.56500053  292.28201294    2.50000000    2.76999998
   12.56833363  318.65499878    2.50000000    2.76999998
   12.57027817  252.83000183    2.50000000    2.76999998
   12.57166672  281.00698853    2.50000000    2.75000000
   12.57305527  237.74600220    2.50000000    2.76999998
   12.57305527  273.79299927    2.50000000    2.75000000
   12.57333374  292.28201294    2.50000000    2.76999998
   12.57333374  318.65499878    2.50000000    2.76999998
   12.57388878  259.20901489    2.50000000    2.76999998
   12.57694435  268.38299561    2.53999996    2.76999998
   12.58027744  301.73498535    2.55999994    2.75000000
   12.58222198  288.82901001    2.59999990    2.76999998
   12.58361053  294.70401001    2.59999990    2.78999996
   12.58500004  265.35400391    2.61999989    2.76999998
   12.58638859  321.47299194    2.61999989    2.76999998
   12.58777714  298.72900391    2.64000010    2.78999996
   12.58916664  300.81298828    2.66000009    2.76999998
   12.59055519  286.01300049    2.66000009    2.78999996
   12.59194374  267.78298950    2.67000008    2.75000000
   12.59333324  265.83599854    2.66000009    2.76999998
   12.59472179  300.45199585    2.66000009    2.76999998
   12.59611034  311.81100464    2.67000008    2.76999998
   12.59749985  312.59899902    2.67000008    2.76999998
   12.59888840  294.67999268    2.67000008    2.75000000
   12.60027790  300.26400757    2.67000008    2.78999996
   12.60166740  310.61499023    2.67000008    2.76999998
   12.60305595  326.87399292    2.67000008    2.76999998
   12.60444450  285.84698486    2.67000008    2.76999998
   12.60583401  299.27999878    2.67000008    2.76999998
   12.60722256  271.97299194    2.67000008    2.78999996
   12.60861111  281.13198853    2.69000006    2.76999998
   12.61000061  294.12701416    2.71000004    2.76999998
   12.61138916  232.19400024    2.71000004    2.78999996
   12.61138916  259.20901489    2.50000000    2.76999998
   12.61166668  268.38299561    2.53999996    2.76999998
   12.61166668  301.73498535    2.55999994    2.75000000
   12.61222267  284.28900146    2.71000004    2.76999998
   12.61555576  282.64401245    2.71000004    2.76999998
   12.61861134  252.02900696    2.69000006    2.75000000
   12.62194443  256.86999512    2.69000006    2.78999996
   12.62527752  289.65200806    2.69000006    2.78999996
   12.62833309  283.40499878    2.69000006    2.76999998
   12.63249969  283.40499878    2.69000006    2.76999998
   12.63666630  319.35198975    2.67000008    2.76999998
   12.63861084  288.22698975    2.67000008    2.76999998
   12.64000034  290.91101074    2.67000008    2.76999998
   12.64138889  313.00900269    2.67000008    2.76999998
   12.64277744  306.60900879    2.69000006    2.76999998
   12.64416695  265.77600098    2.67000008    2.76999998
   12.64555550  274.92001343    2.67000008    2.78999996
   12.64694405  298.91699219    2.67000008    2.76999998
   12.64833355  286.08499146    2.67000008    2.76999998
   12.64972210  257.86599731    2.69000006    2.76999998
   12.65111065  264.07501221    2.67000008    2.78999996
   12.65249920  301.70001221    2.67000008    2.78999996
   12.65388870  300.01300049    2.67000008    2.78999996
   12.65527725  273.02899170    2.67000008    2.78999996
   12.65666676  196.93600464    2.67000008    2.78999996
   12.65666676  284.28900146    2.71000004    2.76999998
   12.65694427  282.64401245    2.71000004    2.76999998
   12.65694427  252.02900696    2.69000006    2.75000000
   12.65694427  256.86999512    2.69000006    2.78999996
   12.65722179  289.65200806    2.69000006    2.78999996
   12.65722179  283.40499878    2.69000006    2.76999998
   12.65722179  319.35198975    2.67000008    2.76999998
   12.65777779  278.20599365    2.67000008    2.76999998
   12.66111088  255.48599243    2.64000010    2.76999998
   12.66444397  320.65399170    2.61999989    2.76999998
   12.66638851  291.88598633    2.61999989    2.76999998
   12.66777802  312.27099609    2.59999990    2.78999996
   12.66888905  263.13101196    2.59999990    2.78999996
   12.67027855  269.86700439    2.59999990    2.76999998
   12.67166710  284.70300293    2.57999992    2.78999996
   12.67305565  291.07199097    2.57999992    2.78999996
   12.67444515  292.28900146    2.55999994    2.78999996
   12.67583370  298.12100220    2.55999994    2.78999996
   12.67722225  271.98098755    2.53999996    2.76999998
   12.67861176  281.54998779    2.51999998    2.76999998
   12.68000031  281.25000000    2.51999998    2.78999996
   12.68138885  308.21899414    2.51999998    2.76999998
   12.68305588  316.11599731    2.50000000    2.76999998
   12.68416691  279.70800781    2.50000000    2.78999996
   12.68555546  280.88198853    2.48000002    2.78999996
   12.68722248  320.96301270    2.48000002    2.78999996
   12.68833351  274.29501343    2.46000004    2.78999996
   12.69000053  290.55499268    2.46000004    2.78999996
   12.69138908  314.74700928    2.46000004    2.78999996
   12.69277763  288.33898926    2.44000006    2.78999996
   12.69388866  301.34899902    2.44000006    2.78999996
   12.69527817  229.62600708    2.44000006    2.78999996
   12.69555569  278.20599365    2.67000008    2.76999998
   12.69555569  255.48599243    2.64000010    2.76999998
   12.69583321  320.65399170    2.61999989    2.76999998
   12.69638920  228.40100098    2.44000006    2.76999998
   12.69944477  262.70098877    2.44000006    2.78999996
   12.70277786  293.72100830    2.46000004    2.76999998
   12.70583344  284.48800659    2.46000004    2.76999998
   12.70916653  289.19400024    2.46000004    2.76999998
   12.71249962  311.22900391    2.48000002    2.76999998
   12.71444416  299.74200439    2.48000002    2.76999998
   12.71583271  280.82598877    2.48000002    2.78999996
   12.71722221  305.19699097    2.48000002    2.76999998
   12.71861076  258.46701050    2.48000002    2.78999996
   12.71999931  242.27699280    2.50000000    2.76999998
   12.71999931  228.40100098    2.44000006    2.76999998
   12.71999931  262.70098877    2.44000006    2.78999996
   12.72027779  293.72100830    2.46000004    2.76999998
   12.72027779  284.48800659    2.46000004    2.76999998
   12.72027779  289.19400024    2.46000004    2.76999998
   12.72055531  311.22900391    2.48000002    2.76999998
   12.72111034  304.29098511    2.50000000    2.78999996
   12.72305489  253.48699951    2.51999998    2.76999998
   12.72444439  292.55099487    2.51999998    2.76999998
   12.72583294  289.24899292    2.53999996    2.78999996
   12.72722149  320.95001221    2.53999996    2.76999998
   12.72861099  275.49499512    2.53999996    2.78999996
   12.72999954  308.17401123    2.55999994    2.78999996
   12.73138809  226.96299744    2.55999994    2.76999998
   12.73138809  304.29098511    2.50000000    2.78999996
   12.73194408  247.16299438    2.55999994    2.76999998
   12.73527813  315.29000854    2.55999994    2.78999996
   12.73722267  247.82099915    2.53999996    2.76999998
   12.73722267  247.16299438    2.55999994    2.76999998
   12.73750019  315.29000854    2.55999994    2.78999996
   12.73944473  290.21600342    2.53999996    2.76999998
   12.74250031  286.41799927    2.53999996    2.78999996
   12.74583340  231.52999878    2.51999998    2.78999996
   12.74916649  242.69700623    2.48000002    2.78999996
   12.75222206  269.81600952    2.48000002    2.80999994
   12.75805569  269.81600952    2.46000004    2.78999996
   12.76222229  300.58700562    2.50000000    2.78999996
   12.76416683  317.35699463    2.51999998    2.78999996
   12.76555538  259.58599854    2.57999992    2.78999996
   12.76694393  279.02600098    2.59999990    2.76999998
   12.76833344  240.56100464    2.59999990    2.78999996
   12.76833344  290.21600342    2.53999996    2.76999998
   12.76833344  286.41799927    2.53999996    2.78999996
   12.76861095  231.52999878    2.51999998    2.78999996
   12.76861095  242.69700623    2.48000002    2.78999996
   12.76861095  269.81600952    2.48000002    2.80999994
   12.76888847  300.58700562    2.50000000    2.78999996
   12.76944447  227.17199707    2.61999989    2.76999998
   12.77277756  253.05700684    2.61999989    2.78999996
   12.77583313  268.79098511    2.59999990    2.78999996
   12.77916622  266.39099121    2.57999992    2.78999996
   12.78222179  266.22299194    2.53999996    2.78999996
   12.78916740  266.22299194    2.46000004    2.78999996
   12.79333401  248.44900513    2.44000006    2.78999996
   12.79638958  284.19299316    2.42000008    2.78999996
   12.79972267  261.50698853    2.40000010    2.78999996
   12.80222225  278.08401489    2.40000010    2.78999996
   12.80333328  262.44100952    2.42000008    2.78999996
   12.80666733  267.80200195    2.42000008    2.78999996
   12.81000042  292.25900269    2.40000010    2.78999996
   12.81305599  244.98599243    2.42000008    2.80999994
   12.81638908  218.57400513    2.40000010    2.78999996
   12.81972218  255.50799561    2.36999989    2.78999996
   12.82277775  302.40899658    2.39000010    2.78999996
   12.82472229  268.91000366    2.36999989    2.80999994
   12.82611084  271.03298950    2.36999989    2.78999996
   12.82750034  270.58499146    2.36999989    2.80999994
   12.82888889  237.70300293    2.36999989    2.78999996
   12.82916641  267.80200195    2.42000008    2.78999996
   12.82916641  292.25900269    2.40000010    2.78999996
   12.82916641  244.98599243    2.42000008    2.80999994
   12.82944393  218.57400513    2.40000010    2.78999996
   12.82944393  255.50799561    2.36999989    2.78999996
   12.82944393  302.40899658    2.39000010    2.78999996
   12.82972240  284.19299316    2.42000008    2.78999996
   12.82972240  261.50698853    2.40000010    2.78999996
   12.82972240  262.44100952    2.42000008    2.78999996
   12.83027744  246.55299377    2.36999989    2.80999994
   12.83361053  276.98098755    2.39000010    2.80999994
   12.83666611  260.00900269    2.40000010    2.78999996
   12.84000015  257.22000122    2.44000006    2.80999994
   12.86222267  257.22000122    2.46000004    2.78999996
   12.86638927  269.85598755    2.46000004    2.78999996
   12.86944485  229.08099365    2.46000004    2.78999996
   12.87277794  256.45300293    2.46000004    2.78999996
   12.87611103  200.11199951    2.48000002    2.80999994
   12.87916660  267.89599609    2.48000002    2.78999996
   12.88249969  253.72999573    2.48000002    2.80999994
   12.88555527  252.75300598    2.48000002    2.78999996
   12.88888836  232.14700317    2.48000002    2.80999994
   12.89222240  246.57800293    2.46000004    2.78999996
   12.89527798  225.34100342    2.48000002    2.80999994
   12.89722252  203.61199951    2.48000002    2.80999994
   12.89916611  244.12800598    2.46000004    2.80999994
   12.90499973  244.12800598    2.46000004    2.80999994
   12.90916634  224.04200745    2.46000004    2.78999996
   12.91222191  230.90899658    2.46000004    2.80999994
   12.91555500  196.63299561    2.48000002    2.80999994
   12.91861153  226.90899658    2.50000000    2.80999994
   12.92194462  226.35000610    2.50000000    2.80999994
   12.92527771  199.41799927    2.46000004    2.80999994
   12.92833328  165.90899658    2.44000006    2.80999994
   12.93055630  248.37500000    2.44000006    2.78999996
   12.93222237  241.05000305    2.42000008    2.78999996
   12.93527794  229.64599609    2.40000010    2.78999996
   12.93861103  230.55900574    2.40000010    2.80999994
   12.94194412  226.90800476    2.39000010    2.78999996
   12.94777775  226.90800476    2.36999989    2.80999994
   12.95194435  237.72900391    2.36999989    2.78999996
   12.95499992  229.62699890    2.34999990    2.80999994
   12.95833302  239.12100220    2.32999992    2.80999994
   12.96166611  222.54800415    2.30999994    2.80999994
   12.96388912  228.19299316    2.30999994    2.82999992
   12.96527767  240.82499695    2.30999994    2.82999992
   12.96861076  218.17199707    2.30999994    2.82999992
   12.97166634  205.99899292    2.28999996    2.80999994
   12.97499943  219.57200623    2.30999994    2.80999994
   12.97805500  224.86700439    2.34999990    2.80999994
   12.98138809  208.16000366    2.39000010    2.80999994
   12.98472214  217.33200073    2.39000010    2.78999996
   12.99055576  217.33200073    2.40000010    2.80999994
   12.99472237  222.23800659    2.40000010    2.80999994
   12.99722290  174.76300049    2.36999989    2.80999994
   12.99833393  210.37500000    2.34999990    2.80999994
   13.00166702  235.36099243    2.32999992    2.80999994
   13.00472260  228.68499756    2.28999996    2.78999996
   13.00805569  193.01100159    2.30999994    2.82999992
   13.01138878  204.66200256    2.28999996    2.82999992
   13.01444435  234.16799927    2.30999994    2.80999994
   13.01777744  196.49400330    2.32999992    2.80999994
   13.02083302  216.51100159    2.36999989    2.80999994
   13.02416611  228.49800110    2.36999989    2.80999994
   13.02750015  220.07699585    2.39000010    2.80999994
   13.03333378  220.07699585    2.39000010    2.80999994
   13.03750038  247.86599731    2.36999989    2.82999992
   13.04083347  215.42599487    2.39000010    2.82999992
   13.04416752  196.35400391    2.36999989    2.80999994
   13.04722309  227.67900085    2.36999989    2.80999994
   13.05055618  213.69599915    2.39000010    2.80999994
   13.05361176  228.55000305    2.39000010    2.80999994
   13.05694485  184.10800171    2.39000010    2.80999994
   13.06027794  209.94400024    2.40000010    2.80999994
   13.06333351  203.64399719    2.40000010    2.82999992
   13.06444454  202.20199585    2.40000010    2.82999992
   13.06694412  212.26300049    2.40000010    2.80999994
   13.07027817  213.22999573    2.42000008    2.80999994
   13.07638836  213.22999573    2.46000004    2.82999992
   13.08055592  205.32000732    2.44000006    2.80999994
   13.08361053  239.77400208    2.44000006    2.80999994
   13.08694458  227.85699463    2.44000006    2.80999994
   13.09000015  208.24499512    2.44000006    2.80999994
   13.09333324  200.19000244    2.44000006    2.80999994
   13.09666634  224.28999329    2.46000004    2.80999994
   13.09777737  235.27999878    2.46000004    2.80999994
   13.10027790  248.28500366    2.46000004    2.82999992
   13.10361195  200.47799683    2.46000004    2.80999994
   13.10694504  222.51100159    2.42000008    2.82999992
   13.11000061  227.35899353    2.40000010    2.82999992
   13.11333370  210.78900146    2.39000010    2.82999992
   13.11916637  210.78900146    2.36999989    2.80999994
   13.12333393  198.91999817    2.36999989    2.80999994
   13.12638855  197.83099365    2.36999989    2.80999994
   13.12972260  160.59800720    2.34999990    2.80999994
   13.13111115  154.88099670    2.36999989    2.80999994
   13.13333321  185.62199402    2.36999989    2.80999994
   13.13666630  205.16900635    2.34999990    2.82999992
   13.13972187  167.77600098    2.34999990    2.82999992
   13.14305496  183.84599304    2.34999990    2.80999994
   13.14638901  193.44099426    2.32999992    2.82999992
   13.14944458  199.69099426    2.30999994    2.82999992
   13.15277767  211.76100159    2.30999994    2.82999992
   13.15583324  187.25100708    2.30999994    2.80999994
   13.16194439  187.25100708    2.28999996    2.80999994
   13.16611099  204.44599915    2.28999996    2.80999994
   13.16944504  194.39399719    2.30999994    2.82999992
   13.17250061  218.85699463    2.32999992    2.82999992
   13.17583370  188.32899475    2.34999990    2.82999992
   13.17916679  204.35400391    2.34999990    2.82999992
   13.18222237  215.24899292    2.34999990    2.82999992
   13.18555546  208.94500732    2.39000010    2.82999992
   13.18888855  200.48199463    2.36999989    2.82999992
   13.19194412  195.13499451    2.36999989    2.82999992
   13.19527817  186.73899841    2.34999990    2.80999994
   13.19777775  196.87300110    2.34999990    2.82999992
   13.19888878  185.27200317    2.34999990    2.82999992
   13.20472240  185.27200317    2.32999992    2.82999992
   13.20888901  200.13200378    2.30999994    2.82999992
   13.21222210  176.96400452    2.30999994    2.82999992
   13.21555519  201.51400757    2.28999996    2.82999992
   13.21861076  180.64399719    2.30999994    2.82999992
   13.22194386  215.97399902    2.30999994    2.82999992
   13.22499943  147.33900452    2.32999992    2.82999992
   13.22833252  194.30599976    2.30999994    2.82999992
   13.23111057  193.65100098    2.32999992    2.82999992
   13.23194408  180.00100708    2.32999992    2.82999992
   13.23527813  182.01699829    2.32999992    2.84999990
   13.23833370  201.02600098    2.34999990    2.82999992
   13.24166679  207.15699768    2.34999990    2.84999990
   13.24777794  207.15699768    2.32999992    2.82999992
   13.25194454  209.78599548    2.30999994    2.82999992
   13.25500011  218.46000671    2.30999994    2.82999992
   13.25833321  196.93800354    2.32999992    2.82999992
   13.26138878  219.66299438    2.32999992    2.82999992
   13.26444435  220.42900085    2.32999992    2.84999990
   13.26500034  208.54699707    2.32999992    2.84999990
   13.26833344  228.01100159    2.30999994    2.82999992
   13.27138901  225.98500061    2.30999994    2.82999992
   13.27472210  223.40100098    2.30999994    2.84999990
   13.27805519  218.67300415    2.30999994    2.84999990
   13.28111076  209.73699951    2.30999994    2.84999990
   13.28444481  221.99099731    2.30999994    2.82999992
   13.29055595  221.99099731    2.34999990    2.82999992
   13.29472256  210.62199402    2.34999990    2.80999994
   13.29777813  226.98500061    2.34999990    2.82999992
   13.29833412  211.89500427    2.34999990    2.82999992
   13.30166721  203.60400391    2.32999992    2.82999992
   13.30472279  212.36500549    2.32999992    2.80999994
   13.30805588  210.99899292    2.30999994    2.82999992
   13.31138897  215.88800049    2.30999994    2.84999990
   13.31444454  216.10899353    2.28999996    2.82999992
   13.31777763  226.29800415    2.30999994    2.84999990
   13.32083321  210.88999939    2.30999994    2.84999990
   13.32416630  190.41099548    2.30999994    2.84999990
   13.32750034  214.18200684    2.32999992    2.82999992
   13.33333302  214.18200684    2.32999992    2.82999992
   13.33749962  197.03799438    2.28999996    2.82999992
   13.34083271  181.81900024    2.28999996    2.84999990
   13.34388828  198.01499939    2.28999996    2.84999990
   13.34722233  202.46000671    2.28999996    2.82999992
   13.35055637  187.01300049    2.28999996    2.82999992
   13.35361195  197.56599426    2.28999996    2.82999992
   13.35694504  198.51600647    2.28999996    2.84999990
   13.36000061  195.71000671    2.28999996    2.84999990
   13.36333370  182.09599304    2.28999996    2.82999992
   13.36472225  134.21299744    2.28999996    2.84999990
   13.36694431  168.41499329    2.28999996    2.82999992
   13.37027836  175.28399658    2.28999996    2.82999992
   13.37611103  175.28399658    2.26999998    2.84999990
   13.38027763  184.62699890    2.26999998    2.84999990
   13.38361073  175.29699707    2.26999998    2.82999992
   13.38694477  170.29899597    2.25000000    2.82999992
   13.39000034  200.31100464    2.25000000    2.84999990
   13.39333344  182.41900635    2.23000002    2.84999990
   13.39638901  188.14300537    2.23000002    2.82999992
   13.39805508  174.94900513    2.23000002    2.84999990
   13.39999962  181.26499939    2.21000004    2.84999990
   13.40333271  176.29800415    2.21000004    2.82999992
   13.40638828  169.43299866    2.23000002    2.84999990
   13.40972137  161.32000732    2.25000000    2.84999990
   13.41305542  178.82299805    2.26999998    2.84999990
   13.41916656  178.82299805    2.26999998    2.84999990
   13.42333412  180.73699951    2.28999996    2.84999990
   13.42638874  165.76199341    2.28999996    2.84999990
   13.42972279  181.31100464    2.26999998    2.84999990
   13.43138885  176.19799805    2.26999998    2.84999990
   13.43333340  175.81599426    2.26999998    2.84999990
   13.43666649  182.26800537    2.25000000    2.82999992
   13.43972206  166.36000061    2.25000000    2.84999990
   13.44305515  191.86500549    2.25000000    2.84999990
   13.44638920  170.09199524    2.23000002    2.84999990
   13.44944477  184.33299255    2.23000002    2.86999989
   13.45277786  191.53999329    2.19000006    2.84999990
   13.45583344  185.20399475    2.17000008    2.82999992
   13.46611118   -1.00000000    2.11999989    2.84999990
   13.46916580   -1.00000000    2.11999989    2.84999990
   13.47249985   -1.00000000    2.11999989    2.84999990
   13.47555542   -1.00000000    2.11999989    2.84999990
   13.47888851   -1.00000000    2.11999989    2.84999990
   13.48222160   -1.00000000    2.11999989    2.84999990
   13.48527813   -1.00000000    2.11999989    2.84999990
   13.48861122   -1.00000000    2.11999989    2.84999990
   13.49194431   -1.00000000    2.09999990    2.84999990
   13.49499989   -1.00000000    2.07999992    2.86999989
   13.49861145   -1.00000000    2.05999994    2.84999990
   13.50888920   -1.00000000    2.07999992    2.84999990
   13.51194477   -1.00000000    2.05999994    2.84999990
   13.51527786   -1.00000000    2.07999992    2.86999989
   13.51861095   -1.00000000    2.05999994    2.84999990
   13.52166653   -1.00000000    2.05999994    2.84999990
   13.52499962   -1.00000000    2.03999996    2.86999989
   13.52833271   -1.00000000    2.03999996    2.86999989
   13.53194427   -1.00000000    2.03999996    2.84999990
   13.53500080   -1.00000000    2.03999996    2.84999990
   13.53833389   -1.00000000    2.03999996    2.84999990
   13.54166698   -1.00000000    2.03999996    2.84999990
   13.55166721   -1.00000000    2.01999998    2.84999990
   13.55500031   -1.00000000    2.01999998    2.86999989
   13.55805588   -1.00000000    2.01999998    2.84999990
   13.56138897   -1.00000000    2.03999996    2.86999989
   13.56472206   -1.00000000    2.03999996    2.84999990
   13.56500053   90.59239960    2.03999996    2.84999990
   13.56833363  137.72599792    2.05999994    2.86999989
   13.57166672  190.04100037    2.05999994    2.84999990
   13.57472229  184.60099792    2.05999994    2.84999990
   13.57805538  182.60099792    2.07999992    2.84999990
   13.58138847  191.54699707    2.07999992    2.84999990
   13.58444405  172.45700073    2.07999992    2.82999992
   13.59055519  172.45700073    2.07999992    2.84999990
   13.59472179  163.20899963    2.07999992    2.84999990
   13.59777737  165.80700684    2.07999992    2.86999989
   13.59833336  182.57299805    2.05999994    2.86999989
   13.60138893  185.99400330    2.05999994    2.86999989
   13.60472298  172.30200195    2.07999992    2.86999989
   13.60777855  174.84800720    2.07999992    2.84999990
   13.61111164  179.11799622    2.09999990    2.86999989
   13.61444473  172.42700195    2.09999990    2.86999989
   13.61750031  172.59700012    2.09999990    2.86999989
   13.62083340  176.15299988    2.09999990    2.86999989
   13.62416649  171.26899719    2.07999992    2.84999990
   13.62722206  146.18899536    2.09999990    2.84999990
   13.63333321  146.18899536    2.05999994    2.86999989
   13.63749981  183.43600464    2.05999994    2.84999990
   13.64055538  173.95799255    2.05999994    2.86999989
   13.64388847  180.34800720    2.05999994    2.86999989
   13.64722252  165.64999390    2.05999994    2.84999990
   13.65027714  170.54699707    2.03999996    2.86999989
   13.65361118  159.52799988    2.01999998    2.86999989
   13.65694427  148.56100464    1.98000002    2.86999989
   13.65999985  157.91600037    1.96000004    2.84999990
   13.66333294  179.30599976    1.96000004    2.86999989
   13.66499996  164.68699646    1.98000002    2.84999990
   13.66694450  159.22799683    2.00000000    2.84999990
   13.67027855  159.16499329    2.01999998    2.86999989
   13.67611122  159.16499329    2.03999996    2.86999989
   13.68027782  162.25999451    2.05999994    2.84999990
   13.68361092  182.85099792    2.05999994    2.86999989
   13.68666649  137.18099976    2.07999992    2.84999990
   13.69000053  146.97399902    2.07999992    2.86999989
   13.69333363  155.89500427    2.03999996    2.84999990
   13.69638920  177.47599792    2.05999994    2.86999989
   13.69833374  169.54800415    2.03999996    2.84999990
   13.69999981  153.66099548    2.05999994    2.84999990
   13.70333290  154.69400024    2.05999994    2.86999989
   13.70638847  141.29100037    2.09999990    2.86999989
   13.70972157  176.06399536    2.07999992    2.86999989
   13.71305561  155.25999451    2.05999994    2.86999989
   13.71888828  155.25999451    2.03999996    2.84999990
   13.72305489  165.98599243    2.01999998    2.86999989
   13.72638798  156.47099304    2.01999998    2.84999990
   13.72972202  160.38699341    2.00000000    2.84999990
   13.73194408  164.22000122    2.00000000    2.86999989
   13.73305511  172.61399841    2.00000000    2.86999989
   13.73638916  157.11799622    1.98000002    2.86999989
   13.73944473  156.72999573    1.98000002    2.86999989
   13.74277782  153.23500061    1.98000002    2.86999989
   13.74611092  148.07400513    1.96000004    2.86999989
   13.74916649  165.50300598    1.96000004    2.86999989
   13.75249958  168.75199890    1.96000004    2.84999990
   13.75583363  156.71600342    1.96000004    2.84999990
   13.76194477  156.71600342    1.94000006    2.86999989
   13.76611137  158.11999512    1.96000004    2.84999990
   13.76916599  181.62600708    1.94000006    2.86999989
   13.77250004  153.77299500    1.94000006    2.86999989
   13.77583313  172.98899841    1.91999996    2.86999989
   13.77888870  156.26499939    1.91999996    2.86999989
   13.78222179  179.11900330    1.91999996    2.86999989
   13.78555584  171.68400574    1.94000006    2.86999989
   13.78861141  166.45300293    1.94000006    2.86999989
   13.79194450  159.98399353    1.94000006    2.84999990
   13.79500008  165.94799805    1.94000006    2.86999989
   13.79833412  162.56900024    1.94000006    2.86999989
   13.79888916  171.02900696    1.94000006    2.86999989
   13.80472279  171.02900696    1.94000006    2.86999989
   13.80888939  162.57699585    1.94000006    2.86999989
   13.81194496  172.68600464    1.94000006    2.86999989
   13.81527805  165.97799683    1.91999996    2.86999989
   13.81861115  159.26699829    1.91999996    2.86999989
   13.82166672  155.31199646    1.91999996    2.89000010
   13.82499981  151.26100159    1.91999996    2.89000010
   13.82833290  152.72399902    1.89999998    2.86999989
   13.83138847  141.91499329    1.89999998    2.86999989
   13.83222198  167.73699951    1.89999998    2.86999989
   13.83527756  148.17100525    1.89999998    2.86999989
   13.83833313  162.44500732    1.89999998    2.86999989
   13.84166622  160.26699829    1.89999998    2.86999989
   13.84749985  160.26699829    1.89999998    2.89000010
   13.85166740  170.88000488    1.89999998    2.84999990
   13.85500050  155.27699280    1.89999998    2.86999989
   13.85805607  148.54299927    1.89999998    2.86999989
   13.87583351  154.99600220    1.98000002    2.86999989
   13.87805557  157.46699524    1.94000006    2.86999989
   13.88138866  146.02200317    1.94000006    2.86999989
   13.88472176  152.27299500    1.96000004    2.89000010
   13.89055538  152.27299500    1.91999996    2.86999989
   13.89472198  144.97500610    1.89999998    2.86999989
   13.89805508  155.00599670    1.88000000    2.86999989
   13.90111065  151.10400391    1.88000000    2.89000010
   13.90444374  148.29200745    1.88000000    2.86999989
   13.90777779  148.22099304    1.88000000    2.86999989
   13.90888882  147.23699951    1.88000000    2.84999990
   13.91138840  149.48500061    1.88000000    2.84999990
   13.91472149  151.95899963    1.91999996    2.86999989
   13.91777802  145.41200256    1.89999998    2.86999989
   13.92111111  148.54299927    1.88000000    2.84999990
   13.92444515  149.33299255    1.89999998    2.86999989
   13.92777824  151.94599915    1.89999998    2.86999989
   13.93333340  151.94599915    1.89999998    2.86999989
   13.93750000  150.22099304    1.89999998    2.86999989
   13.94083309  146.50100708    1.88000000    2.86999989
   13.94222260  156.61799622    1.88000000    2.89000010
   13.94444466  145.39399719    1.88000000    2.89000010
   13.94777775  149.99400330    1.88000000    2.89000010
   13.95083332  145.27699280    1.88000000    2.89000010
   13.95416641  143.60299683    1.94000006    2.86999989
   13.95749950  155.02299500    1.94000006    2.86999989
   13.96055508  151.58299255    1.94000006    2.89000010
   13.96388912  150.77299500    1.96000004    2.86999989
   13.96722221  146.12899780    1.96000004    2.86999989
   13.97027779  143.47599792    2.00000000    2.89000010
   13.97638798  143.47599792    2.07999992    2.84999990
   13.98027706  154.33000183    2.05999994    2.86999989
   13.98361111  160.32400513    2.01999998    2.89000010
   13.98694515  146.10400391    2.00000000    2.89000010
   13.99000072  157.41799927    1.98000002    2.86999989
   13.99333382  143.94299316    2.01999998    2.86999989
   13.99666691  145.06799316    2.03999996    2.89000010
   13.99972248  144.60000610    2.03999996    2.89000010
   14.00305557  151.83799744    2.03999996    2.89000010
   14.00611115  142.82200623    2.03999996    2.86999989
   14.00888920  146.53999329    2.01999998    2.86999989
   14.00972176  149.35299683    2.01999998    2.91000009
   14.01305580  146.88499451    2.00000000    2.86999989
   14.01916599  146.88499451    1.96000004    2.86999989
   14.02333355  148.35099792    1.94000006    2.89000010
   14.02638817  140.39900208    1.94000006    2.89000010
   14.02972221  148.41999817    2.01999998    2.89000010
   14.03305531  139.70700073    2.05999994    2.86999989
   14.03611183  144.45100403    2.09999990    2.86999989
   14.03944492  140.23599243    2.09999990    2.89000010
   14.04222298  147.14300537    2.09999990    2.91000009
   14.04305553  140.94599915    2.07999992    2.86999989
   14.04638958  147.81500244    2.05999994    2.89000010
   14.04944515  151.65400696    2.01999998    2.86999989
   14.05277824  145.61900330    2.01999998    2.89000010
   14.05611134  144.94599915    2.01999998    2.86999989
   14.06194496  144.94599915    2.00000000    2.86999989
   14.06611156  152.18800354    1.98000002    2.86999989
   14.06944466  137.57499695    1.98000002    2.89000010
   14.07250023  143.61700439    1.94000006    2.89000010
   14.07555580  158.79299927    1.94000006    2.86999989
   14.07611084  149.56799316    1.94000006    2.86999989
   14.07944393  181.95799255    1.94000006    2.86999989
   14.08249950  190.86999512    1.96000004    2.89000010
   14.08583260  178.36199951    1.96000004    2.89000010
   14.08916664  190.48100281    1.96000004    2.86999989
   14.09222221  143.26699829    1.96000004    2.86999989
   14.09555531  135.45799255    1.96000004    2.86999989
   14.09861088  148.51499939    1.98000002    2.86999989
   14.10472298  148.51499939    2.01999998    2.93000007
   14.10888958  157.30200195    2.01999998    2.86999989
   14.10944462  151.04699707    2.00000000    2.89000010
   14.11277771  144.60200500    2.00000000    2.89000010
   14.11583328  143.73199463    2.00000000    2.86999989
   14.11916637  144.62500000    2.00000000    2.86999989
   14.12250042  144.63299561    2.00000000    2.86999989
   14.12555599  143.33799744    1.98000002    2.89000010
   14.12888908  143.29200745    1.98000002    2.89000010
   14.13222218  149.39500427    2.00000000    2.91000009
   14.13527775  143.97300720    2.00000000    2.89000010
   14.13861084  148.88099670    2.01999998    2.86999989
   14.14166641  146.96299744    2.03999996    2.89000010
   14.14222240  148.05000305    2.03999996    2.86999989
   14.14777756  148.05000305    2.01999998    2.89000010
   14.15166664  137.02499390    2.03999996    2.89000010
   14.15499973  144.14900208    2.05999994    2.91000009
   14.15833282  151.83099365    2.09999990    2.86999989
   14.16138840  138.88400269    2.07999992    2.86999989
   14.16472149  153.67300415    2.03999996    2.89000010
   14.16805553  143.73800659    2.03999996    2.86999989
   14.17111111  144.91299438    2.01999998    2.86999989
   14.17444515  156.18400574    1.98000002    2.89000010
   14.17555618  149.65899658    2.00000000    2.86999989
   14.17805576  153.97700500    2.00000000    2.86999989
   14.18138885  145.86599731    1.96000004    2.89000010
   14.18444443  161.57099915    1.94000006    2.89000010
   14.19055557  161.57099915    1.94000006    2.89000010
   14.19472218  175.51600647    1.94000006    2.89000010
   14.19777775  181.28300476    1.94000006    2.91000009
   14.20111084  184.26199341    1.91999996    2.91000009
   14.20444393  184.09399414    1.91999996    2.89000010
   14.20749950  186.97000122    1.89999998    2.91000009
   14.20888901  173.72500610    1.89999998    2.91000009
   14.21111107  200.67300415    1.88000000    2.89000010
   14.21444416  207.37800598    1.88000000    2.89000010
   14.21749973  207.13099670    1.91999996    2.91000009
   14.22083282  244.14799500    2.17000008    2.86999989
   14.22416592  276.17898560    2.11999989    2.89000010
   14.22722149  315.32199097    2.15000010    2.86999989
   14.22944355  220.22200012    2.17000008    2.86999989
   14.22944355  184.26199341    1.91999996    2.91000009
   14.22944355  184.09399414    1.91999996    2.89000010
   14.22972202  186.97000122    1.89999998    2.91000009
   14.22972202  200.67300415    1.88000000    2.89000010
   14.22972202  207.37800598    1.88000000    2.89000010
   14.22999954  207.13099670    1.91999996    2.91000009
   14.22999954  244.14799500    2.17000008    2.86999989
   14.22999954  276.17898560    2.11999989    2.89000010
   14.23027706  315.32199097    2.15000010    2.86999989
   14.23444462  315.32199097    2.13000011    2.89000010
   14.23861122  284.63500977    2.09999990    2.89000010
   14.24194431  251.63499451    2.09999990    2.89000010
   14.24499989  298.64199829    2.07999992    2.91000009
   14.24833393  360.11300659    2.07999992    2.89000010
   14.25027752  305.09500122    2.09999990    2.89000010
   14.25166702  261.16400146    2.09999990    2.86999989
   14.25305557  297.42700195    2.07999992    2.89000010
   14.25444412  291.84100342    2.09999990    2.89000010
   14.25583363  387.85598755    2.11999989    2.89000010
   14.25722218  348.57101440    2.13000011    2.89000010
   14.25861073  246.62699890    2.13000011    2.89000010
   14.25861073  284.63500977    2.09999990    2.89000010
   14.25861073  251.63499451    2.09999990    2.89000010
   14.25888920  298.64199829    2.07999992    2.91000009
   14.25888920  360.11300659    2.07999992    2.89000010
   14.25944424  348.84600830    2.13000011    2.89000010
   14.26138878  290.57101440    2.09999990    2.89000010
   14.26277733  295.54299927    2.07999992    2.89000010
   14.26416683  303.99200439    2.07999992    2.89000010
   14.26555538  323.50698853    2.05999994    2.89000010
   14.26694393  291.70800781    2.05999994    2.91000009
   14.26833344  341.10299683    2.01999998    2.86999989
   14.26972198  340.54598999    2.00000000    2.91000009
   14.27111053  284.74200439    1.98000002    2.89000010
   14.27250004  300.33499146    1.98000002    2.91000009
   14.27388859  286.18200684    1.98000002    2.91000009
   14.27527714  319.21301270    1.98000002    2.91000009
   14.27666664  323.69000244    1.98000002    2.91000009
   14.27805519  317.86499023    1.98000002    2.91000009
   14.27944374  263.36099243    1.98000002    2.91000009
   14.28083324  274.88101196    1.98000002    2.89000010
   14.28222179  326.64300537    1.98000002    2.89000010
   14.28361130  315.91799927    1.98000002    2.89000010
   14.28500080  302.67098999    1.98000002    2.89000010
   14.28638935  290.41000366    1.98000002    2.89000010
   14.28777790  247.92500305    1.98000002    2.89000010
   14.28805637  348.84600830    2.13000011    2.89000010
   14.28861141  242.98800659    1.98000002    2.89000010
   14.29166698  310.37600708    1.96000004    2.89000010
   14.29388905  329.67300415    1.96000004    2.89000010
   14.29500008  302.88800049    1.94000006    2.89000010
   14.29638958  283.52200317    1.94000006    2.89000010
   14.29777813  329.45901489    1.94000006    2.89000010
   14.29916668  342.06900024    1.94000006    2.89000010
   14.30055618  305.34899902    1.94000006    2.89000010
   14.30194473  341.07501221    1.94000006    2.89000010
   14.30333328  284.47198486    1.91999996    2.89000010
   14.30472279  287.72399902    1.91999996    2.89000010
   14.30611134  358.66900635    1.91999996    2.89000010
   14.30749989  289.82901001    1.89999998    2.89000010
   14.30888939  264.27398682    1.89999998    2.89000010
   14.31027794  243.47900391    1.89999998    2.89000010
   14.31055546  242.98800659    1.98000002    2.89000010
   14.31055546  310.37600708    1.96000004    2.89000010
   14.31111145  292.99700928    1.88000000    2.89000010
   14.31444454  246.73199463    1.88000000    2.89000010
   14.31750011  282.08999634    1.85000002    2.89000010
   14.32083321  262.50100708    1.85000002    2.91000009
   14.32416630  229.46400452    1.80999994    2.89000010
   14.32722187  227.89999390    1.83000004    2.91000009
   14.33138847  227.89999390    1.83000004    2.91000009
   14.33555508  265.14999390    1.85000002    2.89000010
   14.33888817  250.54699707    1.85000002    2.91000009
   14.34194374  246.55099487    1.85000002    2.91000009
   14.34416676  247.43200684    1.83000004    2.89000010
   14.34583282  254.27699280    1.83000004    2.89000010
   14.34916592  270.60400391    1.83000004    2.89000010
   14.35222244  240.01100159    1.83000004    2.89000010
   14.35555553  264.17898560    1.85000002    2.89000010
   14.35888958  244.29699707    1.85000002    2.89000010
   14.36194515  227.21200562    1.85000002    2.89000010
   14.36527824  286.37200928    1.85000002    2.89000010
   14.36833382  251.62899780    1.85000002    2.89000010
   14.37416649  251.62899780    1.85000002    2.86999989
   14.37833309  208.32600403    1.85000002    2.91000009
   14.38166714  248.63299561    1.85000002    2.89000010
   14.38500023  223.81900024    1.83000004    2.91000009
   14.38805580  206.19299316    1.78999996    2.89000010
   14.39138889  218.10600281    1.78999996    2.89000010
   14.39444447  240.34300232    1.78999996    2.89000010
   14.39777756  202.03599548    1.78999996    2.89000010
   14.40111065  240.63699341    1.76999998    2.89000010
   14.40416622  194.97500610    1.76999998    2.89000010
   14.40749931  211.16200256    1.76999998    2.89000010
   14.41083336  233.72599792    1.76999998    2.91000009
   14.41111088  233.14999390    1.75000000    2.91000009
   14.41722298  233.14999390    1.76999998    2.91000009
   14.42138958  206.80599976    1.75000000    2.89000010
   14.42444515  213.53900146    1.76999998    2.89000010
   14.42777824  186.26699829    1.75000000    2.89000010
   14.43083382  204.27000427    1.75000000    2.86999989
   14.43416691  214.62300110    1.75000000    2.86999989
   14.43750000  201.47599792    1.75000000    2.89000010
   14.44055557  204.88999939    1.76999998    2.89000010
   14.44388866  212.96499634    1.76999998    2.89000010
   14.44444466  242.99499512    1.76999998    2.89000010
   14.44750023  177.24200439    1.75000000    2.89000010
   14.45083332  218.78799438    1.75000000    2.89000010
   14.45388889  185.50900269    1.75000000    2.91000009
   14.46000004  185.50900269    1.73000002    2.89000010
   14.46416664  239.60400391    1.73000002    2.89000010
   14.46722221  236.08500671    1.73000002    2.91000009
   14.47055531  175.91600037    1.71000004    2.89000010
   14.47388840  188.59399414    1.71000004    2.89000010
   14.47694397  220.16299438    1.71000004    2.89000010
   14.47805500  204.18499756    1.71000004    2.89000010
   14.48055553  193.48199463    1.71000004    2.89000010
   14.48388958  202.00199890    1.73000002    2.91000009
   14.48722267  206.65400696    1.73000002    2.91000009
   14.49027824  175.42500305    1.73000002    2.91000009
   14.49361134  172.36599731    1.73000002    2.91000009
   14.49666691  185.07800293    1.73000002    2.89000010
   14.50277805  185.07800293    1.73000002    2.89000010
   14.50694466  184.89300537    1.76999998    2.89000010
   14.51027775  209.21299744    1.75000000    2.91000009
   14.51138878  210.36700439    1.75000000    2.91000009
   14.51388931  218.85899353    1.75000000    2.89000010
   14.51722240  195.82800293    1.75000000    2.91000009
   14.52027798  216.44500732    1.73000002    2.91000009
   14.52361107  186.13099670    1.73000002    2.89000010
   14.52694416  170.75900269    1.71000004    2.89000010
   14.52999973  229.87199402    1.69000006    2.91000009
   14.53333378  209.48800659    1.71000004    2.89000010
   14.53666687  168.40499878    1.69000006    2.91000009
   14.53972244  173.13800049    1.69000006    2.91000009
   14.54555607  173.13800049    1.69000006    2.91000009
   14.54972267  175.68899536    1.66999996    2.91000009
   14.55305576  184.95799255    1.66999996    2.89000010
   14.55638885  184.93499756    1.66999996    2.91000009
   14.55944443  189.51199341    1.66999996    2.91000009
   14.56277752  174.02499390    1.66999996    2.91000009
   14.56583309  187.52000427    1.64999998    2.89000010
   14.56916618  168.64799500    1.66999996    2.89000010
   14.57250023  171.21800232    1.66999996    2.91000009
   14.57555580  179.55299377    1.64999998    2.91000009
   14.57805538  191.17599487    1.64999998    2.91000009
   14.57916641  178.77299500    1.64999998    2.91000009
   14.58249950  193.38800049    1.64999998    2.91000009
   14.58861065  193.38800049    1.64999998    2.91000009
   14.59277725  188.10800171    1.64999998    2.91000009
   14.59583282  170.53399658    1.64999998    2.91000009
   14.59916592  190.69400024    1.64999998    2.91000009
   14.60222244  180.65800476    1.64999998    2.91000009
   14.60555553  170.28799438    1.64999998    2.91000009
   14.60888958  185.27099609    1.64999998    2.91000009
   14.61138916  183.22999573    1.64999998    2.91000009
   14.61250019  177.98699951    1.64999998    2.91000009
   14.61583328  179.19500732    1.64999998    2.91000009
   14.61888885  151.08900452    1.64999998    2.91000009
   14.62222195  157.69099426    1.64999998    2.91000009
   14.62555599  161.92900085    1.64999998    2.91000009
   14.63138866  161.92900085    1.64999998    2.91000009
   14.63555527  172.61500549    1.64999998    2.91000009
   14.63861084  180.46000671    1.64999998    2.91000009
   14.64194393  169.72599792    1.64999998    2.91000009
   14.64472198  175.29400635    1.64999998    2.91000009
   14.64555550  183.65499878    1.64999998    2.91000009
   14.64888859  176.61300659    1.64999998    2.91000009
   14.65194416  185.35800171    1.64999998    2.91000009
   14.65527725  190.74400330    1.64999998    2.91000009
   14.65861034  172.76899719    1.64999998    2.91000009
   14.66166592  171.20700073    1.64999998    2.91000009
   14.66499996  176.29699707    1.64999998    2.91000009
   14.66833401  196.02499390    1.64999998    2.91000009
   14.67416668  196.02499390    1.64999998    2.91000009
   14.67833328  173.92599487    1.64999998    2.91000009
   14.68166733  172.23300171    1.64999998    2.91000009
   14.68472195  169.49000549    1.64999998    2.91000009
   14.68805599  172.27499390    1.64999998    2.91000009
   14.69138908  162.49299622    1.64999998    2.91000009
   14.69444466  169.65499878    1.64999998    2.91000009
   14.69777775  151.90499878    1.64999998    2.91000009
   14.70083332  167.03399658    1.64999998    2.91000009
   14.70416641  160.11599731    1.64999998    2.91000009
   14.70777798  155.74200439    1.64999998    2.91000009
   14.71083355  141.61000061    1.64999998    2.91000009
   14.71138859  152.16099548    1.64999998    2.91000009
   14.71694374  152.16099548    1.64999998    2.91000009
   14.72111034  162.06100464    1.64999998    2.91000009
   14.72444439  172.57099915    1.64999998    2.91000009
   14.72777748  164.18200684    1.64999998    2.91000009
   14.73083305  165.86900330    1.64999998    2.91000009
   14.73416710  157.59399414    1.64999998    2.91000009
   14.73750019  181.94200134    1.64999998    2.91000009
   14.74055576  152.39599609    1.66999996    2.91000009
   14.74388885  160.92199707    1.64999998    2.91000009
   14.74472237  156.89900208    1.63000000    2.91000009
   14.74750042  154.59399414    1.60000002    2.93000007
   14.75083351  145.61599731    1.58000004    2.93000007
   14.75416660  156.97099304    1.58000004    2.93000007
   14.76000023  156.97099304    1.60000002    2.91000009
   14.76416683  178.76100159    1.61000001    2.91000009
   14.76722240  173.94200134    1.63000000    2.91000009
   14.77055550  181.37500000    1.64999998    2.93000007
   14.77361107  152.03900146    1.64999998    2.91000009
   14.77694416  178.88000488    1.66999996    2.91000009
   14.77805519  164.19900513    1.66999996    2.91000009
   14.78055573  164.91799927    1.69000006    2.93000007
   14.78361130  193.02000427    1.69000006    2.91000009
   14.78694534  172.48800659    1.69000006    2.93000007
   14.79027843  185.98800659    1.66999996    2.91000009
   14.79333401  215.30700684    1.66999996    2.93000007
   14.79666710  201.08200073    1.66999996    2.93000007
   14.80277824  201.08200073    1.66999996    2.91000009
   14.80694485  193.52499390    1.73000002    2.91000009
   14.81000042  211.84700012    1.75000000    2.91000009
   14.81138897  191.94599915    1.75000000    2.91000009
   14.81388950  212.25500488    1.75000000    2.91000009
   14.81694412  193.19299316    1.75000000    2.91000009
   14.82027817  174.98899841    1.75000000    2.91000009
   14.82361126  145.64300537    1.78999996    2.91000009
   14.82666683  144.08399963    2.07999992    2.91000009
   14.82999992  140.12300110    2.13000011    2.91000009
   14.83333302  144.38999939    2.64000010    2.89000010
   14.83638859  151.80099487    3.64000010    2.89000010
   14.83972168  155.25000000    2.28999996    2.93000007
   14.84555531  155.25000000    1.85000002    2.93000007
   14.84972191  143.75399780    1.75000000    2.93000007
   14.85305595  155.73100281    1.73000002    2.91000009
   14.85611153  153.91799927    1.71000004    2.89000010
   14.85944462  152.64300537    1.71000004    2.91000009
   14.86250019  142.90600586    1.69000006    2.93000007
   14.86583328  152.28100586    1.69000006    2.91000009
   14.86916637  148.53500366    1.69000006    2.91000009
   14.87222195  149.66499329    1.69000006    2.91000009
   14.87555599  149.66299438    1.69000006    2.91000009
   14.89277744  154.21699524    1.69000006    2.93000007
   14.89694405  154.21699524    1.69000006    2.91000009
   14.90111065  152.07699585    1.66999996    2.91000009
   14.90444374  149.75900269    1.66999996    2.91000009
   14.90749931  165.67399597    1.66999996    2.91000009
   14.91083336  153.64300537    1.66999996    2.91000009
   14.91416645  163.40699768    1.66999996    2.91000009
   14.91722298  159.22399902    1.66999996    2.91000009
   14.92055607  168.42599487    1.64999998    2.91000009
   14.92361164  158.92900085    1.63000000    2.91000009
   14.92611122  159.33999634    1.63000000    2.91000009
   14.92722225  148.51100159    1.63000000    2.91000009
   14.93055630  168.72000122    1.63000000    2.91000009
   14.93388939  147.18899536    1.61000001    2.91000009
   14.93972206  147.18899536    1.60000002    2.91000009
   14.94388866  157.88200378    1.61000001    2.93000007
   14.94722271  157.29499817    1.61000001    2.91000009
   14.95027733  160.86999512    1.61000001    2.91000009
   14.95361137  155.94099426    1.61000001    2.89000010
   14.95694447  158.14100647    1.63000000    2.91000009
   14.95944405  154.87100220    1.63000000    2.91000009
   14.96055508  151.71200562    1.60000002    2.91000009
   14.96361065  151.75900269    1.58000004    2.91000009
   14.96694374  160.07299805    1.58000004    2.91000009
   14.96999931  148.94000244    1.58000004    2.91000009
   14.97333336  154.88099670    1.58000004    2.91000009
   14.97666645  144.93600464    1.58000004    2.91000009
   14.98277760  144.93600464    1.58000004    2.91000009
   14.98666668  157.63600159    1.58000004    2.93000007
   14.99000072  141.55400085    1.58000004    2.91000009
   14.99277782  163.48300171    1.55999994    2.91000009
   14.99388885  153.98800659    1.58000004    2.89000010
   14.99694443  159.00100708    1.55999994    2.91000009
   15.00027752  151.97799683    1.55999994    2.91000009
   15.00333309  163.81300354    1.55999994    2.91000009
   15.00666714  155.92399597    1.55999994    2.89000010
   15.01000023  145.83500671    1.55999994    2.93000007
   15.01305580  149.10099792    1.55999994    2.93000007
   15.01638889  157.28999329    1.55999994    2.91000009
   15.01944447  161.05200195    1.55999994    2.91000009
   15.02555561  161.05200195    1.55999994    2.93000007
   15.02972221  164.25500488    1.58000004    2.93000007
   15.03277779  145.85499573    1.60000002    2.91000009
   15.03611183  147.56799316    1.60000002    2.91000009
   15.03944492  150.55099487    1.60000002    2.91000009
   15.04250050  147.99699402    1.61000001    2.91000009
   15.04583359  148.00500488    1.64999998    2.91000009
   15.04916668  150.64900208    1.64999998    2.91000009
   15.05222225  157.23599243    1.64999998    2.91000009
   15.05555534  149.16600037    1.64999998    2.91000009
   15.05861092  149.11399841    1.66999996    2.93000007
   15.06055546  159.33200073    1.66999996    2.91000009
   15.06250000  158.40299988    1.66999996    2.91000009
   15.06833363  158.40299988    1.66999996    2.93000007
   15.07250023  175.45700073    1.69000006    2.91000009
   15.07583332  167.08599854    1.69000006    2.91000009
   15.07888889  148.09700012    1.69000006    2.91000009
   15.08222198  166.16600037    1.66999996    2.91000009
   15.08527756  176.60000610    1.66999996    2.93000007
   15.08861065  166.57299805    1.64999998    2.93000007
   15.09194374  155.88900757    1.64999998    2.91000009
   15.09388828  165.66200256    1.64999998    2.91000009
   15.09555531  154.28100586    1.64999998    2.93000007
   15.20305538   -1.00000000   -1.00000000   -1.00000000
   15.33527756   -1.00000000   -1.00000000   -1.00000000
   15.56555557   -1.00000000   -1.00000000   -1.00000000
   15.73972225  101.69699860    1.39999998    2.91000009
   15.74277782  182.33099365    1.44000006    2.93000007
   15.74611092  199.57899475    1.44000006    2.94000006
   15.74944496  187.28999329    1.46000004    2.93000007
   15.75249958  192.92799377    1.46000004    2.93000007
   15.75583363  185.22599792    1.46000004    2.93000007
   15.76000023  185.22599792    1.46000004    2.93000007
   15.76416683  176.00500488    1.44000006    2.93000007
   15.76722240  189.89700317    1.50000000    2.91000009
   15.77055550  189.86700439    1.50000000    2.93000007
   15.77305508  188.32899475    1.50000000    2.93000007
   15.77416611  194.16099548    1.48000002    2.93000007
   15.77750015  178.18299866    1.48000002    2.93000007
   15.78055573  171.82499695    1.46000004    2.93000007
   15.78388977  189.75700378    1.48000002    2.93000007
   15.78722286  190.66799927    1.48000002    2.94000006
   15.79027843  184.98500061    1.48000002    2.93000007
   15.79361153  192.82600403    1.48000002    2.93000007
   15.79694462  194.79699707    1.48000002    2.93000007
   15.80277824  194.79699707    4.19999981    2.86999989
   15.80694485  184.02999878    3.93000007    2.89000010
   15.81027794  183.09899902    3.59999990    2.91000009
   15.81333351  181.58299255    2.34999990    2.93000007
   15.81666660  175.51600647    1.53999996    2.93000007
   15.81972218  172.17799377    1.46000004    2.91000009
   15.82305527  167.10000610    1.46000004    2.94000006
   15.82638836  179.08299255    1.44000006    2.93000007
   15.82944393  162.67500305    1.38000000    2.94000006
   15.83277798  166.71200562    1.34000003    2.93000007
   15.83611107  174.40800476    1.34000003    2.93000007
   15.83916664  181.98399353    1.33000004    2.93000007
   15.83972168  175.13499451    1.33000004    2.93000007
   15.84555531  175.13499451    1.28999996    2.93000007
   15.84972191  169.76600647    1.33000004    2.93000007
   15.85305595  173.23899841    1.30999994    2.93000007
   15.85611153  164.22000122    1.30999994    2.93000007
   15.85944462  171.94000244    1.30999994    2.94000006
   15.86277771  172.97500610    1.30999994    2.94000006
   15.86583328  190.55000305    1.30999994    2.93000007
   15.86916637  173.44000244    1.28999996    2.93000007
   15.87250042  186.25199890    1.28999996    2.93000007
   15.87305546  191.47700500    1.26999998    2.93000007
   15.87611103  184.52900696    1.28999996    2.93000007
   15.87916660  177.79299927    1.30999994    2.93000007
   15.88249969  178.78399658    1.28999996    2.94000006
   15.88861084  178.78399658    1.28999996    2.94000006
   15.89249992  167.79100037    1.30999994    2.93000007
   15.89583302  167.46200562    1.30999994    2.93000007
   15.89916611  167.48500061    1.33000004    2.94000006
   15.90222168  159.15499878    1.33000004    2.94000006
   15.90555477  149.27699280    1.30999994    2.93000007
   15.90638828  159.18499756    1.30999994    2.93000007
   15.90916634  174.24099731    1.30999994    2.93000007
   15.91249943  163.19599915    1.30999994    2.93000007
   15.91555500  158.90899658    1.33000004    2.93000007
   15.91888905  157.87600708    1.33000004    2.93000007
   15.92222214  157.12100220    1.33000004    2.93000007
   15.92527771  168.84300232    1.36000001    2.93000007
   15.93138885  168.84300232    1.36000001    2.94000006
   15.93555546  152.83500671    1.36000001    2.93000007
   15.93861103  157.79200745    1.38000000    2.93000007
   15.93972206  152.44099426    1.39999998    2.93000007
   15.94250011  161.81599426    1.38000000    2.93000007
   15.94555569  142.02999878    1.39999998    2.93000007
   15.94888878  158.47700500    1.39999998    2.93000007
   15.95222187  171.10299683    1.39999998    2.93000007
   15.95527744  171.32699585    1.39999998    2.94000006
   15.95861053  155.89100647    1.39999998    2.93000007
   15.96194458  149.11799622    1.39999998    2.93000007
   15.96500015  149.48800659    1.39999998    2.94000006
   15.96833324  136.78399658    1.39999998    2.93000007
   15.97416592  136.78399658    1.38000000    2.93000007
   15.97833252  148.37399292    1.39999998    2.93000007
   15.98166656  162.64900208    1.39999998    2.94000006
   15.98472214  143.80799866    1.39999998    2.94000006
   15.98805618  148.78799438    1.39999998    2.94000006
   15.99111176  148.69299316    1.41999996    2.93000007
   15.99444485  151.77600098    1.48000002    2.93000007
   15.99777794  146.88600159    1.53999996    2.93000007
   16.00083351  153.40100098    1.64999998    2.94000006
   16.00416756  147.53199768    1.61000001    2.93000007
   16.00638962  147.36599731    1.60000002    2.93000007
   16.00777817  147.79400635    1.61000001    2.93000007
   16.01083374  156.82600403    1.58000004    2.94000006
   16.01694489  156.82600403    1.46000004    2.94000006
   16.02111053  155.19099426    1.44000006    2.94000006
   16.02444458  152.58200073    1.41999996    2.93000007
   16.02750015  155.97300720    1.44000006    2.93000007
   16.03083229  157.60899353    1.41999996    2.93000007
   16.03416634  148.23800659    1.41999996    2.94000006
   16.03722191  160.36799622    1.41999996    2.94000006
   16.03972244  159.88600159    1.41999996    2.94000006
   16.04111099  165.90899658    1.44000006    2.94000006
   16.04416656  145.27799988    1.41999996    2.93000007
   16.04749870  156.01600647    1.44000006    2.93000007
   16.05083275  159.26300049    1.41999996    2.93000007
   16.05388832  146.01899719    1.41999996    2.94000006
   16.05999947  146.01899719    1.41999996    2.93000007
   16.06388855  151.51499939    1.41999996    2.93000007
   16.06722260  141.62300110    1.39999998    2.93000007
   16.07055664  143.29899597    1.38000000    2.93000007
   16.07305717  140.06700134    1.38000000    2.94000006
   16.07416725  154.14999390    1.38000000    2.94000006
   16.07722282  155.36199951    1.38000000    2.93000007
   16.08055687  151.67500305    1.38000000    2.93000007
   16.08388901  156.41200256    1.38000000    2.93000007
   16.08694458  173.58599854    1.38000000    2.93000007
   16.09027863  153.25599670    1.38000000    2.93000007
   16.09361267  153.43400574    1.38000000    2.94000006
   16.09666824  164.39700317    1.36000001    2.93000007
   16.10277748  164.39700317    1.34000003    2.93000007
   16.10694504  156.47900391    1.34000003    2.94000006
   16.11000061  156.97599792    1.33000004    2.93000007
   16.11333466  166.25300598    1.33000004    2.94000006
   16.11666679  166.05499268    1.30999994    2.93000007
   16.11972237  160.84599304    1.30999994    2.93000007
   16.12305641  160.21800232    1.28999996    2.93000007
   16.12611198  155.36599731    1.26999998    2.93000007
   16.12944412  163.77400208    1.26999998    2.93000007
   16.13277817  153.54400635    1.26999998    2.93000007
   16.13583374  158.36900330    1.25000000    2.93000007
   16.13916588  176.43299866    1.23000002    2.94000006
   16.13972282  159.48199463    1.25000000    2.93000007
   16.14555550  159.48199463    1.23000002    2.93000007
   16.14972115  147.62100220    1.25000000    2.93000007
   16.15305519  143.40800476    1.26999998    2.94000006
   16.15611076  149.68200684    1.26999998    2.93000007
   16.15944481  143.04100037    1.28999996    2.94000006
   16.16277695  162.47999573    1.28999996    2.94000006
   16.16583252  158.25100708    1.28999996    2.94000006
   16.16916656  161.61199951    1.28999996    2.94000006
   16.17249870  153.82499695    1.30999994    2.93000007
   16.17305565  155.22200012    1.30999994    2.93000007
   16.17611122  154.48699951    1.33000004    2.94000006
   16.17944336  158.74499512    1.33000004    2.93000007
   16.18249893  156.44000244    1.34000003    2.93000007
   16.18833160  156.44000244    1.34000003    2.93000007
   16.19249916  157.09300232    1.36000001    2.93000007
   16.19583321  157.90100098    1.36000001    2.93000007
   16.19888878  177.52099609    1.36000001    2.93000007
   16.20222282  153.45799255    1.36000001    2.93000007
   16.20555687  173.07099915    1.36000001    2.93000007
   16.20639038  163.19799805    1.38000000    2.93000007
   16.20916748  163.95500183    1.38000000    2.94000006
   16.21250153  159.53999329    1.39999998    2.93000007
   16.21555710  148.71499634    1.39999998    2.94000006
   16.21888924  141.91200256    1.39999998    2.93000007
   16.22194481  155.95300293    1.39999998    2.93000007
   16.22527885  138.80700684    1.38000000    2.93000007
   16.23139000  138.80700684    1.38000000    2.93000007
   16.23527718  163.62699890    1.36000001    2.94000006
   16.23861122  154.93200684    1.36000001    2.94000006
   16.23972321  158.45100403    1.36000001    2.94000006
   16.24222183  164.83399963    1.36000001    2.94000006
   16.24555588  168.18400574    1.36000001    2.93000007
   16.24861145  162.83799744    1.34000003    2.93000007
   16.25194359  164.63299561    1.34000003    2.93000007
   16.25499916  158.40899658    1.34000003    2.94000006
   16.25833321  159.49600220    1.34000003    2.94000006
   16.26166725  158.32400513    1.30999994    2.93000007
   16.26472282  163.89500427    1.33000004    2.94000006
   16.26805496  174.74800110    1.33000004    2.93000007
   16.27416611  174.74800110    1.28999996    2.93000007
   16.27833366  161.45799255    1.30999994    2.94000006
   16.28138924  164.65899658    1.34000003    2.93000007
   16.28472137  179.85899353    1.34000003    2.93000007
   16.28805542  158.42100525    1.34000003    2.93000007
   16.29111099  167.02600098    1.34000003    2.93000007
   16.29444313  157.62399292    1.34000003    2.93000007
   16.29749870  164.39599609    1.34000003    2.93000007
   16.30083275  180.94299316    1.34000003    2.93000007
   16.30416679  183.67700195    1.38000000    2.94000006
   16.30638885  152.55900574    1.38000000    2.93000007
   16.30777740  170.20300293    1.38000000    2.93000007
   16.31110954  178.09399414    1.38000000    2.93000007
   16.31694603  178.09399414    1.39999998    2.93000007
   16.32111168  150.02000427    1.44000006    2.93000007
   16.32416725  161.42300415    1.46000004    2.93000007
   16.32750130  161.19000244    1.46000004    2.94000006
   16.33083344  170.33700562    1.46000004    2.91000009
   16.33388901  160.21899414    1.50000000    2.93000007
   16.33722305  158.62699890    1.48000002    2.93000007
   16.33972359  165.63099670    1.46000004    2.93000007
   16.34083366  162.69599915    1.46000004    2.93000007
   16.34416771  185.66200256    1.44000006    2.93000007
   16.34722328  142.88999939    1.44000006    2.93000007
   16.35055542  173.78700256    1.39999998    2.93000007
   16.35388947  169.37300110    1.39999998    2.93000007
   16.35972214  169.37300110    1.38000000    2.93000007
   16.36388969  174.49600220    1.36000001    2.93000007
   16.36722183  211.76499939    1.36000001    2.93000007
   16.37027740  177.86000061    1.36000001    2.93000007
   16.37305641  196.67399597    1.34000003    2.94000006
   16.37388992  188.58999634    1.36000001    2.93000007
   16.37722206  210.36900330    1.34000003    2.93000007
   16.38027763  214.07499695    1.34000003    2.94000006
   16.38361168  199.12300110    1.36000001    2.93000007
   16.38666725  191.80200195    1.34000003    2.93000007
   16.38999939  196.19999695    1.33000004    2.93000007
   16.39333344  217.47999573    1.33000004    2.93000007
   16.39638901  179.34599304    1.33000004    2.93000007
   16.40277672  179.34599304    1.30999994    2.94000006
   16.40666580  197.55700684    1.30999994    2.93000007
   16.40999985  268.09899902    1.30999994    2.93000007
   16.41333389  229.16999817    1.28999996    2.93000007
   16.41638756  205.24299622    1.28999996    2.93000007
   16.41972160  254.87300110    1.28999996    2.93000007
   16.42305565  283.68301392    1.28999996    2.94000006
   16.42611122  246.79600525    1.30999994    2.93000007
   16.42944336  207.43499756    1.28999996    2.94000006
   16.43249893  242.79299927    1.28999996    2.94000006
   16.43583298  229.13000488    1.28999996    2.94000006
   16.43916512  248.81199646    1.28999996    2.94000006
   16.43999863  230.96600342    1.28999996    2.93000007
   16.44555473  230.96600342    1.30999994    2.93000007
   16.44972038  211.53100586    1.30999994    2.93000007
   16.45277786  206.61199951    1.33000004    2.93000007
   16.45611191  188.07499695    1.33000004    2.94000006
   16.45944595  176.82600403    1.34000003    2.94000006
   16.46250153  188.88000488    1.34000003    2.93000007
   16.46583366  195.52400208    1.36000001    2.93000007
   16.46888924  208.54800415    1.36000001    2.93000007
   16.47222328  207.27600098    1.36000001    2.93000007
   16.47305679  210.03900146    1.36000001    2.93000007
   16.47583389  179.26800537    1.38000000    2.93000007
   16.47916794  168.52099609    1.38000000    2.93000007
   16.48222351  175.71400452    1.38000000    2.94000006
   16.48833275  175.71400452    1.36000001    2.93000007
   16.49250031  192.67999268    1.36000001    2.93000007
   16.49583435  196.11000061    1.34000003    2.94000006
   16.49888992  181.31799316    1.33000004    2.93000007
   16.50222206  189.27000427    1.30999994    2.94000006
   16.50527763  188.38099670    1.33000004    2.93000007
   16.50638962  172.82499695    1.33000004    2.93000007
   16.50888824  196.69599915    1.33000004    2.93000007
   16.51222229  186.88900757    1.30999994    2.93000007
   16.51527786  179.43299866    1.33000004    2.93000007
   16.51861000  182.41499329    1.34000003    2.93000007
   16.52194405  194.91999817    1.38000000    2.93000007
   16.52499962  199.30499268    1.36000001    2.93000007
   16.53111076  199.30499268    1.36000001    2.93000007
   16.53527641  170.46800232    1.36000001    2.93000007
   16.53861046  191.92100525    1.36000001    2.93000007
   16.53972244  178.90400696    1.36000001    2.93000007
   16.54222107  178.51800537    1.36000001    2.93000007
   16.54555511  197.30099487    1.36000001    2.93000007
   16.54861069  179.43099976    1.38000000    2.93000007
   16.55194283  188.73699951    1.38000000    2.93000007
   16.55527687  183.05000305    1.38000000    2.93000007
   16.55833244  181.61199951    1.38000000    2.93000007
   16.56166649  179.06100464    1.39999998    2.93000007
   16.56472206  168.49200439    1.36000001    2.93000007
   16.56805611  181.46499634    1.34000003    2.93000007
   16.57389069  181.46499634    1.36000001    2.93000007
   16.57805634  180.59300232    1.33000004    2.93000007
   16.58139038  182.05200195    1.33000004    2.93000007
   16.58472252  170.45799255    1.33000004    2.93000007
   16.58777809  186.67900085    1.30999994    2.93000007
   16.59111214  196.72799683    1.30999994    2.93000007
   16.59416771  187.21699524    1.30999994    2.93000007
   16.59749985  196.54699707    1.26999998    2.94000006
   16.60083389  181.41700745    1.26999998    2.94000006
   16.60388947  169.98699951    1.25000000    2.93000007
   16.60639000  183.69599915    1.25000000    2.94000006
   16.60750008  164.33900452    1.25000000    2.93000007
   16.61083412  205.73199463    1.25000000    2.93000007
   16.61694527  205.73199463    1.23000002    2.93000007
   16.62111092  226.80000305    1.21000004    2.93000007
   16.62416649  267.07299805    1.21000004    2.93000007
   16.62750053  296.25201416    1.21000004    2.93000007
   16.63055611  258.69799805    1.21000004    2.93000007
   16.63388824  262.59799194    1.21000004    2.94000006
   16.63722229  293.88299561    1.23000002    2.94000006
   16.63999939  311.31698608    1.23000002    2.93000007
   16.64083290  286.67300415    1.23000002    2.93000007
   16.64416695  303.31298828    1.25000000    2.94000006
   16.64611053  295.43099976    1.25000000    2.94000006
   16.64749908  307.20001221    1.25000000    2.93000007
   16.64888954  280.57598877    1.23000002    2.94000006
   16.65027809  252.15299988    1.25000000    2.94000006
   16.65166664  306.91500854    1.26999998    2.93000007
   16.65305519  280.16299438    1.26999998    2.93000007
   16.65444374  297.60299683    1.26999998    2.93000007
   16.65583229  294.03601074    1.26999998    2.93000007
   16.65722275  261.17401123    1.33000004    2.94000006
   16.65861130  297.88800049    1.34000003    2.94000006
   16.65999985  293.06201172    1.36000001    2.93000007
   16.66138840  303.82598877    1.36000001    2.93000007
   16.66277695  308.24899292    1.36000001    2.93000007
   16.66416550  284.98001099    1.38000000    2.94000006
   16.66555595  290.35998535    1.39999998    2.93000007
   16.66694450  273.75000000    1.39999998    2.93000007
   16.66833305  323.18701172    1.39999998    2.91000009
   16.66972160  327.52301025    1.39999998    2.93000007
   16.67111015  311.65499878    1.44000006    2.93000007
   16.67249870  327.62799072    1.46000004    2.93000007
   16.67388916  294.06900024    1.48000002    2.94000006
   16.67527771  284.71701050    1.50000000    2.94000006
   16.67666626  296.27301025    1.50000000    2.91000009
   16.67805481  293.71899414    1.51999998    2.93000007
   16.67944336  299.44799805    1.51999998    2.93000007
   16.68083191  298.79901123    1.51999998    2.93000007
   16.68222237  273.01300049    1.51999998    2.93000007
   16.68361092  278.82598877    1.51999998    2.93000007
   16.68499947  290.90100098    1.55999994    2.93000007
   16.68638802  279.08700562    1.55999994    2.93000007
   16.68777657  269.58499146    1.58000004    2.91000009
   16.68916512  309.37899780    1.58000004    2.93000007
   16.69055557  321.56201172    1.58000004    2.91000009
   16.69194412  261.02200317    1.58000004    2.91000009
   16.69333267  254.21200562    1.58000004    2.93000007
   16.69472122  260.96099854    1.58000004    2.93000007
   16.69610977  264.77301025    1.58000004    2.93000007
   16.69749832  257.47399902    1.58000004    2.93000007
   16.69888878  256.91799927    1.58000004    2.93000007
   16.70027924  292.08401489    1.58000004    2.93000007
   16.70166779  295.54598999    1.58000004    2.93000007
   16.70305634  285.63101196    1.58000004    2.93000007
   16.70444489  320.42300415    1.58000004    2.93000007
   16.70583344  282.27999878    1.58000004    2.93000007
   16.70722389  294.35699463    1.58000004    2.91000009
   16.70861244  281.68600464    1.55999994    2.93000007
   16.71000099  265.91299438    1.55999994    2.93000007
   16.71138954  295.26000977    1.55999994    2.93000007
   16.71277809  274.81600952    1.55999994    2.93000007
   16.71416664  301.65301514    1.55999994    2.93000007
   16.71583366  233.88699341    1.55999994    2.93000007
   16.71611214  226.80000305    1.21000004    2.93000007
   16.71611214  267.07299805    1.21000004    2.93000007
   16.71638870  296.25201416    1.21000004    2.93000007
   16.71638870  258.69799805    1.21000004    2.93000007
   16.71638870  262.59799194    1.21000004    2.94000006
   16.71666718  293.88299561    1.23000002    2.94000006
   16.71666718  286.67300415    1.23000002    2.93000007
   16.71666718  303.31298828    1.25000000    2.94000006
   16.71694565  205.73199463    1.25000000    2.93000007
   16.71750069  237.13600159    1.55999994    2.93000007
   16.72055626  295.67599487    1.55999994    2.91000009
   16.72389030  267.78298950    1.53999996    2.93000007
   16.72722244  278.03399658    1.51999998    2.94000006
   16.73055649  271.13198853    1.51999998    2.94000006
   16.73666763  271.13198853    1.50000000    2.91000009
   16.75722313  239.76899719    1.41999996    2.93000007
   16.76027870  235.70100403    1.41999996    2.93000007
   16.76361084  240.08900452    1.38000000    2.93000007
   16.76666641  224.60499573    1.36000001    2.91000009
   16.77027702  234.80099487    1.36000001    2.93000007
   16.77333260  210.55499268    1.36000001    2.93000007
   16.77944374  210.55499268    1.34000003    2.93000007
   16.78361130  194.78300476    1.34000003    2.94000006
   16.78694344  209.95199585    1.34000003    2.93000007
   16.79027748  206.89399719    1.36000001    2.93000007
   16.79055595  198.05000305    1.36000001    2.93000007
   16.79388809  201.56199646    1.36000001    2.93000007
   16.79694366  223.88299561    1.36000001    2.93000007
   16.80027771  239.68400574    1.36000001    2.93000007
   16.80360985  226.07800293    1.36000001    2.93000007
   16.80666542  203.84399414    1.36000001    2.93000007
   16.80999947  184.18499756    1.36000001    2.94000006
   16.81333351  194.07099915    1.36000001    2.94000006
   16.81638718  180.66099548    1.36000001    2.94000006
   16.82250023  180.66099548    1.39999998    2.94000006
   16.82666779  177.71000671    1.39999998    2.91000009
   16.82972336  194.30200195    1.39999998    2.93000007
   16.83305550  178.85899353    1.39999998    2.93000007
   16.83611107  184.63099670    1.39999998    2.93000007
   16.83944511  175.96899414    1.39999998    2.93000007
   16.84277916  186.70199585    1.39999998    2.93000007
   16.84583473  176.92500305    1.39999998    2.93000007
   16.84916687  167.32800293    1.39999998    2.93000007
   16.85250092  182.69200134    1.41999996    2.93000007
   16.85555649  185.98699951    1.44000006    2.93000007
   16.85750008  172.23100281    1.44000006    2.93000007
   16.85944557  193.60099792    1.44000006    2.93000007
   16.86527824  193.60099792    1.46000004    2.93000007
   16.86944389  189.11700439    1.46000004    2.93000007
   16.87249947  167.78700256    1.46000004    2.93000007
   16.87583351  160.24400330    1.46000004    2.93000007
   16.87916756  162.91299438    1.46000004    2.93000007
   16.88222313  168.72599792    1.46000004    2.93000007
   16.88555527  171.44400024    1.44000006    2.93000007
   16.88888931  169.17999268    1.44000006    2.94000006
   16.89083290  171.23899841    1.44000006    2.91000009
   16.89249992  154.49000549    1.44000006    2.93000007
   16.89555550  183.73199463    1.44000006    2.93000007
   16.89888954  171.46499634    1.44000006    2.93000007
   16.90222168  188.86199951    1.44000006    2.93000007
   16.90805435  188.86199951    1.41999996    2.93000007
   16.91222191  171.38600159    1.41999996    2.93000007
   16.91555595  167.59800720    1.41999996    2.93000007
   16.91860962  166.68800354    1.41999996    2.91000009
   16.92194366  176.37199402    1.44000006    2.93000007
   16.92444420  181.79400635    1.44000006    2.93000007
   16.92555428  161.28100586    1.44000006    2.93000007
   16.92888832  157.49499512    1.44000006    2.93000007
   16.93222237  166.99099731    1.44000006    2.93000007
   16.93527603  161.24200439    1.44000006    2.93000007
   16.93861008  160.97700500    1.44000006    2.93000007
   16.94166565  165.53900146    3.72000003    2.91000009
   16.94499969  181.00300598    4.90999985    2.91000009
   16.95083427  181.00300598    4.90999985    2.91000009
   16.95499992  149.97799683    2.28999996    2.93000007
   16.95777893  166.97200012    1.63000000    2.93000007
   16.95861244  162.07699585    1.63000000    2.93000007
   16.96194458  174.78199768    1.33000004    2.93000007
   16.96527863  171.65199280    1.33000004    2.93000007
   16.96833420  170.26300049    1.30999994    2.93000007
   16.97166634  169.79299927    1.28999996    2.93000007
   16.97472191  182.08599854    1.28999996    2.93000007
   16.97805595  167.79299927    1.28999996    2.93000007
   16.98139000  184.21800232    1.26999998    2.93000007
   16.98444557  179.81199646    1.26999998    2.94000006
   16.98777771  163.03900146    1.26999998    2.94000006
   16.99388885  163.03900146    1.28999996    2.93000007
   16.99805641  192.86700439    1.28999996    2.94000006
   17.00111198  161.08299255    1.26999998    2.93000007
   17.00444412  169.08200073    1.26999998    2.93000007
   17.00749969  187.34800720    1.28999996    2.93000007
   17.01083374  188.94900513    1.26999998    2.93000007
   17.01416588  173.92300415    1.26999998    2.93000007
   17.01722145  175.48599243    1.26999998    2.93000007
   17.02055550  176.67900085    1.28999996    2.94000006
   17.02388954  173.64399719    1.28999996    2.93000007
   17.02472115  171.76199341    1.28999996    2.93000007
   17.02750015  175.44599915    1.28999996    2.93000007
   17.03055573  170.34800720    1.28999996    2.93000007
   17.03666687  170.34800720    1.30999994    2.93000007
   17.04083252  173.82499695    1.33000004    2.91000009
   17.04388809  179.54499817    1.33000004    2.91000009
   17.04722214  159.48300171    1.33000004    2.93000007
   17.05055428  161.18200684    1.33000004    2.93000007
   17.05360985  165.83500671    1.33000004    2.93000007
   17.05694389  162.06399536    1.33000004    2.94000006
   17.05805397  176.92500305    1.33000004    2.94000006
   17.06055450  177.90899658    1.33000004    2.94000006
   17.06361008  172.35800171    1.33000004    2.94000006
   17.06694603  176.37600708    1.33000004    2.93000007
   17.07000160  173.19799805    1.33000004    2.93000007
   17.07333374  164.54100037    1.30999994    2.91000009
   17.07944489  164.54100037    1.33000004    2.94000006
   17.08361244  183.05599976    1.33000004    2.93000007
   17.08694458  186.08799744    1.33000004    2.93000007
   17.09000015  194.41000366    1.33000004    2.93000007
   17.09166718  170.09300232    1.33000004    2.93000007
   17.09361267  187.16999817    1.33000004    2.93000007
   17.09694481  186.00999451    1.33000004    2.93000007
   17.10027885  190.08500671    1.34000003    2.93000007
   17.10333443  184.73599243    1.33000004    2.93000007
   17.10666656  169.58299255    1.33000004    2.93000007
   17.11000061  159.36199951    1.34000003    2.94000006
   17.11305618  181.19099426    1.34000003    2.94000006
   17.11638832  160.53300476    1.36000001    2.93000007
   17.12249947  160.53300476    1.39999998    2.93000007
   17.12638855  159.98500061    1.39999998    2.93000007
   17.12972260  175.23300171    1.39999998    2.93000007
   17.13305473  168.41099548    1.39999998    2.93000007
   17.13611031  171.93800354    1.39999998    2.93000007
   17.13944435  172.75999451    1.41999996    2.94000006
   17.14277840  172.21899414    1.39999998    2.93000007
   17.14583397  178.67799377    1.39999998    2.93000007
   17.14916611  170.45700073    1.39999998    2.93000007
   17.15250015  170.69599915    1.39999998    2.93000007
   17.15555573  160.37500000    1.39999998    2.93000007
   17.15833282  183.57000732    1.41999996    2.91000009
   17.15916634  169.25999451    1.41999996    2.91000009
   17.16527748  169.25999451    1.39999998    2.93000007
   17.16944313  179.52299500    1.39999998    2.93000007
   17.17249870  172.78500366    1.38000000    2.94000006
   17.17583275  161.99499512    1.36000001    2.94000006
   17.17888832  164.38200378    1.36000001    2.94000006
   17.18222237  154.44299316    1.36000001    2.93000007
   17.18555450  173.32000732    1.34000003    2.93000007
   17.18861008  170.94599915    1.33000004    2.93000007
   17.19166565  176.57699585    1.33000004    2.93000007
   17.19222069  183.21200562    1.33000004    2.93000007
   17.19555473  168.22500610    1.33000004    2.93000007
   17.19888878  170.78399658    1.33000004    2.93000007
   17.20194435  161.55700684    1.33000004    2.93000007
   17.20805550  161.55700684    1.34000003    2.93000007
   17.21222305  182.07299805    1.34000003    2.93000007
   17.21527863  164.62899780    1.33000004    2.93000007
   17.21861076  171.18699646    1.30999994    2.93000007
   17.22194481  176.05400085    1.33000004    2.93000007
   17.22500038  163.81500244    1.30999994    2.93000007
   17.22527885  173.46699524    1.30999994    2.93000007
   17.22861099  175.17900085    1.30999994    2.93000007
   17.23194504  169.14500427    1.28999996    2.93000007
   17.23500061  158.58700562    1.30999994    2.93000007
   17.23833275  160.12800598    1.30999994    2.93000007
   17.24166679  173.29600525    1.30999994    2.93000007
   17.24472237  166.34599304    1.33000004    2.93000007
   17.25083351  166.34599304    1.33000004    2.93000007
   17.25499916  165.28900146    1.34000003    2.93000007
   17.25833321  161.51499939    1.36000001    2.93000007
   17.25861168  181.64999390    1.39999998    2.93000007
   17.26194382  164.21200562    1.39999998    2.93000007
   17.26527786  166.62399292    1.39999998    2.93000007
   17.26833344  135.05000305    1.41999996    2.93000007
   17.27166557  161.22399902    1.41999996    2.93000007
   17.27499962  157.16600037    1.44000006    2.93000007
   17.27805519  167.06300354    1.44000006    2.93000007
   17.28138924  152.84899902    1.46000004    2.93000007
   17.28444481  167.95799255    1.46000004    2.93000007
   17.28777695  167.74600220    1.46000004    2.93000007
   17.29361153  167.74600220    1.48000002    2.93000007
   17.29777718  173.86300659    1.48000002    2.93000007
   17.30111122  174.77799988    1.50000000    2.93000007
   17.30444336  164.91000366    1.48000002    2.93000007
   17.30749893  170.57699585    1.48000002    2.91000009
   17.31083298  170.49000549    1.48000002    2.93000007
   17.31416512  167.74299622    1.50000000    2.93000007
   17.31722260  181.79699707    1.51999998    2.93000007
   17.32055664  174.58099365    1.51999998    2.91000009
   17.32361221  173.30700684    1.51999998    2.93000007
   17.32500076  161.16700745    1.53999996    2.91000009
   17.32750130  159.94500732    1.53999996    2.91000009
   17.33055687  163.87800598    1.53999996    2.91000009
   17.33666801  163.87800598    1.53999996    2.93000007
   17.34083366  168.33000183    1.53999996    2.91000009
   17.34416771  178.19099426    1.51999998    2.93000007
   17.34722328  166.30200195    1.51999998    2.93000007
   17.35055542  159.87899780    1.51999998    2.93000007
   17.35388947  149.62500000    1.51999998    2.91000009
   17.35694504  150.99000549    1.51999998    2.93000007
   17.35833359  145.12300110    1.51999998    2.93000007
   17.36083412  158.34100342    1.50000000    2.91000009
   17.36388969  159.59800720    1.50000000    2.91000009
   17.36722183  158.36999512    1.50000000    2.93000007
   17.37027740  147.03900146    1.50000000    2.91000009
   17.37361145  154.50399780    1.50000000    2.91000009
   17.37944412  154.50399780    1.50000000    2.91000009
   17.38361168  171.82899475    1.48000002    2.91000009
   17.38666725  186.24299622    1.48000002    2.93000007
   17.38999939  176.40499878    1.48000002    2.93000007
   17.39194489  169.29800415    1.48000002    2.93000007
   17.39361191  184.59399414    1.48000002    2.91000009
   17.39694405  155.02200317    1.48000002    2.91000009
   17.40027809  156.34899902    1.50000000    2.93000007
   17.40333366  171.62600708    1.55999994    2.93000007
   17.40666580  159.84100342    1.58000004    2.91000009
   17.40972137  162.40199280    1.58000004    2.91000009
   17.41305542  151.71800232    1.50000000    2.93000007
   17.41638756  172.65499878    1.48000002    2.93000007
   17.42222214  172.65499878    1.48000002    2.93000007
   17.42638779  159.77000427    1.50000000    2.93000007
   17.42972183  157.75999451    1.48000002    2.91000009
   17.43277740  150.03700256    1.51999998    2.93000007
   17.43610954  140.56599426    1.50000000    2.93000007
   17.43944359  157.93499756    1.50000000    2.91000009
   17.44249916  157.09300232    1.51999998    2.93000007
   17.44583321  142.18099976    1.50000000    2.93000007
   17.44888878  168.88800049    1.50000000    2.91000009
   17.45222282  158.78999329    1.51999998    2.93000007
   17.45555687  168.36700439    1.50000000    2.91000009
   17.45861244  154.87100220    1.50000000    2.91000009
   17.45888901  167.20899963    1.50000000    2.91000009
   17.46500015  167.20899963    1.50000000    2.91000009
   17.46916771  183.86700439    1.50000000    2.93000007
   17.47249985  169.52400208    1.50000000    2.93000007
   17.47583389  209.52699280    1.48000002    2.91000009
   17.47888947  199.91600037    1.48000002    2.91000009
   17.48222351  203.49899292    1.46000004    2.93000007
   17.48555565  202.22700500    1.46000004    2.93000007
   17.48861122  200.00100708    1.44000006    2.93000007
   17.49194527  219.52699280    1.44000006    2.93000007
   17.49222183  198.88999939    1.44000006    2.93000007
   17.49555588  215.34300232    1.39999998    2.93000007
   17.49888992  214.85099792    1.39999998    2.91000009
   17.50194359  193.50900269    1.39999998    2.91000009
   17.50805473  193.50900269    1.41999996    2.91000009
   17.51222229  202.68499756    1.39999998    2.93000007
   17.51527786  187.98399353    1.39999998    2.91000009
   17.51861000  202.97799683    1.39999998    2.93000007
   17.52166557  180.72999573    1.39999998    2.93000007
   17.52499962  176.88299561    1.39999998    2.93000007
   17.52555466  185.34399414    1.39999998    2.93000007
   17.52888870  211.50799561    1.38000000    2.91000009
   17.53194427  198.62699890    1.38000000    2.93000007
   17.53527641  199.75300598    1.38000000    2.93000007
   17.53861046  188.88900757    1.38000000    2.91000009
   17.54166603  174.46499634    1.38000000    2.91000009
   17.54500008  176.48399353    1.39999998    2.94000006
   17.55083275  176.48399353    1.41999996    2.93000007
   17.55499840  197.15199280    1.41999996    2.93000007
   17.55805397  198.20599365    1.44000006    2.91000009
   17.55888748  195.61099243    1.46000004    2.93000007
   17.56194305  197.96400452    1.48000002    2.91000009
   17.56499863  206.10800171    1.48000002    2.91000009
   17.56833458  196.26400757    1.48000002    2.91000009
   17.57166672  206.08099365    1.48000002    2.91000009
   17.57472229  205.81900024    1.48000002    2.93000007
   17.57805634  205.17799377    1.48000002    2.91000009
   17.58111191  215.78700256    1.46000004    2.91000009
   17.58444595  208.48899841    1.48000002    2.93000007
   17.58777809  214.69700623    1.50000000    2.91000009
   17.59361267  214.69700623    1.50000000    2.91000009
   17.59777832  197.17999268    1.50000000    2.91000009
   17.60111237  192.86300659    1.48000002    2.91000009
   17.60416794  182.71899414    1.50000000    2.89000010
   17.60750008  190.25599670    1.51999998    2.93000007
   17.61083412  190.50100708    1.51999998    2.91000009
   17.61388969  193.01199341    1.51999998    2.91000009
   17.61722183  185.62199402    1.53999996    2.91000009
   17.62027740  195.33999634    1.50000000    2.91000009
   17.62361145  188.33799744    1.50000000    2.93000007
   17.62555504  192.00399780    1.50000000    2.93000007
   17.62722206  162.70500183    1.50000000    2.93000007
   17.63027763  176.23800659    1.50000000    2.91000009
   17.63638878  176.23800659    1.55999994    2.91000009
   17.64055634  200.61799622    1.55999994    2.91000009
   17.64388847  192.42399597    1.60000002    2.93000007
   17.64722252  200.98800659    1.58000004    2.91000009
   17.65027809  187.27299500    1.60000002    2.89000010
   17.65361023  183.98300171    1.60000002    2.89000010
   17.65694427  177.07600403    1.60000002    2.91000009
   17.65888786  178.38299561    1.60000002    2.91000009
   17.66055489  173.69200134    1.60000002    2.91000009
   17.66361046  192.96800232    1.61000001    2.91000009
   17.66694450  196.51499939    1.61000001    2.91000009
   17.67027664  201.31399536    1.61000001    2.91000009
   17.67333221  184.63099670    1.61000001    2.91000009
   17.67944336  184.63099670    1.60000002    2.91000009
   17.68361092  199.19299316    1.58000004    2.89000010
   17.68666649  185.04200745    1.58000004    2.91000009
   17.68999863  182.81199646    1.58000004    2.91000009
   17.69222069  205.78500366    1.58000004    2.91000009
   17.69361115  192.82899475    1.58000004    2.93000007
   17.69666672  203.64399719    1.58000004    2.93000007
   17.70000076  185.62899780    1.53999996    2.91000009
   17.70333481  177.28199768    1.53999996    2.91000009
   17.70639038  168.31500244    1.55999994    2.91000009
   17.70972252  183.00100708    1.53999996    2.91000009
   17.71277809  205.66200256    1.53999996    2.91000009
   17.71611214  187.66000366    1.53999996    2.91000009
   17.72222328  187.66000366    1.53999996    2.91000009
   17.72638893  202.39999390    1.55999994    2.91000009
   17.72972298  191.53700256    1.55999994    2.91000009
   17.73277855  222.61300659    1.55999994    2.91000009
   17.73611069  216.57899475    1.55999994    2.91000009
   17.73916626  215.14399719    1.55999994    2.91000009
   17.74250031  244.89500427    1.55999994    2.91000009
   17.74583435  250.59599304    1.55999994    2.91000009
   17.74888992  229.55299377    1.55999994    2.91000009
   17.75222206  217.35499573    1.58000004    2.91000009
   17.75555611  224.71899414    1.53999996    2.91000009
   17.77388954  281.94900513    1.53999996    2.93000007
   17.77805519  281.94900513    1.53999996    2.93000007
   17.78222275  295.03500366    1.53999996    2.93000007
   17.78527641  294.03100586    1.51999998    2.93000007
   17.78861046  304.12100220    1.51999998    2.93000007
   17.79055595  282.08300781    1.51999998    2.93000007
   17.79194450  305.03399658    1.51999998    2.93000007
   17.79333305  283.20901489    1.51999998    2.91000009
   17.79472160  286.50900269    1.51999998    2.91000009
   17.79611015  284.73400879    1.51999998    2.91000009
   17.79749870  277.30801392    1.51999998    2.91000009
   17.79888916  293.13500977    1.51999998    2.91000009
   17.80027771  307.80700684    1.51999998    2.91000009
   17.80166626  277.02999878    1.51999998    2.91000009
   17.80305481  293.02700806    1.51999998    2.91000009
   17.80444336  286.04501343    1.50000000    2.91000009
   17.80583191  277.36999512    1.50000000    2.91000009
   17.80722237  250.55700684    1.50000000    2.91000009
   17.80861092  293.19799805    1.50000000    2.93000007
   17.80999947  250.01600647    1.50000000    2.93000007
   17.81138802  240.86500549    1.51999998    2.91000009
   17.81138802  217.35499573    1.58000004    2.91000009
   17.81166649  224.71899414    1.53999996    2.91000009
   17.81166649  295.03500366    1.53999996    2.93000007
   17.81166649  294.03100586    1.51999998    2.93000007
   17.81194305  304.12100220    1.51999998    2.93000007
   17.81194305  215.14399719    1.55999994    2.91000009
   17.81194305  244.89500427    1.55999994    2.91000009
   17.81222153  250.59599304    1.55999994    2.91000009
   17.81222153  229.55299377    1.55999994    2.91000009
   17.81277657  240.50000000    1.51999998    2.91000009
   17.81611061  251.41400146    1.51999998    2.93000007
   17.81916809  278.71398926    1.51999998    2.93000007
   17.82250023  291.73699951    1.51999998    2.93000007
   17.82583427  263.05398560    1.51999998    2.93000007
   17.83222389  263.05398560    1.50000000    2.93000007
   17.83638954  212.64100647    1.50000000    2.93000007
   17.83972359  229.60800171    1.50000000    2.93000007
   17.84277916  224.09599304    1.48000002    2.93000007
   17.84527779  199.44500732    1.48000002    2.91000009
   17.84666824  221.17999268    1.46000004    2.93000007
   17.84972191  211.88800049    1.46000004    2.93000007
   17.85305595  217.72500610    1.46000004    2.94000006
   17.85639000  210.46200562    1.46000004    2.91000009
   17.85944557  190.65199280    1.46000004    2.91000009
   17.86277771  192.90400696    1.46000004    2.91000009
   17.86611176  208.38999939    1.48000002    2.91000009
   17.86916733  186.14399719    1.48000002    2.93000007
   17.87500000  186.14399719    1.48000002    2.93000007
   17.87916756  181.58299255    1.48000002    2.93000007
   17.88249969  182.90800476    1.48000002    2.93000007
   17.88583374  192.16999817    1.50000000    2.91000009
   17.88888931  192.80000305    1.50000000    2.91000009
   17.89222145  185.54100037    1.51999998    2.93000007
   17.89527702  165.51699829    1.51999998    2.91000009
   17.89861107  169.24800110    1.55999994    2.93000007
   17.90194321  181.62600708    1.55999994    2.91000009
   17.90499878  163.29299927    1.55999994    2.91000009
   17.90833282  166.48100281    1.55999994    2.91000009
   17.91166687  146.29499817    1.55999994    2.93000007
   17.91194344  171.64100647    1.55999994    2.93000007
   17.91805458  171.64100647    1.58000004    2.91000009
   17.92194366  197.82000732    1.60000002    2.91000009
   17.92527771  176.63200378    1.61000001    2.93000007
   17.92860985  151.58700562    1.61000001    2.91000009
   17.93166542  168.74899292    1.63000000    2.91000009
   17.93499947  172.66999817    1.63000000    2.93000007
   17.93833160  165.41299438    1.61000001    2.91000009
   17.94138718  159.38699341    1.61000001    2.91000009
   17.94472122  169.35000610    1.63000000    2.91000009
   17.94527626  167.30400085    1.63000000    2.91000009
   17.94833183  183.65299988    1.63000000    2.91000009
   17.95166779  195.86599731    1.63000000    2.91000009
   17.95472336  170.99200439    1.64999998    2.91000009
   17.96083450  170.99200439    1.66999996    2.91000009
   17.96500015  179.75999451    1.66999996    2.91000009
   17.96805573  186.85400391    1.66999996    2.91000009
   17.97138977  159.97099304    1.66999996    2.91000009
   17.97472191  173.59500122    1.66999996    2.91000009
   17.97777748  178.47000122    1.66999996    2.91000009
   17.97861099  173.91900635    1.66999996    2.91000009
   17.98139000  178.29100037    1.66999996    2.91000009
   17.98472214  152.30999756    1.69000006    2.93000007
   17.98777771  169.92900085    1.69000006    2.93000007
   17.99111176  167.08700562    1.66999996    2.91000009
   17.99444389  177.00199890    1.66999996    2.93000007
   17.99749947  164.80200195    1.64999998    2.91000009
   18.00361061  164.80200195    1.64999998    2.89000010
   18.00777817  150.65800476    1.64999998    2.91000009
   18.01083374  158.64700317    1.66999996    2.91000009
   18.01194382  161.80700684    1.66999996    2.91000009
   18.01444435  165.60099792    1.66999996    2.91000009
   18.01777840  163.47399902    1.66999996    2.91000009
   18.02083397  160.81399536    1.66999996    2.93000007
   18.02416611  160.29200745    1.64999998    2.91000009
   18.02750015  147.34100342    1.64999998    2.91000009
   18.03055573  157.62800598    1.64999998    2.91000009
   18.03388786  164.20799255    1.64999998    2.91000009
   18.03722191  163.72999573    1.64999998    2.91000009
   18.04027748  153.96899414    1.63000000    2.91000009
   18.04638863  153.96899414    1.64999998    2.93000007
   18.05055428  151.45799255    1.64999998    2.93000007
   18.05388832  178.77699280    1.66999996    2.91000009
   18.05694389  171.00999451    1.63000000    2.91000009
   18.06027794  184.47900391    1.63000000    2.89000010
   18.06361008  175.35800171    1.63000000    2.91000009
   18.06666756  169.85800171    1.63000000    2.91000009
   18.07000160  179.07299805    1.64999998    2.89000010
   18.07333374  191.62399292    1.66999996    2.91000009
   18.07638931  175.38499451    1.66999996    2.91000009
   18.07861137  174.33599854    1.66999996    2.91000009
   18.08000183  177.00999451    1.66999996    2.91000009
   18.08333397  176.81599426    1.66999996    2.89000010
   18.08944511  176.81599426    1.66999996    2.91000009
   18.09361267  190.66200256    1.66999996    2.91000009
   18.09666824  181.07600403    1.66999996    2.91000009
   18.10000038  188.19999695    1.66999996    2.91000009
   18.10305595  203.62899780    1.66999996    2.91000009
   18.10639000  180.21600342    1.66999996    2.91000009
   18.10972214  193.98100281    1.69000006    2.91000009
   18.11222267  195.12899780    1.69000006    2.91000009
   18.11333466  182.24600220    1.66999996    2.91000009
   18.11666679  190.88800049    1.66999996    2.91000009
   18.11972237  170.73199463    1.69000006    2.91000009
   18.12305641  172.63000488    1.69000006    2.91000009
   18.12638855  191.80700684    1.71000004    2.91000009
   18.13222313  191.80700684    1.71000004    2.89000010
   18.13638878  187.84899902    1.71000004    2.89000010
   18.13944435  175.36900330    1.69000006    2.91000009
   18.14277840  182.75199890    1.69000006    2.91000009
   18.14555550  195.19099426    1.69000006    2.91000009
   18.14638901  191.50599670    1.66999996    2.91000009
   18.14972115  163.46099854    1.66999996    2.91000009
   18.15277672  186.66499329    1.66999996    2.91000009
   18.15611076  200.53999329    1.66999996    2.91000009
   18.15944481  211.00900269    1.66999996    2.91000009
   18.16250038  211.18299866    1.64999998    2.89000010
   18.16583252  212.24499512    1.66999996    2.91000009
   18.16888809  197.56799316    1.66999996    2.91000009
   18.17499924  197.56799316    1.64999998    2.91000009
   18.17916679  213.24400330    1.64999998    2.91000009
   18.18249893  207.45300293    1.63000000    2.91000009
   18.18555450  216.07800293    1.63000000    2.91000009
   18.18888855  215.12800598    1.63000000    2.89000010
   18.19194412  206.95700073    1.63000000    2.89000010
   18.19527626  221.10499573    1.63000000    2.89000010
   18.19861031  248.39799500    1.63000000    2.89000010
   18.20166779  224.07699585    1.64999998    2.91000009
   18.20499992  221.84399414    1.64999998    2.89000010
   18.20805550  262.95999146    1.64999998    2.89000010
   18.21138954  214.42300415    1.64999998    2.89000010
   18.21222305  222.11599731    1.64999998    2.89000010
   18.21777916  222.11599731    1.66999996    2.89000010
   18.22194481  221.56300354    1.66999996    2.91000009
   18.22527885  198.27099609    1.66999996    2.91000009
   18.22833443  229.72700500    1.66999996    2.91000009
   18.23166656  224.21800232    1.66999996    2.91000009
   18.23500061  239.23899841    1.69000006    2.91000009
   18.23805618  208.69700623    1.66999996    2.91000009
   18.24138832  237.13999939    1.66999996    2.89000010
   18.24472237  189.52499390    1.66999996    2.91000009
   18.24555588  229.52900696    1.66999996    2.89000010
   18.24805641  230.88200378    1.66999996    2.89000010
   18.25138855  223.21000671    1.66999996    2.89000010
   18.25472260  203.95500183    1.69000006    2.89000010
   18.26083374  203.95500183    1.69000006    2.89000010
   18.26472282  239.95399475    1.71000004    2.91000009
   18.26805496  230.85899353    1.71000004    2.89000010
   18.27138901  209.19999695    1.71000004    2.89000010
   18.27444458  230.72500610    1.71000004    2.89000010
   18.27777672  222.06799316    1.73000002    2.89000010
   18.27888870  236.82800293    1.73000002    2.89000010
   18.28138924  231.85600281    1.73000002    2.89000010
   18.28472137  225.46499634    1.73000002    2.89000010
   18.28805542  217.51100159    1.73000002    2.91000009
   18.29111099  208.37600708    1.73000002    2.89000010
   18.29444313  214.90400696    1.73000002    2.89000010
   18.29749870  210.50599670    1.75000000    2.91000009
   18.30360985  210.50599670    1.76999998    2.91000009
   18.30777740  189.93299866    1.76999998    2.89000010
   18.31083298  217.53799438    1.76999998    2.89000010
   18.31222153  210.98800659    1.76999998    2.89000010
   18.31444359  212.32299805    1.78999996    2.91000009
   18.31777954  224.01600647    1.76999998    2.89000010
   18.32111168  200.64799500    1.76999998    2.86999989
   18.32416725  222.06700134    1.76999998    2.91000009
   18.32750130  229.61999512    1.76999998    2.91000009
   18.33055687  209.78199768    1.76999998    2.89000010
   18.33388901  213.85499573    1.76999998    2.89000010
   18.33722305  205.49200439    1.76999998    2.89000010
   18.34027863  186.02099609    1.78999996    2.91000009
   18.34638977  186.02099609    1.78999996    2.89000010
   18.35055542  194.85099792    1.80999994    2.89000010
   18.35361099  199.71400452    1.80999994    2.91000009
   18.35694504  181.31500244    1.83000004    2.89000010
   18.36027908  187.22000122    1.85000002    2.89000010
   18.36333466  194.40400696    1.85000002    2.89000010
   18.36666679  192.80299377    1.85000002    2.91000009
   18.37000084  188.83399963    1.85000002    2.91000009
   18.37305641  175.67500305    1.86000001    2.89000010
   18.37638855  198.09199524    1.88000000    2.89000010
   18.37888908  210.56100464    1.88000000    2.89000010
   18.38000107  205.58900452    1.88000000    2.89000010
   18.38333321  204.52400208    1.88000000    2.89000010
   18.38916588  204.52400208    1.88000000    2.89000010
   18.39333344  211.53500366    1.86000001    2.89000010
   18.39666748  202.61399841    1.86000001    2.89000010
   18.39972115  213.73699951    1.86000001    2.91000009
   18.40305519  216.98199463    1.86000001    2.89000010
   18.40638924  225.86099243    1.88000000    2.86999989
   18.40972137  228.90699768    1.89999998    2.89000010
   18.41222191  226.25100708    1.89999998    2.89000010
   18.41333389  204.63299561    1.88000000    2.89000010
   18.41666603  198.66400146    1.89999998    2.89000010
   18.41972160  183.91000366    1.89999998    2.89000010
   18.42305565  179.54800415    1.94000006    2.89000010
   18.42638779  183.19000244    2.00000000    2.86999989
   18.43194389  183.19000244    2.00000000    2.89000010
   18.43610954  199.00500488    1.98000002    2.89000010
   18.43944359  180.22700500    1.98000002    2.89000010
   18.44277763  176.28599548    1.98000002    2.89000010
   18.44555473  162.80000305    1.98000002    2.89000010
   18.44610977  176.72599792    1.98000002    2.89000010
   18.44944382  171.66000366    1.98000002    2.89000010
   18.45250130  152.82899475    1.98000002    2.89000010
   18.45583344  179.84599304    1.96000004    2.89000010
   18.45916748  165.23100281    1.96000004    2.89000010
   18.46222305  159.18699646    1.96000004    2.89000010
   18.46555710  181.46000671    1.96000004    2.89000010
   18.46888924  205.03100586    1.98000002    2.89000010
   18.47500038  205.03100586    1.96000004    2.89000010
   18.47916794  208.26400757    1.96000004    2.89000010
   18.48222351  198.95300293    1.96000004    2.89000010
   18.48555565  194.43899536    1.96000004    2.89000010
   18.48888969  185.76699829    1.94000006    2.86999989
   18.49194527  201.15899658    1.96000004    2.89000010
   18.49527740  189.95500183    1.96000004    2.86999989
   18.49833298  191.81900024    1.96000004    2.86999989
   18.50166702  191.00700378    1.96000004    2.89000010
   18.50499916  196.12199402    1.98000002    2.86999989
   18.50805473  166.67599487    1.96000004    2.89000010
   18.51138878  198.59500122    1.94000006    2.89000010
   18.51222229  203.64700317    1.96000004    2.89000010
   18.51777840  203.64700317    1.94000006    2.86999989
   18.52194405  207.59599304    1.94000006    2.89000010
   18.52527809  179.27299500    1.94000006    2.89000010
   18.52833366  194.25399780    1.94000006    2.89000010
   18.53166580  199.26800537    1.94000006    2.86999989
   18.53472137  183.63499451    1.91999996    2.89000010
   18.53805542  179.43600464    1.89999998    2.89000010
   18.54138756  213.58599854    1.91999996    2.91000009
   18.54444313  202.69999695    1.91999996    2.89000010
   18.54555511  185.45100403    1.89999998    2.89000010
   18.54805565  180.85299683    1.88000000    2.86999989
   18.55138779  167.29899597    1.88000000    2.89000010
   18.55472183  141.62300110    1.86000001    2.89000010
   18.56055450  141.62300110    1.85000002    2.86999989
   18.56472206  164.33299255    1.85000002    2.89000010
   18.56805611  179.72999573    1.85000002    2.86999989
   18.57111168  157.28399658    1.83000004    2.91000009
   18.57444572  164.26899719    1.85000002    2.89000010
   18.57777786  171.48100281    1.83000004    2.89000010
   18.57888985  163.82699585    1.83000004    2.89000010
   18.58111191  191.39599609    1.85000002    2.89000010
   18.58444595  186.93099976    1.85000002    2.89000010
   18.58777809  169.20599365    1.83000004    2.86999989
   18.59083366  156.23100281    1.85000002    2.86999989
   18.59416771  174.81599426    1.85000002    2.89000010
   18.59722328  181.08700562    1.85000002    2.89000010
   18.60361099  181.08700562    1.83000004    2.86999989
   18.60750008  173.25300598    1.83000004    2.89000010
   18.61083412  188.25300598    1.83000004    2.89000010
   18.61222267  205.05200195    1.83000004    2.86999989
   18.61444473  193.61799622    1.85000002    2.89000010
   18.61777878  187.43800354    1.85000002    2.86999989
   18.62111092  200.27000427    1.85000002    2.86999989
   18.62416649  171.79200745    1.85000002    2.86999989
   18.62750053  195.54400635    1.85000002    2.89000010
   18.63083267  179.70899963    1.86000001    2.86999989
   18.63388824  178.37600708    1.86000001    2.86999989
   18.63722229  177.87800598    1.86000001    2.86999989
   18.64027786  201.97599792    1.86000001    2.89000010
   18.64638901  201.97599792    1.86000001    2.89000010
   18.65055466  175.17500305    1.88000000    2.86999989
   18.65361023  170.19999695    1.88000000    2.89000010
   18.65694427  174.80700684    1.89999998    2.89000010
   18.66027832  165.94200134    1.89999998    2.89000010
   18.66333389  168.53300476    1.89999998    2.89000010
   18.66666603  181.00500488    1.91999996    2.89000010
   18.66972160  180.35099792    1.91999996    2.86999989
   18.67305565  157.45500183    1.91999996    2.89000010
   18.67638779  173.79699707    1.91999996    2.86999989
   18.67888832  178.11500549    1.91999996    2.86999989
   18.67972183  178.37100220    1.91999996    2.86999989
   18.68305397  178.84300232    1.91999996    2.86999989
   18.68916512  178.84300232    1.94000006    2.86999989
   18.69333267  169.30999756    1.94000006    2.86999989
   18.69638824  190.65499878    1.91999996    2.86999989
   18.69972038  167.60200500    1.91999996    2.86999989
   18.70305634  159.64999390    1.94000006    2.86999989
   18.70611191  150.94900513    1.91999996    2.86999989
   18.70944595  150.85499573    1.91999996    2.86999989
   18.71222305  155.58999634    1.94000006    2.86999989
   18.71305656  165.05200195    1.94000006    2.86999989
   18.71638870  167.63299561    1.96000004    2.89000010
   18.71972275  168.80799866    2.00000000    2.84999990
   18.72277832  165.36999512    2.00000000    2.84999990
   18.72611237  156.88800049    1.98000002    2.86999989
   18.73194504  156.88800049    1.98000002    2.86999989
   18.73611069  146.38499451    1.98000002    2.86999989
   18.73944473  157.19500732    2.00000000    2.86999989
   18.74250031  168.44500732    2.00000000    2.86999989
   18.74555588  142.85499573    1.98000002    2.86999989
   18.74611092  149.19900513    1.98000002    2.86999989
   18.74944496  165.01199341    1.98000002    2.86999989
   18.75277710  168.75300598    1.98000002    2.86999989
   18.75583267  174.30999756    1.98000002    2.84999990
   18.75916672  168.79899597    1.98000002    2.86999989
   18.76250076  164.91799927    1.98000002    2.86999989
   18.76555634  184.30200195    1.98000002    2.86999989
   18.76888847  184.33299255    1.98000002    2.86999989
   18.79111099  172.32800293    1.96000004    2.86999989
   18.79166603  163.57499695    1.96000004    2.86999989
   18.79500008  170.04800415    1.96000004    2.86999989
   18.79805565  166.19400024    1.98000002    2.86999989
   18.80138779  172.49200439    1.98000002    2.86999989
   18.80444336  173.09399414    1.98000002    2.86999989
   18.80777740  157.57699585    2.01999998    2.86999989
   18.81110954  161.52799988    2.03999996    2.86999989
   18.81777954  161.52799988    2.19000006    2.86999989
   18.82194519  183.80000305    2.19000006    2.86999989
   18.82416725  183.93200684    2.17000008    2.86999989
   18.82555580  186.74099731    2.17000008    2.84999990
   18.82888985  187.88299561    2.21000004    2.86999989
   18.83194542  185.11700439    2.11999989    2.86999989
   18.83527756  171.55200195    2.09999990    2.86999989
   18.83861160  172.54100037    2.07999992    2.86999989
   18.84166718  186.03700256    2.07999992    2.86999989
   18.84500122  170.17999268    2.09999990    2.86999989
   18.84833336  188.51100159    2.07999992    2.84999990
   18.85138893  204.63800049    2.07999992    2.86999989
   18.85472298  183.32600403    2.05999994    2.86999989
   18.86055565  183.32600403    2.05999994    2.86999989
   18.86472321  185.98399353    2.07999992    2.86999989
   18.86805534  184.47799683    2.07999992    2.84999990
   18.87111092  176.66499329    2.09999990    2.86999989
   18.87444496  182.67399597    2.09999990    2.86999989
   18.87750053  190.80900574    2.09999990    2.84999990
   18.88083267  192.49299622    2.07999992    2.86999989
   18.88416672  195.77699280    2.09999990    2.86999989
   18.88722229  216.24899292    2.07999992    2.86999989
   18.89055634  199.53999329    2.09999990    2.86999989
   18.89138794  196.25999451    2.09999990    2.86999989
   18.89416695  197.62500000    2.09999990    2.86999989
   18.89749908  189.66600037    2.09999990    2.86999989
   18.90333366  189.66600037    2.11999989    2.84999990
   18.90749931  212.89700317    2.13000011    2.84999990
   18.91083336  219.65600586    2.13000011    2.84999990
   18.91388893  218.28900146    2.15000010    2.84999990
   18.91722107  205.10299683    2.17000008    2.84999990
   18.92055511  210.66999817    2.17000008    2.86999989
   18.92361069  200.69500732    2.17000008    2.86999989
   18.92472076  207.59700012    2.19000006    2.84999990
   18.92722130  204.11900330    2.19000006    2.86999989
   18.93055534  218.08999634    2.23000002    2.86999989
   18.93361092  211.20300293    2.21000004    2.84999990
   18.93694305  198.99699402    2.23000002    2.84999990
   18.94027710  194.87800598    2.21000004    2.84999990
   18.94638824  194.87800598    2.19000006    2.86999989
   18.95027924  193.79899597    2.21000004    2.84999990
   18.95361137  200.50399780    2.19000006    2.84999990
   18.95694542  203.90899658    2.19000006    2.84999990
   18.95833397  203.60699463    2.17000008    2.84999990
   18.96055603  202.12699890    2.17000008    2.84999990
   18.96361160  192.39900208    2.17000008    2.84999990
   18.96694565  199.84100342    2.19000006    2.84999990
   18.97027779  179.17100525    2.19000006    2.84999990
   18.97333336  167.63499451    2.21000004    2.84999990
   18.97666740  194.19200134    2.25000000    2.84999990
   18.97972298  182.98699951    2.30999994    2.86999989
   18.98305511  181.87500000    2.30999994    2.84999990
   18.98916626  181.87500000    2.32999992    2.84999990
   18.99333382  159.83200073    2.32999992    2.84999990
   18.99638939  173.77200317    2.32999992    2.84999990
   18.99972153  164.25500488    2.34999990    2.84999990
   19.00305557  188.21800232    2.36999989    2.84999990
   19.00611115  181.36599731    2.36999989    2.84999990
   19.00944519  184.47500610    2.36999989    2.82999992
   19.01277733  188.61799622    2.36999989    2.84999990
   19.01583290  189.97300720    2.34999990    2.84999990
   19.01916695  189.86199951    2.32999992    2.84999990
   19.02222252  188.80499268    2.32999992    2.84999990
   19.02499962  173.26400757    2.30999994    2.84999990
   19.02611160  190.03999329    2.30999994    2.84999990
   19.03194427  190.03999329    2.30999994    2.84999990
   19.03610992  191.33999634    2.30999994    2.84999990
   19.03944397  172.84599304    2.30999994    2.84999990
   19.04249954  182.32699585    2.30999994    2.84999990
   19.04583359  193.68200684    2.30999994    2.84999990
   19.04888916  199.43299866    2.28999996    2.84999990
   19.05222130  182.54100037    2.28999996    2.84999990
   19.05555534  194.64100647    2.36999989    2.84999990
   19.05833244  182.52299500    2.55999994    2.84999990
   19.05916595  191.16400146    2.55999994    2.84999990
   19.06222153  184.98399353    2.34999990    2.86999989
   19.06555557  195.69299316    2.30999994    2.86999989
   19.06888962  196.35299683    2.30999994    2.84999990
   19.07472229  196.35299683    2.30999994    2.84999990
   19.07888985  183.48100281    2.30999994    2.84999990
   19.08222389  179.40199280    2.30999994    2.84999990
   19.08527756  184.55799866    2.28999996    2.82999992
   19.08861160  182.97200012    2.30999994    2.84999990
   19.09166718  196.43499756    2.28999996    2.84999990
   19.09222221  171.58000183    2.28999996    2.84999990
   19.09527779  184.85200500    2.30999994    2.84999990
   19.09861183  195.27699280    2.32999992    2.84999990
   19.10194397  183.40499878    2.30999994    2.84999990
   19.10499954  191.64999390    2.32999992    2.84999990
   19.10833359  181.82000732    2.32999992    2.82999992
   19.11166763  192.97799683    2.32999992    2.82999992
   19.11777878  192.97799683    2.34999990    2.84999990
   19.12166595  205.83599854    2.34999990    2.84999990
   19.12500000  193.64799500    2.36999989    2.84999990
   19.12555504  191.28999329    2.36999989    2.84999990
   19.12861061  208.46899414    2.34999990    2.84999990
   19.13194466  206.19000244    2.36999989    2.82999992
   19.13527679  211.56199646    2.36999989    2.84999990
   19.13833237  200.37899780    2.36999989    2.84999990
   19.14166641  213.97500610    2.39000010    2.84999990
   19.14500046  218.02600098    2.40000010    2.84999990
   19.14805603  214.86199951    2.40000010    2.84999990
   19.15138817  210.92599487    2.40000010    2.82999992
   19.15444374  218.93400574    2.40000010    2.84999990
   19.16055489  218.93400574    2.42000008    2.84999990
   19.16472244  238.22700500    2.44000006    2.84999990
   19.16777802  245.93200684    2.42000008    2.84999990
   19.17111015  253.59199524    2.44000006    2.84999990
   19.17444420  270.05899048    2.42000008    2.84999990
   19.17749977  237.51400757    2.42000008    2.84999990
   19.18083191  224.31700134    2.42000008    2.84999990
   19.18388748  240.95100403    2.42000008    2.84999990
   19.18722153  227.84300232    2.44000006    2.82999992
   19.19055557  238.97700500    2.44000006    2.82999992
   19.19166565  241.55900574    2.44000006    2.84999990
   19.19416618  243.52699280    2.44000006    2.82999992
   19.19722176  219.27200317    2.46000004    2.82999992
   19.20333481  219.27200317    2.46000004    2.82999992
   19.20750046  232.55000305    2.46000004    2.82999992
   19.21083450  237.47999573    2.48000002    2.82999992
   19.21389008  221.03700256    2.48000002    2.84999990
   19.21722221  225.43899536    2.46000004    2.82999992
   19.22027779  225.45599365    2.46000004    2.82999992
   19.22361183  241.14100647    2.46000004    2.82999992
   19.22500038  221.75100708    2.44000006    2.82999992
   19.22722244  219.00500488    2.44000006    2.82999992
   19.23027802  250.19900513    2.46000004    2.84999990
   19.23361206  250.26199341    2.44000006    2.82999992
   19.23694420  250.28399658    2.46000004    2.82999992
   19.23999977  238.17900085    2.46000004    2.82999992
   19.24611092  238.17900085    2.55999994    2.82999992
   19.25027847  233.29299927    2.55999994    2.82999992
   19.25361061  234.99099731    2.57999992    2.82999992
   19.25666618  239.20100403    2.53999996    2.82999992
   19.25861168  221.22000122    2.51999998    2.82999992
   19.26055527  246.71299744    2.50000000    2.82999992
   19.26361084  242.89999390    2.50000000    2.82999992
   19.26694489  237.68200684    2.48000002    2.82999992
   19.27027702  263.92001343    2.50000000    2.82999992
   19.27333260  233.11099243    2.48000002    2.82999992
   19.27666664  226.84100342    2.48000002    2.82999992
   19.27972221  226.42900085    2.48000002    2.82999992
   19.28305435  227.47399902    2.48000002    2.82999992
   19.28916550  227.47399902    2.50000000    2.82999992
   19.29305458  235.15699768    2.50000000    2.82999992
   19.29638863  228.97399902    2.51999998    2.82999992
   19.29972076  221.25799561    2.53999996    2.82999992
   19.30277634  221.06700134    2.55999994    2.82999992
   19.30611038  213.95300293    2.57999992    2.82999992
   19.30944443  212.52999878    2.59999990    2.82999992
   19.31250000  203.39100647    2.59999990    2.82999992
   19.31583214  198.74200439    2.61999989    2.82999992
   19.31888962  218.06100464    2.64000010    2.82999992
   19.32222366  202.88200378    2.64000010    2.82999992
   19.32527924  212.06799316    2.66000009    2.82999992
   19.32611275  197.01100159    2.66000009    2.82999992
   19.33194542  197.01100159    2.67000008    2.80999994
   19.33611107  210.65899658    2.67000008    2.82999992
   19.33916664  208.28199768    2.67000008    2.80999994
   19.34250069  192.73300171    2.67000008    2.80999994
   19.34583473  204.60499573    2.69000006    2.82999992
   19.34889030  201.33299255    2.67000008    2.82999992
   19.35222244  219.69799805    2.67000008    2.82999992
   19.35555649  215.15699768    2.67000008    2.82999992
   19.35861206  203.05099487    2.69000006    2.82999992
   19.35916710  208.75700378    2.69000006    2.82999992
   19.36222267  201.49899292    2.71000004    2.80999994
   19.36555672  209.18899536    2.71000004    2.80999994
   19.36888885  199.02099609    2.71000004    2.82999992
   19.37472153  199.02099609    2.71000004    2.82999992
   19.37888908  214.55200195    2.69000006    2.82999992
   19.38222313  227.77900696    2.71000004    2.80999994
   19.38527679  198.91700745    2.71000004    2.82999992
   19.38861084  194.74099731    2.71000004    2.82999992
   19.39166641  193.39599609    2.73000002    2.82999992
   19.39222145  197.97000122    2.73000002    2.82999992
   19.39555550  206.77000427    2.73000002    2.80999994
   19.39888954  185.23199463    2.75000000    2.82999992
   19.40194321  194.23500061    2.76999998    2.82999992
   19.40527725  184.60200500    2.78999996    2.80999994
   19.40861130  183.95599365    2.82999992    2.80999994
   19.41166687  185.15699768    2.82999992    2.80999994
   19.41749954  185.15699768    2.82999992    2.80999994
   19.42166519  188.92100525    2.84999990    2.80999994
   19.42499924  190.70799255    2.82999992    2.82999992
   19.42555428  194.34700012    2.82999992    2.80999994
   19.42860985  176.06599426    2.84999990    2.80999994
   19.43194389  187.08399963    2.84999990    2.80999994
   19.43499947  187.63499451    2.82999992    2.80999994
   19.43833160  182.94599915    2.82999992    2.80999994
   19.44166565  187.98699951    2.82999992    2.80999994
   19.44472122  191.63699341    2.82999992    2.80999994
   19.44805527  190.42500305    2.82999992    2.80999994
   19.45111275  202.32499695    2.80999994    2.80999994
   19.45444489  204.39399719    2.80999994    2.80999994
   19.46055603  204.39399719    2.80999994    2.80999994
   19.46444511  190.58999634    2.80999994    2.80999994
   19.46777916  217.28700256    2.80999994    2.80999994
   19.47111130  226.91600037    2.80999994    2.82999992
   19.47416687  239.72700500    2.80999994    2.80999994
   19.47750092  221.03999329    2.80999994    2.80999994
   19.48083305  226.78100586    2.80999994    2.80999994
   19.48388863  209.79400635    2.80999994    2.80999994
   19.48722267  209.86300659    2.82999992    2.80999994
   19.49027824  193.63400269    2.82999992    2.80999994
   19.49222183  211.33900452    2.82999992    2.80999994
   19.49388885  219.29899597    2.84999990    2.80999994
   19.49722290  209.47999573    2.82999992    2.80999994
   19.50333405  209.47999573    2.82999992    2.80999994
   19.50749969  203.51100159    2.82999992    2.80999994
   19.51055527  190.48100281    2.82999992    2.80999994
   19.51388931  183.18400574    2.84999990    2.78999996
   19.51694489  183.58599854    2.86999989    2.80999994
   19.52027702  177.60000610    2.84999990    2.80999994
   19.52361107  196.67500305    2.84999990    2.80999994
   19.52555466  197.86700439    2.84999990    2.80999994
   19.52722168  185.50700378    2.84999990    2.80999994
   19.53055573  191.87800598    2.86999989    2.80999994
   19.53361130  190.59700012    2.89000010    2.82999992
   19.53694344  183.53500366    2.89000010    2.78999996
   19.54027748  186.35800171    2.86999989    2.80999994
   19.54611015  186.35800171    2.89000010    2.80999994
   19.55027771  171.53900146    2.91000009    2.80999994
   19.55333328  196.63000488    2.91000009    2.80999994
   19.55666542  188.34800720    2.91000009    2.80999994
   19.55888748  175.33700562    2.91000009    2.78999996
   19.56027794  178.88600159    2.91000009    2.80999994
   19.56361008  176.15299988    2.91000009    2.80999994
   19.56666756  170.24499512    2.91000009    2.80999994
   19.57000160  191.58900452    2.91000009    2.78999996
   19.57333374  161.39100647    2.91000009    2.80999994
   19.57638931  169.32699585    2.91000009    2.80999994
   19.57972336  159.02299500    2.91000009    2.80999994
   19.58277893  170.84199524    2.89000010    2.78999996
   19.58889008  170.84199524    2.91000009    2.80999994
   19.59305573  168.71800232    2.91000009    2.78999996
   19.59638977  170.34100342    2.89000010    2.80999994
   19.59972191  180.11000061    2.91000009    2.80999994
   19.60277748  150.00599670    2.91000009    2.78999996
   19.60611153  177.66799927    2.93000007    2.80999994
   19.60916710  174.52999878    2.93000007    2.80999994
   19.61250114  164.74800110    2.94000006    2.80999994
   19.61583328  166.89100647    2.96000004    2.78999996
   19.61888885  162.63600159    2.94000006    2.78999996
   19.62222290  167.36199951    2.96000004    2.80999994
   19.62555504  168.09500122    2.96000004    2.78999996
   19.62583351  163.07000732    2.96000004    2.78999996
   19.63166618  163.07000732    2.98000002    2.80999994
   19.63583374  190.01199341    3.00000000    2.78999996
   19.63916588  164.83999634    2.98000002    2.78999996
   19.64249992  169.20899963    3.00000000    2.78999996
   19.64555550  165.30099487    3.00000000    2.78999996
   19.64888954  163.75799561    3.01999998    2.78999996
   19.65194321  149.25100708    3.01999998    2.78999996
   19.65527725  166.66799927    3.03999996    2.78999996
   19.65861130  167.54299927    3.03999996    2.78999996
   19.65944481  161.60099792    3.03999996    2.78999996
   19.66222191  155.12399292    3.03999996    2.78999996
   19.66555595  162.35699463    3.03999996    2.78999996
   19.66860962  160.56500244    3.05999994    2.80999994
   19.67472076  160.56500244    3.05999994    2.78999996
   19.67888832  159.46299744    3.05999994    2.78999996
   19.68194389  160.69900513    3.03999996    2.78999996
   19.68527603  150.28999329    3.03999996    2.78999996
   19.68833160  168.26199341    3.03999996    2.76999998
   19.69166565  167.26400757    3.03999996    2.78999996
   19.69277763  158.31599426    3.03999996    2.78999996
   19.69527626  157.40499878    3.03999996    2.78999996
   19.69861031  166.28399658    3.03999996    2.78999996
   19.70166779  155.04800415    3.03999996    2.78999996
   19.70499992  159.60400391    3.05999994    2.78999996
   19.70833397  157.40400696    3.05999994    2.78999996
   19.71138954  149.46499634    3.07999992    2.78999996
   19.71750069  149.46499634    3.14000010    2.78999996
   19.72166634  166.07899475    3.14000010    2.76999998
   19.72472191  169.60099792    3.14000010    2.78999996
   19.72611237  167.88000488    3.14000010    2.78999996
   19.72833443  161.47300720    3.14000010    2.78999996
   19.73166656  164.86700439    3.14000010    2.78999996
   19.73472214  168.25599670    3.11999989    2.78999996
   19.73805618  159.29899597    3.09999990    2.78999996
   19.74138832  161.58299255    3.07999992    2.78999996
   19.74444389  153.91900635    3.14000010    2.78999996
   19.74777794  162.51699829    3.07999992    2.78999996
   19.75111198  163.67599487    3.03999996    2.78999996
   19.75416756  173.12300110    3.01999998    2.78999996
   19.76027870  173.12300110    3.18000007    2.80999994
   19.76444435  160.63000488    3.18000007    2.78999996
   19.76777840  161.80799866    3.14000010    2.78999996
   19.77083397  151.97399902    3.14000010    2.76999998
   19.77416611  163.68899536    3.09999990    2.76999998
   19.77750015  142.91099548    3.11999989    2.78999996
   19.78055573  151.49400330    3.11999989    2.78999996
   19.78388786  139.14399719    3.11999989    2.78999996
   19.78694344  148.46200562    3.14000010    2.78999996
   19.79027748  136.11799622    3.16000009    2.78999996
   19.80833244  154.45500183    3.11999989    2.78999996
   19.81250000  154.45500183    3.11999989    2.78999996
   19.81638718  149.62199402    3.09999990    2.78999996
   19.81972313  156.88699341    3.09999990    2.78999996
   19.82305717  156.25900269    3.09999990    2.78999996
   19.82611275  151.66099548    3.09999990    2.76999998
   19.82944489  143.57299805    3.11999989    2.78999996
   19.83277893  151.25199890    3.14000010    2.76999998
   19.83583450  155.13699341    3.18000007    2.76999998
   19.83916664  147.62699890    3.11999989    2.78999996
   19.84138870  151.94999695    3.14000010    2.76999998
   19.84277916  149.90600586    3.16000009    2.76999998
   19.84583473  155.01100159    3.16000009    2.78999996
   19.84916687  150.91700745    3.18000007    2.78999996
   19.85527802  150.91700745    3.20000005    2.76999998
   19.85944557  156.08999634    3.21000004    2.76999998
   19.86250114  162.80799866    3.21000004    2.76999998
   19.86583328  165.73500061    3.21000004    2.76999998
   19.86916733  174.62100220    3.23000002    2.76999998
   19.87222290  167.00000000    3.25000000    2.76999998
   19.87472153  158.63499451    3.25000000    2.76999998
   19.87583351  151.66700745    3.25000000    2.76999998
   19.87888908  162.51699829    3.25000000    2.75000000
   19.88222313  152.50399780    3.25000000    2.76999998
   19.88555527  168.28500366    3.23000002    2.76999998
   19.88861084  166.57600403    3.26999998    2.76999998
   19.89194489  154.10800171    3.28999996    2.76999998
   19.89805603  154.10800171    3.41000009    2.76999998
   19.90222168  160.18099976    3.26999998    2.76999998
   19.90555573  168.53700256    3.23000002    2.76999998
   19.90805435  172.69099426    3.23000002    2.76999998
   19.90916634  156.69999695    3.21000004    2.76999998
   19.91250038  151.15499878    3.23000002    2.75000000
   19.91555595  156.38800049    3.23000002    2.76999998
   19.91888809  159.87600708    3.25000000    2.78999996
   19.92194366  158.50199890    3.25000000    2.76999998
   19.92527771  158.31900024    3.25000000    2.76999998
   19.92860985  148.72799683    3.28999996    2.75000000
   19.93166542  151.75799561    3.30999994    2.76999998
   19.93499947  159.13699341    3.32999992    2.76999998
   19.94083214  159.13699341    3.36999989    2.76999998
   19.94499969  162.06199646    3.34999990    2.76999998
   19.94833183  170.19599915    3.36999989    2.76999998
   19.95166779  166.76600647    3.41000009    2.76999998
   19.95472336  167.05200195    3.43000007    2.75000000
   19.95805550  150.56500244    3.45000005    2.76999998
   19.96111107  153.34700012    3.45000005    2.76999998
   19.96444511  155.16200256    3.46000004    2.75000000
   19.96777916  150.54899597    3.48000002    2.76999998
   19.97083473  172.08900452    3.48000002    2.76999998
   19.97416687  168.48100281    3.46000004    2.75000000
   19.97611237  163.70100403    3.46000004    2.75000000
   19.97777748  168.21800232    3.46000004    2.76999998
   19.98388863  168.21800232    3.45000005    2.76999998
   19.98777771  163.21600342    3.45000005    2.75000000
   19.99111176  170.08999634    3.43000007    2.75000000
   19.99444389  168.69299316    3.43000007    2.76999998
   19.99749947  153.86999512    3.43000007    2.76999998
   20.00083351  169.57299805    3.45000005    2.75000000
   20.00416756  186.78500366    3.45000005    2.75000000
   20.00722313  168.61000061    3.45000005    2.75000000
   20.00944519  157.35400391    3.48000002    2.75000000
   20.01083374  165.23699951    3.50000000    2.75000000
   20.01416588  162.15899658    3.55999994    2.76999998
   20.01749992  164.45500183    3.61999989    2.75000000
   20.02055550  177.88099670    3.61999989    2.75000000
   20.02666664  177.88099670    3.73000002    2.75000000
   20.03083229  156.13900757    3.97000003    2.73000002
   20.03388786  167.84199524    4.03999996    2.75000000
   20.03722191  177.10800171    3.97000003    2.75000000
   20.04055595  176.96299744    3.86999989    2.75000000
   20.04277802  183.18899536    3.78999996    2.75000000
   20.04416656  175.31399536    3.70000005    2.76999998
   20.04749870  173.04499817    3.70000005    2.75000000
   20.05055428  179.18899536    3.66000009    2.75000000
   20.05388832  164.68600464    3.64000010    2.75000000
   20.05694389  174.37500000    3.66000009    2.75000000
   20.06027794  168.04899597    3.61999989    2.75000000
   20.06361008  173.71200562    3.57999992    2.75000000
   20.06944466  173.71200562    3.55999994    2.75000000
   20.07361221  161.77200317    3.51999998    2.73000002
   20.07611275  173.75999451    3.50000000    2.75000000
   20.07722282  172.61799622    3.50000000    2.75000000
   20.08055687  175.55000305    3.48000002    2.75000000
   20.08361244  171.52600098    3.46000004    2.75000000
   20.08694458  169.30799866    3.45000005    2.73000002
   20.09000015  161.00599670    3.45000005    2.75000000
   20.09333420  167.95700073    3.46000004    2.75000000
   20.09666824  168.58500671    3.46000004    2.75000000
   20.09972191  160.36000061    3.48000002    2.75000000
   20.10333443  168.75100708    3.48000002    2.75000000
   20.10666656  176.82099915    3.48000002    2.75000000
   20.11222267  176.82099915    3.48000002    2.75000000
   20.11638832  168.66200256    3.48000002    2.75000000
   20.11972237  169.28500366    3.48000002    2.75000000
   20.12305641  172.99099731    3.45000005    2.75000000
   20.12611198  169.67100525    3.45000005    2.75000000
   20.12944412  165.43899536    3.45000005    2.75000000
   20.13277817  166.43800354    3.46000004    2.73000002
   20.13583374  171.92999268    3.46000004    2.73000002
   20.13916588  166.49699402    3.50000000    2.73000002
   20.14249992  178.99800110    3.55999994    2.75000000
   20.14333344  172.70500183    3.55999994    2.73000002
   20.14583397  191.30700684    3.59999990    2.75000000
   20.14916611  207.86500549    3.66000009    2.73000002
   20.15527725  207.86500549    3.64000010    2.73000002
   20.15944481  234.11000061    3.64000010    2.73000002
   20.16250038  245.87199402    3.64000010    2.75000000
   20.16583252  305.81298828    3.53999996    2.73000002
   20.16777802  253.42799377    3.51999998    2.75000000
   20.16916656  232.38699341    3.51999998    2.75000000
   20.16916656  245.87199402    3.64000010    2.75000000
   20.16944313  305.81298828    3.53999996    2.73000002
   20.16944313  166.43800354    3.46000004    2.73000002
   20.16944313  171.92999268    3.46000004    2.73000002
   20.16972160  166.49699402    3.50000000    2.73000002
   20.16972160  178.99800110    3.55999994    2.75000000
   20.16972160  191.30700684    3.59999990    2.75000000
   20.17000008  207.86500549    3.66000009    2.73000002
   20.17000008  234.11000061    3.64000010    2.73000002
   20.17111015  241.41700745    3.50000000    2.73000002
   20.17444420  246.23399353    3.51999998    2.73000002
   20.17749977  213.44400024    3.50000000    2.73000002
   20.18083191  256.39599609    3.50000000    2.75000000
   20.18416595  227.53999329    3.51999998    2.73000002
   20.18999863  227.53999329    3.68000007    2.73000002
   20.19416618  212.45599365    3.64000010    2.73000002
   20.19722176  213.70899963    3.70000005    2.73000002
   20.20055580  213.32899475    3.78999996    2.73000002
   20.20305634  206.41099548    3.78999996    2.73000002
   20.20444489  217.81199646    3.76999998    2.73000002
   20.20750046  210.15299988    3.59999990    2.75000000
   20.21083450  223.99000549    3.50000000    2.75000000
   20.21389008  218.05700684    3.50000000    2.71000004
   20.21722221  239.20799255    3.48000002    2.73000002
   20.22055626  227.97799683    3.46000004    2.73000002
   20.22361183  229.72099304    3.46000004    2.73000002
   20.22694588  218.32899475    3.48000002    2.73000002
   20.23277855  218.32899475    3.48000002    2.73000002
   20.23694420  209.93200684    3.48000002    2.73000002
   20.24027824  193.32499695    3.48000002    2.73000002
   20.24333382  209.36999512    3.48000002    2.73000002
   20.24666786  191.94500732    3.48000002    2.73000002
   20.24972153  200.85099792    3.48000002    2.73000002
   20.25305557  206.23100281    3.48000002    2.73000002
   20.25638962  193.24800110    3.50000000    2.73000002
   20.25944519  210.74899292    3.57999992    2.71000004
   20.26277733  220.10899353    3.82999992    2.71000004
   20.26611137  227.46899414    4.05999994    2.71000004
   20.26916695  235.93600464    4.57999992    2.69000006
   20.26972198  222.13400269    4.57999992    2.69000006
   20.27555466  222.13400269    4.90999985    2.64000010
   20.27972221  213.22999573    4.90999985    2.61999989
   20.28305435  220.41900635    4.90999985    2.64000010
   20.28610992  218.80999756    4.90999985    2.66000009
   20.28944397  207.37800598    4.90999985    2.66000009
   20.29277802  203.60099792    4.90999985    2.67000008
   20.29583359  231.53300476    4.90999985    2.61999989
   20.29916573  212.52799988    4.90999985    2.59999990
   20.30249977  188.38400269    4.90999985    2.53999996
   20.30305481  182.04200745    4.90999985    2.55999994
   20.30611038  195.66099548    4.90999985    2.55999994
   20.30916595  192.43600464    4.90999985    2.57999992
   20.31250000  204.24499512    4.90999985    2.59999990
   20.31861115  204.24499512    4.90999985    2.39000010
   20.32250023  347.76098633    4.90999985    2.28999996
   20.32472229  297.38598633    4.90999985    2.19000006
   20.32583427  309.58099365    4.90999985    2.19000006
   20.32722282  296.99398804    4.90999985    2.19000006
   20.32861137  309.94799805    4.90999985    2.26999998
   20.33000183  366.32000732    4.90999985    2.19000006
   20.33139038  261.17199707    4.90999985    2.17000008
   20.33277893  236.54400635    4.90999985    2.25000000
   20.33305550  192.43600464    4.90999985    2.57999992
   20.33305550  204.24499512    4.90999985    2.59999990
   20.33305550  347.76098633    4.90999985    2.28999996
   20.33333397  207.37800598    4.90999985    2.66000009
   20.33333397  203.60099792    4.90999985    2.67000008
   20.33333397  231.53300476    4.90999985    2.61999989
   20.33361244  212.52799988    4.90999985    2.59999990
   20.33361244  188.38400269    4.90999985    2.53999996
   20.33361244  195.66099548    4.90999985    2.55999994
   20.33444595  231.42700195    4.90999985    2.34999990
   20.33750153  177.18600464    4.90999985    2.30999994
   20.34083366  185.70500183    4.90999985    2.46000004
   20.34388924  214.80099487    4.90999985    2.46000004
   20.34722328  226.60499573    4.90999985    2.44000006
   20.35361099  226.60499573    4.90999985    2.28999996
   20.35777855  224.93800354    4.90999985    2.51999998
   20.36111069  234.80599976    4.90999985    2.53999996
   20.36416626  216.90100098    4.90999985    2.51999998
   20.36666679  306.55999756    4.90999985    2.59999990
   20.36805534  234.61900330    4.90999985    2.61999989
   20.37138939  295.49099731    4.90999985    2.59999990
   20.37444496  291.13500977    4.90999985    2.61999989
   20.37777710  318.82000732    4.90999985    2.59999990
   20.37972260  351.63101196    4.90999985    2.59999990
   20.38111115  351.76098633    4.90999985    2.50000000
   20.38249969  277.95401001    4.90999985    2.53999996
   20.38388824  317.46099854    4.90999985    2.55999994
   20.38527679  316.60699463    4.90999985    2.59999990
   20.38666725  274.80801392    4.90999985    2.57999992
   20.38805580  340.48001099    4.90999985    2.55999994
   20.38944435  285.90600586    4.90999985    2.51999998
   20.39083290  263.42898560    4.90999985    2.46000004
   20.39222145  270.38198853    4.90999985    2.46000004
   20.39361191  255.69700623    4.90999985    2.42000008
   20.39500046  287.87600708    4.90999985    2.46000004
   20.39638901  234.54299927    4.90999985    2.50000000
   20.39638901  295.49099731    4.90999985    2.59999990
   20.39666748  291.13500977    4.90999985    2.61999989
   20.39666748  318.82000732    4.90999985    2.59999990
   20.39666748  214.80099487    4.90999985    2.46000004
   20.39694405  226.60499573    4.90999985    2.44000006
   20.39694405  224.93800354    4.90999985    2.51999998
   20.39694405  234.80599976    4.90999985    2.53999996
   20.39722252  216.90100098    4.90999985    2.51999998
   20.39722252  234.61900330    4.90999985    2.61999989
   20.39777756  252.53799438    4.90999985    2.50000000
   20.40111160  211.75100708    4.90999985    2.46000004
   20.40416718  211.60200500    4.90999985    2.61999989
   20.40749931  219.61799622    4.90999985    2.66000009
   20.41083336  203.01699829    4.90999985    2.67000008
   20.41722107  203.01699829    4.90999985    2.66000009
   20.42138863  169.83000183    4.90999985    2.64000010
   20.42444420  186.71800232    4.90999985    2.57999992
   20.42777634  214.65100098    4.90999985    2.36999989
   20.43027687  176.35099792    4.90999985    2.46000004
   20.43138885  178.94099426    4.90999985    2.51999998
   20.43472099  180.30000305    4.90999985    2.61999989
   20.43805504  165.48800659    4.90999985    2.57999992
   20.44111061  162.77699280    4.90999985    2.66000009
   20.44444275  164.08399963    4.90999985    2.67000008
   20.44777679  156.49000549    4.90999985    2.64000010
   20.45083427  167.73300171    4.86999989    2.67000008
   20.45416832  148.81399536    4.69999981    2.69000006
   20.46000099  148.81399536    4.07999992    2.69000006
   20.46416664  144.56300354    4.03999996    2.69000006
   20.46750069  151.14700317    4.01999998    2.69000006
   20.47055626  157.65100098    4.01999998    2.69000006
   20.47389030  145.65899658    4.01999998    2.69000006
   20.47694588  148.85099792    4.01999998    2.67000008
   20.48027802  158.52200317    4.03999996    2.67000008
   20.48361206  163.38299561    4.05999994    2.69000006
   20.48666763  157.37899780    4.07999992    2.69000006
   20.48999977  156.03999329    4.09999990    2.69000006
   20.49333382  159.10699463    4.11999989    2.69000006
   20.49638939  177.88400269    4.19999981    2.67000008
   20.49694443  165.46800232    4.19999981    2.67000008
   20.50277710  165.46800232    4.30999994    2.67000008
   20.50694466  160.13099670    4.36999989    2.67000008
   20.51027870  157.85299683    4.38999987    2.67000008
   20.51333427  156.11599731    4.34999990    2.67000008
   20.51666641  150.44999695    4.32999992    2.67000008
   20.52000046  156.42999268    4.30999994    2.67000008
   20.52305603  159.72999573    4.26000023    2.67000008
   20.52638817  164.14599609    4.26000023    2.67000008
   20.52972221  163.60400391    4.26000023    2.67000008
   20.53027725  148.56199646    4.26000023    2.67000008
   20.53333282  151.61500549    4.26000023    2.67000008
   20.53666687  159.87600708    4.21999979    2.69000006
   20.53972244  161.59199524    4.19999981    2.67000008
   20.54583359  161.59199524    4.17999983    2.67000008
   20.54972076  156.81700134    4.17999983    2.67000008
   20.55305481  160.67900085    4.17999983    2.67000008
   20.55638885  148.01300049    4.17999983    2.67000008
   20.55944443  161.94099426    4.17999983    2.67000008
   20.56277657  164.09399414    4.17999983    2.67000008
   20.56361008  178.94900513    4.17999983    2.67000008
   20.56638718  170.22599792    4.17999983    2.67000008
   20.56972313  168.74299622    4.17999983    2.67000008
   20.57277870  174.24200439    4.17999983    2.67000008
   20.57611275  187.94400024    4.17999983    2.67000008
   20.57916832  191.85699463    4.17999983    2.67000008
   20.58250046  177.71099854    4.26999998    2.67000008
   20.58861160  177.71099854    4.28999996    2.67000008
   20.59277916  151.80400085    4.28999996    2.67000008
   20.59583473  151.39100647    4.26999998    2.67000008
   20.59694481  170.52699280    4.26999998    2.67000008
   20.59944534  156.97599792    4.26999998    2.67000008
   20.60277748  154.57200623    4.26999998    2.67000008
   20.60583305  150.01199341    4.61999989    2.67000008
   20.60916710  162.90600586    4.69999981    2.67000008
   20.61222267  167.48199463    4.69999981    2.67000008
   20.61555672  155.88499451    4.69999981    2.67000008
   20.61888885  152.84899902    4.69999981    2.67000008
   20.62194443  153.69099426    4.69999981    2.67000008
   20.62527847  157.73100281    4.90999985    2.66000009
   20.63138962  157.73100281    4.90999985    2.66000009
   20.63555527  151.21200562    4.90999985    2.66000009
   20.63888931  148.09599304    4.90999985    2.66000009
   20.64194489  163.96400452    4.90999985    2.66000009
   20.64527702  166.42799377    4.90999985    2.66000009
   20.64861107  158.45199585    4.90999985    2.66000009
   20.65166664  159.79200745    4.90999985    2.66000009
   20.65499878  151.72799683    4.90999985    2.66000009
   20.65833282  158.41799927    4.90999985    2.66000009
   20.66138840  144.93899536    4.90999985    2.66000009
   20.66361046  162.69500732    4.90999985    2.66000009
   20.66499901  155.67399597    4.90999985    2.66000009
   20.66833305  151.24099731    4.90999985    2.66000009
   20.67416573  151.24099731    4.90999985    2.66000009
   20.67833328  160.05900574    4.90999985    2.66000009
   20.68166542  164.68400574    4.61999989    2.66000009
   20.68472099  170.56100464    4.61999989    2.66000009
   20.68805504  168.64999390    4.90999985    2.64000010
   20.69138718  202.35200500    4.90999985    2.64000010
   20.69444275  205.82400513    4.90999985    2.64000010
   20.69694328  182.33099365    4.90999985    2.59999990
   20.69805527  170.05000305    4.90999985    2.59999990
   20.70138931  205.80599976    4.90999985    2.51999998
   20.70444489  355.54299927    4.90999985    2.51999998
   20.70639038  303.23999023    4.90999985    2.51999998
   20.70777893  272.05801392    4.90999985    2.51999998
   20.70916748  175.98599243    4.90999985    2.51999998
   20.70944595  164.68400574    4.61999989    2.66000009
   20.70944595  170.56100464    4.61999989    2.66000009
   20.70944595  168.64999390    4.90999985    2.64000010
   20.70972252  202.35200500    4.90999985    2.64000010
   20.70972252  205.82400513    4.90999985    2.64000010
   20.70972252  170.05000305    4.90999985    2.59999990
   20.71000099  205.80599976    4.90999985    2.51999998
   20.71000099  355.54299927    4.90999985    2.51999998
   20.71000099  160.05900574    4.90999985    2.66000009
   20.71055603  181.71299744    4.90999985    2.51999998
   20.71389008  176.34300232    4.90999985    2.51999998
   20.71722221  192.75900269    4.90999985    2.30999994
   20.72027779  160.97099304    4.90999985    2.30999994
   20.72361183  152.51800537    4.90999985    2.30999994
   20.73000145  152.51800537    4.90999985    2.30999994
   20.73416710  177.16499329    4.90999985    2.50000000
   20.73750114  163.56500244    4.90999985    2.57999992
   20.74055672  159.50100708    4.90999985    2.57999992
   20.74305534  173.35600281    4.90999985    2.57999992
   20.74444389  178.50199890    4.90999985    2.57999992
   20.74749947  172.05599976    4.90999985    2.57999992
   20.75083351  160.01100159    4.90999985    2.57999992
   20.75416756  166.77600098    4.90999985    2.59999990
   20.75722313  164.02499390    4.90999985    2.59999990
   20.76055527  150.36300659    4.90999985    2.59999990
   20.76388931  156.99400330    4.90999985    2.59999990
   20.76694489  158.58000183    4.90999985    2.59999990
   20.77277756  158.58000183    4.90999985    2.59999990
   20.77694511  150.89500427    4.90999985    2.59999990
   20.78027725  169.84800720    4.90999985    2.59999990
   20.78361130  163.92500305    4.90999985    2.59999990
   20.78666687  151.25999451    4.90999985    2.59999990
   20.78999901  157.45799255    4.90999985    2.59999990
   20.79333305  175.01600647    4.90999985    2.64000010
   20.79638863  170.23500061    4.90999985    2.64000010
   20.79972076  145.99299622    4.90999985    2.66000009
   20.80277634  169.14999390    4.90999985    2.61999989
   20.80611038  167.03399658    4.90999985    2.61999989
   20.82555580  163.46800232    4.90999985    2.61999989
   20.82972336  163.46800232    4.90999985    2.61999989
   20.83388901  168.11900330    4.90999985    2.64000010
   20.83722305  170.05999756    4.90999985    2.64000010
   20.84027863  173.64799500    4.90999985    2.64000010
   20.84361267  155.25500488    4.90999985    2.64000010
   20.84694481  159.33900452    4.90999985    2.64000010
   20.85000038  172.70500183    4.90999985    2.61999989
   20.85333443  158.18200684    4.90999985    2.61999989
   20.85666656  173.61199951    4.80000019    2.61999989
   20.85888863  161.71699524    4.80000019    2.61999989
   20.86027908  169.79899597    4.80000019    2.61999989
   20.86333466  171.14999390    4.80000019    2.61999989
   20.86666679  173.40899658    4.80000019    2.61999989
   20.87277794  173.40899658    4.86999989    2.61999989
   20.87666702  161.48399353    4.86999989    2.61999989
   20.88000107  165.87199402    4.86999989    2.61999989
   20.88333321  155.62300110    4.86999989    2.61999989
   20.88638878  169.45899963    4.86999989    2.61999989
   20.88972282  160.74600220    4.86999989    2.61999989
   20.89222145  159.74499512    4.86999989    2.61999989
   20.89333344  157.15499878    4.86999989    2.61999989
   20.89638901  177.27499390    4.86999989    2.61999989
   20.89972115  156.60200500    4.88999987    2.61999989
   20.90305519  164.68200684    4.88999987    2.61999989
   20.90611076  145.05900574    4.88999987    2.61999989
   20.90944481  188.70199585    4.88999987    2.61999989
   20.91555595  188.70199585    4.88999987    2.61999989
   20.91972160  178.64100647    4.88999987    2.61999989
   20.92277718  150.78799438    4.88999987    2.61999989
   20.92555428  186.03799438    4.90999985    2.59999990
   20.92666626  151.34899902    4.90999985    2.59999990
   20.92972183  173.42100525    4.90999985    2.59999990
   20.93305397  171.72999573    4.90999985    2.59999990
   20.93638802  161.16600037    4.90999985    2.59999990
   20.93944359  168.96499634    4.90999985    2.59999990
   20.94277763  180.33099365    4.90999985    2.59999990
   20.94583321  177.58200073    4.90999985    2.59999990
   20.94916534  191.66200256    4.90999985    2.59999990
   20.95250130  165.43899536    4.90999985    2.59999990
   20.95833397  165.43899536    4.90999985    2.59999990
   20.96250153  163.47799683    4.90999985    2.59999990
   20.96583366  176.76600647    4.90999985    2.59999990
   20.96888924  162.14700317    4.90999985    2.59999990
   20.97222328  168.15400696    4.90999985    2.59999990
   20.97527885  167.21299744    4.90999985    2.59999990
   20.97861099  155.46099854    4.90999985    2.57999992
   20.98194504  160.56100464    4.90999985    2.57999992
   20.98500061  155.11399841    4.90999985    2.57999992
   20.98833275  154.87100220    4.90999985    2.57999992
   20.99166679  179.48699951    4.90999985    2.57999992
   20.99333382  178.69900513    4.90999985    2.57999992
   20.99527740  150.75100708    4.90999985    2.57999992
   21.00111198  150.75100708    4.90999985    2.57999992
   21.00527763  164.58000183    4.90999985    2.57999992
   21.00861168  161.63999939    4.90999985    2.57999992
   21.01166725  169.36300659    4.90999985    2.57999992
   21.01499939  172.22500610    4.90999985    2.57999992
   21.01833344  167.75199890    4.90999985    2.57999992
   21.02138901  156.02999878    4.90999985    2.57999992
   21.02472115  172.11700439    4.90999985    2.57999992
   21.02666664  184.00900269    4.90999985    2.57999992
   21.02833366  169.83799744    4.90999985    2.57999992
   21.03138924  166.82800293    4.90999985    2.57999992
   21.03472137  162.46899414    4.90999985    2.57999992
   21.03805542  158.54499817    4.90999985    2.57999992
   21.04388809  158.54499817    4.90999985    2.57999992
   21.04805565  154.47099304    4.90999985    2.55999994
   21.05138779  161.51699829    4.90999985    2.53999996
   21.05472183  147.88200378    4.90999985    2.55999994
   21.05777740  167.16099548    4.90999985    2.55999994
   21.06027794  159.71499634    4.90999985    2.55999994
   21.06166649  152.46899414    4.90999985    2.55999994
   21.06472206  175.16400146    4.90999985    2.55999994
   21.06805611  157.47500610    4.90999985    2.55999994
   21.07111168  153.44999695    4.90999985    2.55999994
   21.07444572  149.28199768    4.90999985    2.55999994
   21.07777786  173.30200195    4.90999985    2.55999994
   21.08083344  166.61799622    4.90999985    2.55999994
   21.08694458  166.61799622    4.90999985    2.50000000
   21.09111214  176.08200073    4.90999985    2.42000008
   21.09361267  198.05000305    4.90999985    2.34999990
   21.09472275  179.21200562    4.90999985    2.34999990
   21.09777832  267.42098999    4.90999985    2.30999994
   21.10111237  205.34500122    4.90999985    2.19000006
   21.10416794  231.00700378    4.90999985    2.23000002
   21.10750008  193.36000061    4.90999985    2.34999990
   21.11083412  169.29400635    4.90999985    2.32999992
   21.11388969  165.53199768    4.90999985    2.42000008
   21.11722183  175.78900146    4.90999985    2.48000002
   21.12055588  176.13999939    4.90999985    2.53999996
   21.12361145  189.07899475    4.90999985    2.51999998
   21.12972260  189.07899475    4.90999985    2.48000002
   21.13388824  269.37799072    4.90999985    2.25000000
   21.13694382  247.20100403    4.90999985    2.25000000
   21.14027786  435.45498657    4.90999985    2.21000004
   21.14222145  242.18200684    4.90999985    2.11999989
   21.14249992  165.53199768    4.90999985    2.42000008
   21.14249992  175.78900146    4.90999985    2.48000002
   21.14249992  176.13999939    4.90999985    2.53999996
   21.14277840  189.07899475    4.90999985    2.51999998
   21.14277840  269.37799072    4.90999985    2.25000000
   21.14277840  247.20100403    4.90999985    2.25000000
   21.14305496  435.45498657    4.90999985    2.21000004
   21.14305496  193.36000061    4.90999985    2.34999990
   21.14305496  169.29400635    4.90999985    2.32999992
   21.14500046  201.05799866    4.90999985    2.11999989
   21.14833260  201.53599548    4.90999985    2.34999990
   21.15166664  198.84100342    4.90999985    2.50000000
   21.15472221  188.45399475    4.90999985    2.51999998
   21.15805435  212.96099854    4.90999985    2.50000000
   21.16305542  212.96099854    4.90999985    2.48000002
   21.16722107  188.71099854    4.90999985    2.46000004
   21.17055511  180.05499268    4.90999985    2.40000010
   21.17361069  190.82400513    4.90999985    2.40000010
   21.17611122  194.38699341    4.90999985    2.46000004
   21.17749977  178.37699890    4.90999985    2.46000004
   21.18083191  202.24200439    4.90999985    2.46000004
   21.18388748  160.13800049    4.90999985    2.42000008
   21.18722153  198.55900574    4.90999985    2.48000002
   21.19027710  173.55999756    4.90999985    2.50000000
   21.19361115  177.89300537    4.90999985    2.50000000
   21.19694328  156.53300476    4.90999985    2.50000000
   21.20000076  175.45199585    4.90999985    2.51999998
   21.20611191  175.45199585    4.90999985    2.51999998
   21.21000099  192.10499573    4.90999985    2.51999998
   21.21333504  170.72399902    4.90999985    2.51999998
   21.21666718  181.36000061    4.90999985    2.50000000
   21.21972275  162.05200195    4.90999985    2.51999998
   21.22305679  181.70199585    4.90999985    2.50000000
   21.22638893  166.74499512    4.90999985    2.50000000
   21.22944450  163.14399719    4.90999985    2.50000000
   21.23277855  160.78500366    4.90999985    2.50000000
   21.23583412  169.87800598    4.90999985    2.50000000
   21.23916626  175.94599915    4.90999985    2.51999998
   21.24250031  168.98599243    4.90999985    2.50000000
   21.24305534  171.73599243    4.90999985    2.50000000
   21.24888992  171.73599243    4.90999985    2.50000000
   21.25305557  158.88099670    4.90999985    2.50000000
   21.25611115  168.92799377    4.90999985    2.50000000
   21.25944519  173.11599731    4.90999985    2.50000000
   21.26277733  181.50799561    4.90999985    2.50000000
   21.26583290  173.28399658    4.90999985    2.50000000
   21.26916695  170.52200317    4.90999985    2.50000000
   21.27222252  167.60899353    4.90999985    2.48000002
   21.27555466  170.07099915    4.90999985    2.48000002
   21.27638817  174.13200378    4.90999985    2.48000002
   21.27916718  174.08999634    4.90999985    2.48000002
   21.28249931  162.02600098    4.90999985    2.48000002
   21.28583336  164.45199585    4.90999985    2.48000002
   21.29166603  164.45199585    4.90999985    2.46000004
   21.29583359  169.98199463    4.90999985    2.48000002
   21.29916573  173.01600647    4.90999985    2.48000002
   21.30222130  172.61300659    4.90999985    2.48000002
   21.30555534  162.87699890    4.90999985    2.48000002
   21.30861092  151.18699646    4.90999985    2.48000002
   21.30972099  151.63800049    4.90999985    2.48000002
   21.31222153  177.85800171    4.90999985    2.48000002
   21.31555557  184.57899475    4.90999985    2.48000002
   21.31888962  191.29499817    4.90999985    2.46000004
   21.32194519  171.91900635    4.90999985    2.48000002
   21.32527924  179.50000000    4.90999985    2.46000004
   21.32833481  153.51699829    4.90999985    2.46000004
   21.33444595  153.51699829    4.90999985    2.46000004
   21.33861160  167.94500732    4.90999985    2.48000002
   21.34194565  172.40499878    4.90999985    2.48000002
   21.34305573  163.33000183    4.90999985    2.46000004
   21.34555626  189.05799866    4.90999985    2.48000002
   21.34889030  158.43600464    4.90999985    2.48000002
   21.35222244  172.15199280    4.90999985    2.46000004
   21.35527802  176.98199463    4.90999985    2.46000004
   21.35861206  183.72500610    4.90999985    2.46000004
   21.36166763  181.98899841    4.90999985    2.46000004
   21.36499977  170.62500000    4.90999985    2.46000004
   21.36833382  196.00999451    4.90999985    2.46000004
   21.37138939  156.62800598    4.90999985    2.46000004
   21.37722206  156.62800598    4.90999985    2.46000004
   21.38138962  176.71000671    4.90999985    2.46000004
   21.38472176  180.10800171    4.90999985    2.46000004
   21.38805580  190.25100708    4.90999985    2.46000004
   21.39111137  171.56799316    4.90999985    2.44000006
   21.39444351  197.92100525    4.90999985    2.46000004
   21.39777756  205.00300598    4.90999985    2.46000004
   21.40083313  182.45199585    4.90999985    2.46000004
   21.40416718  192.12600708    4.90999985    2.44000006
   21.40722275  182.11399841    4.90999985    2.44000006
   21.40972137  188.01100159    4.90999985    2.44000006
   21.41083336  177.85200500    4.90999985    2.44000006
   21.41416550  193.37500000    4.90999985    2.44000006
   21.42027664  193.37500000    4.90999985    2.44000006
   21.42444420  186.47999573    4.90999985    2.44000006
   21.42749977  191.83900452    4.90999985    2.42000008
   21.43083191  161.30599976    4.90999985    2.44000006
   21.43416595  182.46099854    4.90999985    2.42000008
   21.43722153  208.33900452    4.90999985    2.44000006
   21.44055557  168.31399536    4.90999985    2.42000008
   21.44305420  164.36999512    4.90999985    2.42000008
   21.44416618  187.32299805    4.90999985    2.42000008
   21.44749832  188.75399780    4.90999985    2.42000008
   21.45083427  175.57600403    4.90999985    2.42000008
   21.45388985  188.98800659    4.90999985    2.40000010
   21.45722389  189.76699829    4.90999985    2.42000008
   21.46305656  189.76699829    4.90999985    2.42000008
   21.46722221  185.77099609    4.90999985    2.40000010
   21.47027779  178.73800659    4.90999985    2.40000010
   21.47361183  181.41000366    4.90999985    2.40000010
   21.47638893  162.37899780    4.90999985    2.40000010
   21.47722244  188.04899597    4.90999985    2.40000010
   21.48055649  202.30200195    4.90999985    2.39000010
   21.48388863  173.40400696    4.90999985    2.40000010
   21.48694420  191.71000671    4.90999985    2.40000010
   21.49027824  173.74899292    4.90999985    2.40000010
   21.49333382  168.44099426    4.90999985    2.40000010
   21.49666786  199.72900391    4.90999985    2.40000010
   21.50000000  190.15400696    4.90999985    2.40000010
   21.50583267  190.15400696    4.90999985    2.39000010
   21.51000023  179.17799377    4.90999985    2.39000010
   21.51333427  176.20899963    4.90999985    2.39000010
   21.51638794  208.37899780    4.90999985    2.39000010
   21.51972198  170.84899902    4.90999985    2.39000010
   21.52305603  181.61700439    4.90999985    2.39000010
   21.52611160  175.05900574    4.90999985    2.39000010
   21.52944374  193.99600220    4.90999985    2.39000010
   21.53249931  187.23599243    4.90999985    2.39000010
   21.53583336  182.79400635    4.90999985    2.39000010
   21.53916550  191.41299438    4.90999985    2.36999989
   21.54222107  188.78599548    4.90999985    2.39000010
   21.54305458  195.88099670    4.90999985    2.39000010
   21.54861069  195.88099670    4.90999985    2.36999989
   21.55277634  184.27999878    4.90999985    2.36999989
   21.55611038  199.81300354    4.90999985    2.36999989
   21.55944443  213.58700562    4.90999985    2.36999989
   21.56250000  181.99400330    4.90999985    2.36999989
   21.56583214  187.61399841    4.90999985    2.34999990
   21.56916809  207.63499451    4.90999985    2.34999990
   21.57222366  187.88699341    4.90999985    2.34999990
   21.57555580  196.90100098    4.90999985    2.34999990
   21.57638931  225.74299622    4.90999985    2.34999990
   21.57916832  198.87100220    4.90999985    2.34999990
   21.58250046  195.05400085    4.90999985    2.34999990
   21.58583450  206.05999756    4.90999985    2.32999992
   21.59166718  206.05999756    4.90999985    2.32999992
   21.59583473  213.30099487    4.90999985    2.32999992
   21.59889030  231.55400085    4.90999985    2.32999992
   21.60222244  210.91700745    4.90999985    2.32999992
   21.60527802  223.40699768    4.90999985    2.32999992
   21.60861206  192.96200562    4.90999985    2.32999992
   21.60972214  197.71899414    4.90999985    2.32999992
   21.61222267  207.75700378    4.90999985    2.30999994
   21.61555672  196.03300476    4.90999985    2.30999994
   21.61888885  207.25999451    4.90999985    2.30999994
   21.62194443  231.78199768    4.90999985    2.30999994
   21.62527847  221.66099548    4.90999985    2.30999994
   21.62861061  234.62600708    4.90999985    2.30999994
   21.63444519  234.62600708    4.90999985    2.28999996
