    HOUR (UT)   FLARE FACTOR    SKY TESTER    SUN TESTER
   11.28805637   -1.00000000   -1.00000000   -1.00000000
   12.38694477   98.07769775    0.73000002    2.32999992
   12.39638901   96.99069977    0.73000002    2.32999992
   12.39972210  104.11699677    0.73000002    2.32999992
   12.40305519   91.26629639    0.73000002    2.32999992
   12.40611076   90.70629883    0.73000002    2.32999992
   12.40944386   94.15989685    0.70999998    2.34999990
   12.41388893   94.15989685    0.70999998    2.34999990
   12.41805553   95.17510223    0.70999998    2.32999992
   12.42083359   90.72350311    0.70999998    2.32999992
   12.42138958   94.05509949    0.70999998    2.34999990
   12.42472267   96.31690216    0.70999998    2.34999990
   12.42805576   95.58709717    0.70999998    2.34999990
   12.43111134   92.16870117    0.70999998    2.34999990
   12.43444443   91.90640259    0.70999998    2.36999989
   12.43750000   88.70189667    0.70999998    2.36999989
   12.44083309   89.24169922    0.70999998    2.34999990
   12.44388866   99.67520142    0.73000002    2.34999990
   12.44722271   91.64389801    0.70999998    2.34999990
   12.45027733   93.29290009    0.70999998    2.34999990
   12.45666695   93.29290009    0.70999998    2.36999989
   12.46083355   88.15350342    0.70999998    2.36999989
   12.46388912   93.20600128    0.70999998    2.39000010
   12.46722221   95.39160156    0.70999998    2.36999989
   12.47055531   95.02169800    0.70999998    2.36999989
   12.47361088   95.44819641    0.70999998    2.36999989
   12.47694397   84.77010345    0.70999998    2.36999989
   12.47999954   91.31929779    0.70999998    2.36999989
   12.48333359   96.50640106    0.70999998    2.34999990
   12.48638916   89.49019623    0.70999998    2.36999989
   12.48750019   93.54479980    0.70999998    2.36999989
   12.49000072   93.00910187    0.70999998    2.36999989
   12.49333382   94.05030060    0.70999998    2.39000010
   12.49944496   94.05030060    0.70999998    2.36999989
   12.50361156   96.76519775    0.70999998    2.39000010
   12.50694466   92.47209930    0.70999998    2.39000010
   12.51000023   97.39779663    0.70999998    2.39000010
   12.51333332   89.89550018    0.69000000    2.39000010
   12.51666641   96.14980316    0.70999998    2.39000010
   12.51972198   96.73490143    0.69000000    2.36999989
   12.52083302   88.91950226    0.70999998    2.36999989
   12.52333355   89.05650330    0.69000000    2.39000010
   12.52666664   93.79799652    0.70999998    2.39000010
   12.52972221   96.14749908    0.70999998    2.39000010
   12.53305531   91.71459961    0.70999998    2.39000010
   12.53611183   95.89849854    0.69000000    2.39000010
   12.54250050   95.89849854    0.69000000    2.39000010
   12.54666710   86.43409729    0.69000000    2.39000010
   12.54972267   92.96779633    0.69000000    2.40000010
   12.55305576   92.96829987    0.69000000    2.39000010
   12.55444431  100.47599792    0.69000000    2.39000010
   12.55666733   95.18270111    0.69000000    2.39000010
   12.55972195   94.53880310    0.69000000    2.39000010
   12.56305599   93.29070282    0.69000000    2.39000010
   12.56638908   91.41719818    0.69000000    2.39000010
   12.56944466   91.63710022    0.70999998    2.40000010
   12.57305527   94.77110291    0.69000000    2.39000010
   12.57611084   95.33439636    0.69000000    2.40000010
   12.57944393   86.35079956    0.69000000    2.39000010
   12.58527756   86.35079956    0.69000000    2.40000010
   12.58944416   88.98059845    0.69000000    2.40000010
   12.59249973   89.80429840    0.69000000    2.40000010
   12.59583282   91.06390381    0.69000000    2.40000010
   12.59916592   90.89070129    0.69000000    2.40000010
   12.60222244   91.16750336    0.69000000    2.40000010
   12.60555553   85.29180145    0.70999998    2.40000010
   12.60861111   89.62310028    0.70999998    2.40000010
   12.61194515   86.69999695    0.70999998    2.40000010
   12.61500072   89.97760010    0.70999998    2.40000010
   12.61833382   85.62969971    0.70999998    2.40000010
   12.62111092   87.06009674    0.70999998    2.40000010
   12.62194443   87.42279816    0.70999998    2.40000010
   12.62805557   87.42279816    0.70999998    2.42000008
   12.63222218   88.61740112    0.70999998    2.42000008
   12.63555527   86.72889709    0.70999998    2.40000010
   12.63861084   88.83820343    0.70999998    2.40000010
   12.64194393   85.09310150    0.69000000    2.40000010
   12.64499950   92.91339874    0.69000000    2.42000008
   12.64833355   90.44039917    0.70999998    2.42000008
   12.65138817   94.81089783    0.69000000    2.40000010
   12.65444374   96.05680084    0.69000000    2.42000008
   12.65527725   87.15239716    0.69000000    2.42000008
   12.65833282   89.69580078    0.69000000    2.42000008
   12.66166592   85.16369629    0.69000000    2.42000008
   12.66499996   91.54869843    0.67000002    2.42000008
   12.67111111   91.54869843    0.67000002    2.42000008
   12.67500019   87.58570099    0.69000000    2.42000008
   12.67833328   90.35569763    0.67000002    2.42000008
   12.68138885   87.58429718    0.67000002    2.42000008
   12.68472195   82.18630219    0.67000002    2.42000008
   12.68777752   85.60620117    0.67000002    2.42000008
   12.68833351   85.19840240    0.67000002    2.42000008
   12.69166660   85.73979950    0.67000002    2.44000006
   12.69472218   88.30280304    0.67000002    2.42000008
   12.69805527   81.61229706    0.67000002    2.44000006
   12.70111084   81.70520020    0.67000002    2.44000006
   12.70444393   85.87180328    0.64999998    2.42000008
   12.70749950   79.45549774    0.64999998    2.44000006
   12.71388912   79.45549774    0.64999998    2.44000006
   12.71805477   86.32820129    0.64999998    2.42000008
   12.72111034   83.93470001    0.64999998    2.44000006
   12.72166634   87.71990204    0.64999998    2.44000006
   12.72499943   89.07900238    0.64999998    2.44000006
   12.72805500   84.76159668    0.63000000    2.44000006
   12.73138809   83.46279907    0.63000000    2.46000004
   12.73472214   86.76490021    0.63000000    2.44000006
   12.73777771   87.13200378    0.63000000    2.46000004
   12.74111176   96.66000366    0.63000000    2.46000004
   12.74444485   89.81400299    0.63000000    2.44000006
   12.74750042   82.64739990    0.63000000    2.44000006
   12.75083351   82.47920227    0.63000000    2.44000006
   12.75666714   82.47920227    0.63000000    2.44000006
   12.76083374   82.62729645    0.61000001    2.46000004
   12.76388931   80.31890106    0.61000001    2.46000004
   12.76722240   87.27539825    0.61000001    2.46000004
   12.77027798   87.22879791    0.61000001    2.46000004
   12.77361107   86.51640320    0.61000001    2.46000004
   12.77694416   82.40509796    0.61000001    2.46000004
   12.77999973   83.09709930    0.63000000    2.46000004
   12.78333378   88.49780273    0.63000000    2.46000004
   12.78638935   79.52690125    0.61000001    2.46000004
   12.78777790   88.58200073    0.61000001    2.46000004
   12.79000092   81.16519928    0.61000001    2.48000002
   12.79305553   79.62960052    0.61000001    2.46000004
   12.79944515   79.62960052    0.61000001    2.46000004
   12.80361176   83.05970001    0.61000001    2.46000004
   12.80694485   84.30010223    0.61000001    2.46000004
   12.81000042   84.15070343    0.61000001    2.46000004
   12.81333351   85.21929932    0.61000001    2.46000004
   12.81638908   80.69599915    0.61000001    2.48000002
   12.81972218   79.27950287    0.61000001    2.48000002
   12.82111073   79.15640259    0.61000001    2.46000004
   12.82333374   83.80650330    0.61000001    2.46000004
   12.82638836   80.01730347    0.61000001    2.48000002
   12.82972240   80.34310150    0.61000001    2.48000002
   12.83305550   81.09059906    0.61000001    2.46000004
   12.83611107   76.90859985    0.61000001    2.46000004
   12.84222221   76.90859985    0.61000001    2.46000004
   12.84638882   80.83769989    0.61000001    2.46000004
   12.84972191   78.00700378    0.61000001    2.46000004
   12.85277843   79.25800323    0.58999997    2.48000002
   12.85472298   84.31929779    0.58999997    2.48000002
   12.85666752   81.69960022    0.61000001    2.48000002
   12.85972214   79.15419769    0.58999997    2.48000002
   12.86305618   81.11519623    0.58999997    2.48000002
   12.86611176   81.15100098    0.58999997    2.48000002
   12.86944485   76.44110107    0.58999997    2.46000004
   12.87277794   81.84909821    0.58999997    2.48000002
   12.87583351   82.68360138    0.58999997    2.48000002
   12.87916660   80.42639923    0.58999997    2.46000004
   12.88527775   80.42639923    0.61000001    2.48000002
   12.88944435   79.31790161    0.58999997    2.48000002
   12.89249992   84.74629974    0.61000001    2.48000002
   12.89583302   77.29609680    0.61000001    2.48000002
   12.89888859   75.67829895    0.61000001    2.50000000
   12.90222168   83.14080048    0.58999997    2.48000002
   12.90555477   79.96679688    0.58999997    2.50000000
   12.90861034   80.43180084    0.58999997    2.50000000
   12.91194439   80.56849670    0.58999997    2.48000002
   12.91499996   85.12180328    0.58999997    2.48000002
   12.91833401   82.25669861    0.61000001    2.48000002
   12.92138958   82.30930328    0.58999997    2.50000000
   12.92194462   85.62599945    0.58999997    2.50000000
   12.92805576   85.62599945    0.61000001    2.50000000
   12.93222237   80.25820160    0.58999997    2.50000000
   12.93527794   79.37220001    0.61000001    2.50000000
   12.93861103   82.49929810    0.58999997    2.50000000
   12.94166660   81.05220032    0.61000001    2.50000000
   12.94499969   80.45020294    0.58999997    2.50000000
   12.94833374   80.40959930    0.61000001    2.48000002
   12.95138836   83.34100342    0.61000001    2.50000000
   12.95472240   78.06459808    0.61000001    2.50000000
   12.95527744   75.74870300    0.61000001    2.50000000
   12.95833302   79.93789673    0.61000001    2.51999998
   12.96166611   77.17130280    0.61000001    2.50000000
   12.96472168   78.38559723    0.61000001    2.51999998
   12.97083282   78.38559723    0.61000001    2.50000000
   12.97499943   80.71990204    0.61000001    2.50000000
   12.97833252   80.77439880    0.61000001    2.50000000
   12.98138809   75.64640045    0.63000000    2.50000000
   12.98472214   84.63310242    0.61000001    2.50000000
   12.98777771   80.23400116    0.63000000    2.50000000
   12.98861122   82.81420135    0.63000000    2.50000000
   12.99138927   75.91269684    0.63000000    2.51999998
   12.99472237   77.94499969    0.63000000    2.51999998
   12.99805546   81.49410248    0.61000001    2.51999998
   13.00111103   78.30549622    0.63000000    2.51999998
   13.00444412   83.44550323    0.63000000    2.50000000
   13.00749969   79.17099762    0.63000000    2.50000000
   13.01361084   79.17099762    0.63000000    2.50000000
   13.01777744   79.37259674    0.63000000    2.51999998
   13.02111053   77.48090363    0.63000000    2.51999998
   13.02194405   78.54650116    0.63000000    2.51999998
   13.02472210   77.60520172    0.63000000    2.51999998
   13.02805519   78.66230011    0.64999998    2.50000000
   13.03138828   76.90350342    0.64999998    2.51999998
   13.03444481   79.23239899    0.67000002    2.51999998
   13.03777790   78.96700287    0.67000002    2.50000000
   13.04083347   83.62899780    0.69000000    2.51999998
   13.04416752   85.41020203    0.67000002    2.53999996
   13.04722309   77.59010315    0.69000000    2.51999998
   13.05055618   82.49299622    0.67000002    2.51999998
   13.05666733   82.49299622    0.67000002    2.51999998
   13.06083393   75.41089630    0.67000002    2.51999998
   13.06388950   83.09839630    0.67000002    2.51999998
   13.06722260   77.98789978    0.64999998    2.51999998
   13.07027817   79.91290283    0.64999998    2.51999998
   13.07361126   79.26640320    0.64999998    2.51999998
   13.07694435   75.68299866    0.64999998    2.51999998
   13.07999992   78.64700317    0.64999998    2.51999998
   13.08333302   78.36689758    0.64999998    2.51999998
   13.08638859   78.98010254    0.63000000    2.51999998
   13.08861065   78.78479767    0.63000000    2.51999998
   13.09000015   80.64289856    0.63000000    2.53999996
   13.09333324   78.54769897    0.63000000    2.51999998
   13.09944439   78.54769897    0.64999998    2.51999998
   13.10361195   78.59989929    0.64999998    2.51999998
   13.10694504   83.65219879    0.64999998    2.53999996
   13.11000061   78.97480011    0.64999998    2.53999996
   13.11333370   81.86540222    0.64999998    2.53999996
   13.11666679   78.92320251    0.63000000    2.53999996
   13.11972237   79.39939880    0.64999998    2.51999998
   13.12194443   77.99890137    0.63000000    2.51999998
   13.12333393   74.27359772    0.63000000    2.53999996
   13.12666702   78.71620178    0.63000000    2.53999996
   13.13000011   75.95999908    0.64999998    2.53999996
   13.13305569   74.68800354    0.64999998    2.53999996
   13.13638878   79.07929993    0.64999998    2.51999998
   13.14222240   79.07929993    0.67000002    2.53999996
   13.14638901   75.85749817    0.67000002    2.53999996
   13.14972210   78.29280090    0.67000002    2.51999998
   13.15277767   74.16040039    0.67000002    2.53999996
   13.15527725   81.26450348    0.67000002    2.53999996
   13.15638828   81.63829803    0.69000000    2.53999996
   13.15972137   79.40750122    0.69000000    2.53999996
   13.16305542   77.24629974    0.69000000    2.51999998
   13.16611099   75.52940369    0.69000000    2.53999996
   13.16944504   74.39920044    0.69000000    2.53999996
   13.17250061   76.37310028    0.67000002    2.53999996
   13.17583370   76.32309723    0.67000002    2.55999994
   13.17888927   77.00930023    0.67000002    2.53999996
   13.18500042   77.00930023    0.67000002    2.53999996
   13.18916702   78.22380066    0.67000002    2.53999996
   13.19250011   78.20529938    0.67000002    2.53999996
   13.19555569   75.35949707    0.67000002    2.53999996
   13.19888878   80.09470367    0.69000000    2.53999996
   13.20222187   75.52339935    0.67000002    2.53999996
   13.20527744   75.47899628    0.67000002    2.55999994
   13.20861053   76.31659698    0.67000002    2.55999994
   13.21166611   79.91709900    0.67000002    2.55999994
   13.21500015   80.29000092    0.67000002    2.53999996
   13.21805477   76.05349731    0.67000002    2.55999994
   13.22138882   75.86789703    0.67000002    2.55999994
   13.22194386   75.95159912    0.67000002    2.55999994
   13.22805500   75.95159912    0.67000002    2.55999994
   13.23222160   81.06340027    0.67000002    2.53999996
   13.23527813   80.15209961    0.69000000    2.55999994
   13.23861122   76.62500000    0.69000000    2.53999996
   13.24166679   72.22949982    0.67000002    2.55999994
   13.24499989   78.92780304    0.69000000    2.55999994
   13.24805546   78.46479797    0.69000000    2.55999994
   13.25138855   80.78659821    0.67000002    2.53999996
   13.25472260   78.65799713    0.67000002    2.55999994
   13.25527763   80.62650299    0.67000002    2.55999994
   13.25833321   75.42469788    0.67000002    2.55999994
   13.26138878   79.60769653    0.69000000    2.55999994
   13.26472187   76.59510040    0.64999998    2.55999994
   13.27083302   76.59510040    0.64999998    2.55999994
   13.27499962   73.97419739    0.64999998    2.53999996
   13.27805519   71.80030060    0.63000000    2.55999994
   13.28138828   75.10900116    0.63000000    2.55999994
   13.28472233   74.72299957    0.63000000    2.55999994
   13.28777790   78.12629700    0.63000000    2.55999994
   13.28861141   78.92549896    0.63000000    2.55999994
   13.29138947   78.90630341    0.63000000    2.55999994
   13.29444504   77.40100098    0.63000000    2.55999994
   13.29777813   76.19789886    0.64999998    2.55999994
   13.30083370   78.29750061    0.64999998    2.57999992
   13.30416679   78.84110260    0.64999998    2.55999994
   13.30722237   75.95680237    0.64999998    2.55999994
   13.31361103   75.95680237    0.63000000    2.55999994
   13.31777763   81.52829742    0.64999998    2.55999994
   13.32111073   80.02500153    0.64999998    2.55999994
   13.32194424   75.95600128    0.64999998    2.55999994
   13.32472229   75.47470093    0.64999998    2.55999994
   13.32777786   76.69940186    0.67000002    2.57999992
   13.33111095   77.50789642    0.64999998    2.55999994
   13.33416653   74.69300079    0.67000002    2.55999994
   13.33749962   81.64649963    0.64999998    2.55999994
   13.34083271   78.10279846    0.67000002    2.55999994
   13.34388828   80.05879974    0.67000002    2.55999994
   13.34722233   81.51580048    0.67000002    2.55999994
   13.35027790   77.98680115    0.67000002    2.57999992
   13.35666752   77.98680115    0.67000002    2.55999994
   13.36055565   75.36299896    0.67000002    2.55999994
   13.36388969   75.30149841    0.67000002    2.57999992
   13.36722279   77.28230286    0.69000000    2.57999992
   13.37027836   76.73500061    0.67000002    2.57999992
   13.37361145   76.52020264    0.67000002    2.57999992
   13.37666702   80.65229797    0.67000002    2.57999992
   13.38000011   77.99109650    0.67000002    2.57999992
   13.38305569   76.64309692    0.67000002    2.57999992
   13.38638878   76.70439911    0.67000002    2.57999992
   13.38861084   75.85449982    0.69000000    2.57999992
   13.39000034   78.53220367    0.69000000    2.57999992
   13.39305496   76.32089996    0.69000000    2.57999992
   13.41444397   76.32089996    0.69000000    2.57999992
   13.41861153   74.22820282    0.70999998    2.57999992
   13.42166710   74.12750244    0.70999998    2.57999992
   13.42222214   76.57949829    0.70999998    2.57999992
   13.42555618   81.16040039    0.70999998    2.57999992
   13.42888927   79.25170135    0.70999998    2.57999992
   13.43194485   75.89179993    0.70999998    2.57999992
   13.43527794   77.59700012    0.70999998    2.57999992
   13.43833351   72.59739685    0.75000000    2.59999990
   13.44166660   75.95600128    0.73000002    2.57999992
   13.44472218   72.98940277    0.73000002    2.57999992
   13.44805527   77.64160156    0.73000002    2.57999992
   13.45111084   75.37529755    0.73000002    2.57999992
   13.45722198   75.37529755    0.75000000    2.57999992
   13.46138859   75.21089935    0.75000000    2.57999992
   13.46444416   74.43409729    0.75000000    2.57999992
   13.46777725   75.52110291    0.73000002    2.59999990
   13.47083282   76.19029999    0.75000000    2.57999992
   13.47416592   78.43299866    0.73000002    2.59999990
   13.47722149   73.71499634    0.73000002    2.59999990
   13.48055553   78.65570068    0.73000002    2.57999992
   13.48388958   77.35769653    0.70999998    2.57999992
   13.48694515   74.35559845    0.69000000    2.59999990
   13.48888874   72.08100128    0.70999998    2.57999992
   13.49055576   73.67839813    0.69000000    2.59999990
   13.49361134   74.34059906    0.69000000    2.57999992
   13.50000000   74.34059906    0.67000002    2.59999990
   13.50416660   79.95069885    0.67000002    2.59999990
   13.50749969   77.36640167    0.70999998    2.59999990
   13.51055527   76.03849792    0.70999998    2.59999990
   13.51388931   75.94899750    0.67000002    2.57999992
   13.51694393   74.69969940    0.67000002    2.59999990
   13.52027798   75.26039886    0.64999998    2.57999992
   13.52222157   77.72080231    0.64999998    2.59999990
   13.52388859   78.85250092    0.64999998    2.59999990
   13.52722168   83.05079651    0.64999998    2.59999990
   13.53027725   81.28160095    0.63000000    2.59999990
   13.53361130   78.14320374    0.63000000    2.57999992
   13.53666687   73.73149872    0.63000000    2.59999990
   13.54277802   73.73149872    0.64999998    2.59999990
   13.54694462   78.51139832    0.64999998    2.59999990
   13.55027771   76.84279633    0.64999998    2.59999990
   13.55333328   78.35160065    0.67000002    2.59999990
   13.55555534   79.41790009    0.69000000    2.59999990
   13.55694485   81.01560211    0.67000002    2.61999989
   13.56027794   78.11799622    0.69000000    2.59999990
   13.56333351   79.50499725    0.67000002    2.59999990
   13.56666660   75.31759644    0.69000000    2.59999990
   13.56972218   74.93890381    0.69000000    2.59999990
   13.57305527   74.31479645    0.69000000    2.59999990
   13.57611084   76.88539886    0.70999998    2.61999989
   13.57944393   76.17269897    0.69000000    2.61999989
   13.58583260   76.17269897    0.70999998    2.59999990
   13.58972168   78.61489868    0.70999998    2.59999990
   13.59305477   76.89959717    0.73000002    2.61999989
   13.59638882   75.49240112    0.73000002    2.59999990
   13.59944439   78.18679810    0.75000000    2.61999989
   13.60277843   74.79340363    0.73000002    2.61999989
   13.60583401   74.82830048    0.75000000    2.59999990
   13.60916710   79.02549744    0.75000000    2.61999989
   13.61222267   76.45770264    0.75000000    2.61999989
   13.61555576   79.43669891    0.73000002    2.61999989
   13.61888885   77.04370117    0.75000000    2.59999990
   13.62194443   74.92769623    0.70999998    2.59999990
   13.62250042   77.17369843    0.70999998    2.59999990
   13.62861156   77.17369843    0.70999998    2.59999990
   13.63277817   78.42880249    0.69000000    2.59999990
   13.63583279   76.48429871    0.69000000    2.59999990
   13.63916683   77.63059998    0.69000000    2.59999990
   13.64222240   74.73600006    0.69000000    2.59999990
   13.64555550   80.29560089    0.69000000    2.59999990
   13.64888859   80.34690094    0.69000000    2.61999989
   13.65194416   73.31999969    0.67000002    2.61999989
   13.65527725   73.62779999    0.67000002    2.61999989
   13.65583324   73.77639771    0.67000002    2.61999989
   13.65888882   73.02249908    0.67000002    2.61999989
   13.66194439   73.88610077    0.67000002    2.61999989
   13.66527748   77.85030365    0.67000002    2.61999989
   13.67138958   77.85030365    0.64999998    2.61999989
   13.67555618   76.28459930    0.64999998    2.61999989
   13.67861176   74.18859863    0.67000002    2.61999989
   13.68194485   75.91490173    0.67000002    2.61999989
   13.68527794   79.24150085    0.67000002    2.61999989
   13.68833351   82.06890106    0.69000000    2.61999989
   13.68916702   84.80989838    0.69000000    2.61999989
   13.69194412   78.72779846    0.67000002    2.61999989
   13.69499969   77.86730194    0.67000002    2.61999989
   13.69833374   78.60810089    0.67000002    2.61999989
   13.70138836   73.76499939    0.67000002    2.61999989
   13.70472240   76.46900177    0.67000002    2.61999989
   13.70805550   76.09799957    0.67000002    2.61999989
   13.71416664   76.09799957    0.64999998    2.64000010
   13.71833324   76.55660248    0.67000002    2.61999989
   13.72166634   77.95790100    0.67000002    2.61999989
   13.72249985   74.43969727    0.67000002    2.61999989
   13.72527695   73.56390381    0.64999998    2.61999989
   13.72833252   73.49800110    0.64999998    2.61999989
   13.73166656   75.30059814    0.64999998    2.61999989
   13.73472214   74.39430237    0.67000002    2.61999989
   13.73805618   80.12400055    0.64999998    2.61999989
   13.74138927   78.63240051    0.64999998    2.61999989
   13.74444485   74.13490295    0.64999998    2.64000010
   13.74777794   74.44860077    0.64999998    2.64000010
   13.75083351   73.83740234    0.64999998    2.64000010
   13.75722218   73.83740234    0.67000002    2.64000010
   13.76111126   73.00990295    0.67000002    2.61999989
   13.76444435   74.86750031    0.64999998    2.64000010
   13.76777744   71.79679871    0.64999998    2.64000010
   13.77083302   74.04530334    0.63000000    2.64000010
   13.77416611   75.33499908    0.63000000    2.64000010
   13.77722168   77.70330048    0.61000001    2.64000010
   13.78055573   75.68250275    0.61000001    2.64000010
   13.78361130   75.71080017    0.61000001    2.64000010
   13.78694534   75.43470001    0.63000000    2.61999989
   13.78916740   73.11769867    0.63000000    2.64000010
   13.79055595   76.30709839    0.63000000    2.64000010
   13.79361153   76.72589874    0.63000000    2.64000010
   13.80000019   76.72589874    0.63000000    2.64000010
   13.80416679   74.41280365    0.63000000    2.64000010
   13.80722237   75.97470093    0.63000000    2.64000010
   13.81055546   74.79080200    0.63000000    2.64000010
   13.81361103   77.14029694    0.63000000    2.64000010
   13.81694412   74.02359772    0.61000001    2.64000010
   13.82027817   76.01519775    0.61000001    2.64000010
   13.82250023   73.05020142    0.61000001    2.64000010
   13.82388878   73.31420135    0.61000001    2.64000010
   13.82694435   76.93869781    0.61000001    2.61999989
   13.83027744   76.62030029    0.58999997    2.64000010
   13.83333302   76.79689789    0.58999997    2.64000010
   13.83666611   76.45149994    0.58999997    2.64000010
   13.84277725   76.45149994    0.58999997    2.66000009
   13.84694386   73.72720337    0.58999997    2.64000010
   13.85000038   72.30159760    0.56999999    2.64000010
   13.85333347   79.22450256    0.56999999    2.64000010
   13.85583401   73.28810120    0.56999999    2.64000010
   13.85694504   75.13659668    0.56999999    2.64000010
   13.86000061   80.02519989    0.56999999    2.64000010
   13.86333370   75.03820038    0.56999999    2.64000010
   13.86666679   74.79640198    0.56999999    2.64000010
   13.86972237   74.46959686    0.56999999    2.64000010
   13.87305546   80.03079987    0.56999999    2.66000009
   13.87611103   75.24720001    0.56999999    2.64000010
   13.87944412   73.33219910    0.56999999    2.64000010
   13.88555527   73.33219910    0.56999999    2.64000010
   13.88972187   74.55709839    0.56999999    2.66000009
   13.89305496   74.23300171    0.56999999    2.66000009
   13.89611053   75.54209900    0.56999999    2.64000010
   13.89944458   74.67379761    0.56999999    2.66000009
   13.90249920   73.23919678    0.56999999    2.64000010
   13.90583324   78.10199738    0.56999999    2.64000010
   13.90916634   73.57599640    0.58999997    2.64000010
   13.91222191   76.05699921    0.61000001    2.66000009
   13.91555500   76.48629761    0.58999997    2.64000010
   13.91861153   74.53189850    0.61000001    2.64000010
   13.92194462   73.30629730    0.58999997    2.66000009
   13.92250061   76.13950348    0.58999997    2.66000009
   13.92861176   76.13950348    0.58999997    2.64000010
   13.93249989   73.10769653    0.58999997    2.66000009
   13.93583298   73.68710327    0.58999997    2.66000009
   13.93916702   74.05680084    0.58999997    2.66000009
   13.94222260   78.21980286    0.58999997    2.64000010
   13.94555569   71.35469818    0.58999997    2.66000009
   13.94861126   75.63110352    0.58999997    2.66000009
   13.95194435   73.49690247    0.58999997    2.64000010
   13.95499992   74.27079773    0.56999999    2.67000008
   13.95583344   73.91490173    0.56999999    2.67000008
   13.95888901   75.76419830    0.56999999    2.66000009
   13.96194458   75.05979919    0.56999999    2.66000009
   13.96527767   74.51820374    0.56999999    2.66000009
   13.97138882   74.51820374    0.55000001    2.66000009
   13.97555542   75.36879730    0.55000001    2.66000009
   13.97861099   72.65570068    0.55000001    2.66000009
   13.98194408   75.78040314    0.55000001    2.66000009
   13.98500061   77.44920349    0.56999999    2.66000009
   13.98833370   74.12930298    0.56999999    2.66000009
   13.98916721   74.10350037    0.56999999    2.66000009
   13.99194431   73.07510376    0.56999999    2.66000009
   13.99499989   75.85690308    0.58999997    2.66000009
   13.99833393   76.71299744    0.58999997    2.66000009
   14.00166702   78.83779907    0.58999997    2.66000009
   14.00472260   76.44979858    0.58999997    2.66000009
   14.00805569   73.75939941    0.63000000    2.66000009
   14.01416683   73.75939941    0.63000000    2.66000009
   14.01833344   75.33860016    0.63000000    2.67000008
   14.02138901   73.16539764    0.63000000    2.66000009
   14.02250004   72.69200134    0.63000000    2.66000009
   14.02527714   74.57929993    0.63000000    2.66000009
   14.02833271   73.92790222    0.63000000    2.66000009
   14.03166676   74.46679688    0.64999998    2.66000009
   14.03500080   72.35230255    0.64999998    2.67000008
   14.03805637   73.55429840    0.67000002    2.66000009
   14.04138947   75.33149719    0.67000002    2.66000009
   14.04472256   76.63259888    0.67000002    2.66000009
   14.04777813   75.21620178    0.64999998    2.66000009
   14.05111122   76.18750000    0.64999998    2.66000009
   14.05694485   76.18750000    0.64999998    2.66000009
   14.06111145   74.93019867    0.67000002    2.66000009
   14.06444454   77.10749817    0.64999998    2.67000008
   14.06750011   69.51450348    0.64999998    2.66000009
   14.07083321   77.09929657    0.69000000    2.67000008
   14.07388878   75.49949646    0.67000002    2.66000009
   14.07722187   72.27940369    0.67000002    2.66000009
   14.08055592   71.98190308    0.67000002    2.66000009
   14.08361053   79.82959747    0.67000002    2.67000008
   14.08694458   73.96080017    0.67000002    2.66000009
   14.08916664   75.91349792    0.69000000    2.67000008
   14.09055519   74.90570068    0.67000002    2.67000008
   14.09361076   74.82779694    0.67000002    2.66000009
   14.09972191   74.82779694    0.69000000    2.66000009
   14.10388947   76.93900299    0.69000000    2.67000008
   14.10722256   75.63909912    0.67000002    2.66000009
   14.11027813   73.56250000    0.67000002    2.66000009
   14.11361122   76.81980133    0.67000002    2.67000008
   14.11694431   72.77290344    0.67000002    2.66000009
   14.11999989   74.79360199    0.69000000    2.66000009
   14.12250042   75.48470306    0.67000002    2.66000009
   14.12388897   75.88200378    0.67000002    2.66000009
   14.12694454   74.35870361    0.67000002    2.67000008
   14.13027763   73.71009827    0.67000002    2.67000008
   14.13361073   75.75319672    0.67000002    2.67000008
   14.13666630   73.92800140    0.67000002    2.66000009
   14.14277744   73.92800140    0.67000002    2.67000008
   14.14694405   72.57869720    0.67000002    2.66000009
   14.14999962   76.89890289    0.69000000    2.67000008
   14.15333271   72.92389679    0.69000000    2.67000008
   14.15583324   72.64620209    0.69000000    2.67000008
   14.15694427   73.57209778    0.69000000    2.67000008
   14.15999985   74.43250275    0.67000002    2.66000009
   14.16333294   72.18000031    0.69000000    2.67000008
   14.16666698   74.61979675    0.69000000    2.67000008
   14.16972256   75.08519745    0.69000000    2.67000008
   14.17305565   73.03769684    0.70999998    2.67000008
   14.17611122   74.36019897    0.69000000    2.67000008
   14.17944431   72.22209930    0.70999998    2.67000008
   14.18555546   72.22209930    0.73000002    2.67000008
   14.18972206   74.36689758    0.70999998    2.66000009
   14.19277763   73.77069855    0.73000002    2.66000009
   14.19611073   71.21130371    0.73000002    2.67000008
   14.19944477   76.25080109    0.73000002    2.67000008
   14.20249939   77.31759644    0.73000002    2.67000008
   14.20583344   74.52290344    0.73000002    2.67000008
   14.20888901   70.57859802    0.73000002    2.67000008
   14.21222210   73.12500000    0.73000002    2.67000008
   14.21527767   74.65440369    0.70999998    2.66000009
   14.21861076   72.85169983    0.69000000    2.66000009
   14.22194386   75.27670288    0.69000000    2.67000008
   14.22249985   77.28720093    0.69000000    2.67000008
   14.22833252   77.28720093    0.69000000    2.69000006
   14.23249912   77.59919739    0.69000000    2.67000008
   14.23583317   73.29290009    0.70999998    2.69000006
   14.23888874   76.81300354    0.70999998    2.67000008
   14.24222279   74.49929810    0.70999998    2.66000009
   14.24527836   75.67359924    0.70999998    2.67000008
   14.24861145   72.42600250    0.70999998    2.67000008
   14.25194454   78.58799744    0.70999998    2.67000008
   14.25500011   75.11640167    0.73000002    2.67000008
   14.25583363   74.55359650    0.73000002    2.67000008
   14.25861073   71.63909912    0.73000002    2.67000008
   14.26194477   73.44969940    0.73000002    2.67000008
   14.26500034   75.58249664    0.73000002    2.67000008
   14.27111053   75.58249664    0.73000002    2.69000006
   14.27527714   74.71089935    0.73000002    2.67000008
   14.27861118   78.20570374    0.73000002    2.67000008
   14.28166676   74.95649719    0.73000002    2.67000008
   14.28500080   73.56849670    0.73000002    2.67000008
   14.28833389   74.64430237    0.75000000    2.67000008
   14.28916740   74.69589996    0.75000000    2.67000008
   14.29194450   76.62190247    0.75000000    2.67000008
   14.29527855   74.12100220    0.75000000    2.67000008
   14.29833412   74.27349854    0.75000000    2.67000008
   14.30166721   73.84259796    0.75000000    2.67000008
   14.30472279   72.97799683    0.76999998    2.67000008
   14.30805588   76.97080231    0.76999998    2.67000008
   14.31416702   76.97080231    0.76999998    2.67000008
   14.31833363   77.73040009    0.79000002    2.67000008
   14.32138920   75.34739685    0.76999998    2.67000008
   14.32250023   79.75409698    0.76999998    2.67000008
   14.32499981   79.02030182    0.79000002    2.67000008
   14.32833290   75.15709686    0.79000002    2.67000008
   14.33138847   75.52580261    0.79000002    2.69000006
   14.33472157   76.07279968    0.76999998    2.67000008
   14.33777714   72.63390350    0.76999998    2.67000008
   14.34111118   72.66369629    0.76999998    2.69000006
   14.34416676   71.39910126    0.76999998    2.67000008
   14.34749985   71.92849731    0.76999998    2.67000008
   14.35083389   75.17060089    0.75000000    2.67000008
   14.35694504   75.17060089    0.75000000    2.67000008
   14.36111164   76.33090210    0.73000002    2.69000006
   14.36416721   74.36029816    0.73000002    2.67000008
   14.36750031   76.96230316    0.73000002    2.69000006
   14.37083340   73.82420349    0.70999998    2.69000006
   14.37388897   75.17919922    0.70999998    2.69000006
   14.37722206   75.44519806    0.70999998    2.69000006
   14.38027763   76.01100159    0.70999998    2.69000006
   14.38361073   71.75540161    0.69000000    2.69000006
   14.38666630   77.10900116    0.70999998    2.69000006
   14.38916683   75.37570190    0.69000000    2.69000006
   14.39027786   77.42019653    0.69000000    2.69000006
   14.39361095   73.08390045    0.70999998    2.69000006
   14.39972210   73.08390045    0.70999998    2.69000006
   14.40388870   74.51090240    0.70999998    2.69000006
   14.40722179   75.26580048    0.70999998    2.69000006
   14.41027737   76.19719696    0.70999998    2.69000006
   14.42805576   73.31109619    0.75000000    2.69000006
   14.43027782   75.68219757    0.76999998    2.69000006
   14.43361092   71.33519745    0.75000000    2.69000006
   14.43666649   72.33740234    0.76999998    2.67000008
   14.44305515   72.33740234    0.75000000    2.69000006
   14.44694424   75.24510193    0.75000000    2.69000006
   14.45027733   72.25180054    0.75000000    2.69000006
   14.45361137   73.69760132    0.76999998    2.69000006
   14.45666695   73.97599792    0.76999998    2.69000006
   14.46000004   75.08899689    0.76999998    2.69000006
   14.46111107   78.32039642    0.76999998    2.69000006
   14.46361065   72.21430206    0.75000000    2.69000006
   14.46694374   79.12699890    0.75000000    2.69000006
   14.46999931   72.60839844    0.75000000    2.69000006
   14.47333336   74.19400024    0.75000000    2.69000006
   14.47638798   73.14649963    0.75000000    2.69000006
   14.47972202   73.66359711    0.75000000    2.69000006
   14.48555565   73.66359711    0.73000002    2.69000006
   14.48972225   74.52230072    0.70999998    2.69000006
   14.49305534   75.05100250    0.70999998    2.69000006
   14.49444485   73.19660187    0.70999998    2.69000006
   14.49666691   73.26039886    0.70999998    2.69000006
   14.49972248   75.89160156    0.70999998    2.69000006
   14.50305557   73.60820007    0.70999998    2.69000006
   14.50638866   73.39360046    0.70999998    2.69000006
   14.50944424   74.65329742    0.69000000    2.69000006
   14.51277733   77.88739777    0.69000000    2.69000006
   14.51583290   72.88390350    0.67000002    2.69000006
   14.51916599   73.57340240    0.67000002    2.69000006
   14.52222157   73.79389954    0.70999998    2.69000006
   14.52861118   73.79389954    0.75000000    2.69000006
   14.53249931   77.80280304    0.75000000    2.69000006
   14.53583336   75.59629822    0.76999998    2.69000006
   14.53916740   79.76360321    0.76999998    2.71000004
   14.54222298   74.40019989    0.75000000    2.69000006
   14.54555607   73.45359802    0.76999998    2.69000006
   14.54861164   70.40440369    0.76999998    2.69000006
   14.55194473   78.44599915    0.76999998    2.67000008
   14.55500031   72.96130371    0.76999998    2.69000006
   14.55833340   76.55259705    0.75000000    2.69000006
   14.56111145   72.93150330    0.75000000    2.69000006
   14.56194496   74.15180206    0.75000000    2.69000006
   14.56500053   76.66310120    0.75000000    2.69000006
   14.57138920   76.66310120    0.73000002    2.71000004
   14.57555580   73.20480347    0.70999998    2.69000006
   14.57861137   73.54219818    0.70999998    2.69000006
   14.58194447   74.39060211    0.70999998    2.69000006
   14.58500004   73.35649872    0.70999998    2.69000006
   14.58833313   75.41329956    0.69000000    2.69000006
   14.59166622   74.32279968    0.69000000    2.69000006
   14.59444427   73.73809814    0.69000000    2.69000006
   14.59527779   73.15470123    0.70999998    2.69000006
   14.59833336   71.17359924    0.69000000    2.69000006
   14.60166740   76.14019775    0.70999998    2.69000006
   14.60500050   74.17169952    0.70999998    2.69000006
   14.60805607   73.88089752    0.73000002    2.71000004
   14.61416721   73.88089752    0.75000000    2.71000004
   14.61833382   74.17900085    0.75000000    2.69000006
   14.62166691   74.85369873    0.76999998    2.69000006
   14.62472248   74.34390259    0.76999998    2.71000004
   14.62777805   74.32450104    0.79000002    2.69000006
   14.62833309   75.39219666    0.79000002    2.69000006
   14.63166714   74.37920380    0.80000001    2.69000006
   14.63472176   75.19519806    0.81999999    2.69000006
   14.63805580   74.77639771    0.81999999    2.69000006
   14.64111137   78.74079895    0.81999999    2.69000006
   14.64444447   72.90509796    0.81999999    2.71000004
   14.64750004   74.66880035    0.86000001    2.71000004
   14.65083313   72.30319977    0.83999997    2.71000004
   14.65694427   72.30319977    0.83999997    2.69000006
   14.66111088   70.01190186    0.81999999    2.69000006
   14.66444397   74.76100159    0.81999999    2.69000006
   14.66750050   75.32599640    0.80000001    2.69000006
   14.67083359   71.13919830    0.79000002    2.71000004
   14.67416668   72.93109894    0.79000002    2.69000006
   14.67722225   74.86389923    0.76999998    2.71000004
   14.68055630   77.95420074    0.79000002    2.69000006
   14.68361092   74.12010193    0.76999998    2.71000004
   14.68694496   78.32700348    0.75000000    2.69000006
   14.69000053   73.70929718    0.75000000    2.71000004
   14.69333363   76.65779877    0.70999998    2.69000006
   14.69444466   75.43579865    0.73000002    2.71000004
   14.69999981   75.43579865    0.73000002    2.69000006
   14.70388889   81.12969971    0.75000000    2.71000004
   14.70722198   76.29989624    0.75000000    2.71000004
   14.71055508   75.27079773    0.79000002    2.69000006
   14.71361065   76.10620117    0.79000002    2.71000004
   14.71694374   74.42970276    0.80000001    2.71000004
   14.71999931   76.01049805    0.79000002    2.71000004
   14.72333336   76.93669891    0.79000002    2.71000004
   14.72638798   74.46379852    0.79000002    2.69000006
   14.72777748   76.45899963    0.79000002    2.67000008
   14.73027706   74.61930084    0.79000002    2.69000006
   14.73333359   73.65979767    0.79000002    2.69000006
   14.73666668   72.68180084    0.79000002    2.69000006
   14.74277782   72.68180084    0.76999998    2.69000006
   14.74694443   77.56999969    0.76999998    2.71000004
   14.75000000   74.75599670    0.76999998    2.71000004
   14.75333309   74.45899963    0.75000000    2.71000004
   14.75666714   79.57160187    0.76999998    2.69000006
   14.75972176   72.49770355    0.75000000    2.69000006
   14.76111126   73.22299957    0.75000000    2.71000004
   14.76333332   76.94809723    0.75000000    2.71000004
   14.76638889   77.27839661    0.75000000    2.71000004
   14.76972198   75.73139954    0.75000000    2.71000004
   14.77305508   73.47000122    0.75000000    2.71000004
   14.77611065   76.14179993    0.75000000    2.71000004
   14.77944374   77.19760132    0.75000000    2.71000004
   14.78555584   77.19760132    0.73000002    2.71000004
   14.78972244   74.55110168    0.73000002    2.71000004
   14.79277802   73.07489777    0.73000002    2.71000004
   14.79444504   72.83159637    0.73000002    2.71000004
   14.79666710   72.58339691    0.73000002    2.71000004
   14.80000019   73.78420258    0.73000002    2.71000004
   14.80305576   78.67449951    0.70999998    2.71000004
   14.80638885   74.31330109    0.70999998    2.71000004
   14.80944443   75.10790253    0.70999998    2.71000004
   14.81277752   75.98419952    0.70999998    2.69000006
   14.81611156   72.03369904    0.69000000    2.71000004
   14.81916618   73.45420074    0.69000000    2.71000004
   14.82250023   73.67330170    0.69000000    2.71000004
   14.82833290   73.67330170    0.69000000    2.71000004
   14.83249950   76.75499725    0.69000000    2.71000004
   14.83583260   75.19670105    0.69000000    2.71000004
   14.83888817   72.72049713    0.69000000    2.71000004
   14.84222221   72.33869934    0.69000000    2.71000004
   14.84555531   75.44200134    0.69000000    2.71000004
   14.84861088   73.32160187    0.69000000    2.71000004
   14.85194492   71.84760284    0.69000000    2.71000004
   14.85500050   77.50039673    0.69000000    2.71000004
   14.85833359   74.32170105    0.69000000    2.71000004
   14.86111164   75.02380371    0.69000000    2.71000004
   14.86194515   75.11949921    0.69000000    2.71000004
   14.86527824   75.23380280    0.67000002    2.71000004
   14.87138939   75.23380280    0.67000002    2.71000004
   14.87527752   78.44490051    0.67000002    2.71000004
   14.87861156   74.80130005    0.69000000    2.69000006
   14.88194466   75.63539886    0.69000000    2.73000002
   14.88500023   76.02310181    0.69000000    2.71000004
   14.88833332   75.16230011    0.70999998    2.71000004
   14.89138889   75.37840271    0.70999998    2.71000004
   14.89444447   75.56700134    0.70999998    2.71000004
   14.89499950   75.30169678    0.70999998    2.71000004
   14.89833355   77.67559814    0.70999998    2.71000004
   14.90138817   73.31719971    0.73000002    2.71000004
   14.90472221   75.86519623    0.73000002    2.71000004
   14.90777779   73.35489655    0.73000002    2.71000004
   14.91416645   73.35489655    0.73000002    2.71000004
   14.91833401   74.74770355    0.75000000    2.71000004
   14.92138958   76.16179657    0.75000000    2.71000004
   14.92472267   76.06900024    0.76999998    2.71000004
   14.92777824   76.87609863    0.76999998    2.71000004
   14.92833328   75.75640106    0.76999998    2.71000004
   14.93166733   74.96430206    0.76999998    2.71000004
   14.93472195   73.07769775    0.76999998    2.71000004
   14.93805599   73.02780151    0.76999998    2.71000004
   14.94111156   72.22250366    0.76999998    2.71000004
   14.94444466   72.14849854    0.76999998    2.71000004
   14.94750023   75.28919983    0.79000002    2.71000004
   14.95083332   73.25170135    0.79000002    2.71000004
   14.95694447   73.25170135    0.79000002    2.71000004
   14.96111107   74.75299835    0.79000002    2.71000004
   14.96166611   73.36849976    0.79000002    2.71000004
   14.96500015   73.04160309    0.79000002    2.71000004
   14.96805477   73.20950317    0.79000002    2.71000004
   14.97138882   73.34069824    0.79000002    2.71000004
   14.97444439   72.61849976    0.79000002    2.71000004
   14.97777748   74.16490173    0.79000002    2.71000004
   14.98111057   73.09320068    0.79000002    2.71000004
   14.98416710   73.48239899    0.76999998    2.71000004
   14.98750019   73.67700195    0.76999998    2.71000004
   14.99055576   74.57980347    0.76999998    2.71000004
   14.99388885   75.00109863    0.75000000    2.73000002
   14.99499989   73.93440247    0.75000000    2.73000002
   14.99972248   73.93440247    0.79000002    2.71000004
   15.00388908   72.53350067    0.76999998    2.71000004
   15.00722218   75.08809662    0.79000002    2.75000000
   15.01055527   83.49340057    0.76999998    2.71000004
   15.10583401   -1.00000000   -1.00000000   -1.00000000
   15.20305538   -1.00000000   -1.00000000   -1.00000000
   15.30305576   -1.00000000   -1.00000000   -1.00000000
   15.36999989   76.47940063    0.76999998    2.73000002
   15.37333393   82.94909668    0.79000002    2.73000002
   15.37638855   80.57849884    0.76999998    2.73000002
   15.37972260   80.67169952    0.76999998    2.73000002
   15.38277817   81.51429749    0.75000000    2.73000002
   15.38611126   75.63379669    0.75000000    2.73000002
   15.39027786   75.63379669    0.73000002    2.73000002
   15.39444447   79.03399658    0.73000002    2.75000000
   15.39750004   76.63269806    0.73000002    2.73000002
   15.40083313   77.15850067    0.73000002    2.75000000
   15.40333271   77.21959686    0.73000002    2.73000002
   15.40416622   74.32740021    0.73000002    2.73000002
   15.40749931   74.16359711    0.73000002    2.73000002
   15.41083336   80.26550293    0.73000002    2.73000002
   15.41388893   77.40570068    0.73000002    2.73000002
   15.41722298   79.69650269    0.73000002    2.73000002
   15.42027855   80.85870361    0.73000002    2.73000002
   15.42361164   75.04340363    0.73000002    2.73000002
   15.42666721   74.54039764    0.73000002    2.75000000
   15.43305588   74.54039764    0.75000000    2.73000002
   15.43722248   76.37180328    0.75000000    2.75000000
   15.44055557   75.00389862    0.76999998    2.73000002
   15.44361115   74.43240356    0.75000000    2.75000000
   15.44694424   76.22339630    0.76999998    2.75000000
   15.44999981   75.63719940    0.79000002    2.73000002
   15.45333290   75.27629852    0.80000001    2.73000002
   15.45638847   74.87039948    0.83999997    2.73000002
   15.45972157   72.79440308    0.86000001    2.73000002
   15.46305561   75.18019867    0.86000001    2.73000002
   15.46611118   71.76029968    0.88000000    2.73000002
   15.46944427   74.89689636    0.88000000    2.75000000
   15.46999931   78.25599670    0.88000000    2.75000000
   15.47583294   78.25599670    0.88000000    2.73000002
   15.47999954   74.15039825    0.88000000    2.73000002
   15.48333359   73.07599640    0.88000000    2.73000002
   15.48638916   76.74189758    0.88000000    2.73000002
   15.48972225   74.29989624    0.88000000    2.73000002
   15.49277782   76.81179810    0.88000000    2.73000002
   15.49611092   78.72090149    0.89999998    2.73000002
   15.49944496   74.43579865    0.89999998    2.73000002
   15.50249958   72.97280121    0.89999998    2.73000002
   15.50333309   80.04290009    0.89999998    2.73000002
   15.50611115   75.86199951    0.92000002    2.75000000
   15.50944424   77.29399872    0.92000002    2.75000000
   15.51277733   74.79560089    0.92000002    2.73000002
   15.51888847   74.79560089    0.92000002    2.73000002
   15.52305508   77.22380066    0.94000000    2.73000002
   15.52611065   77.75309753    0.94000000    2.73000002
   15.52944374   78.74990082    0.94000000    2.73000002
   15.53249931   77.28089905    0.94000000    2.73000002
   15.53583336   79.01149750    0.94000000    2.73000002
   15.53666687   76.91000366    0.94000000    2.73000002
   15.53944492   81.90160370    0.92000002    2.73000002
   15.54250050   76.84629822    0.92000002    2.73000002
   15.54583359   78.01239777    0.89999998    2.73000002
   15.54916668   76.84909821    0.89999998    2.73000002
   15.55222225   73.63480377    0.89999998    2.73000002
   15.55555534   75.91699982    0.89999998    2.73000002
   15.56166649   75.91699982    0.89999998    2.73000002
   15.56583309   73.84459686    0.89999998    2.73000002
   15.56888866   79.91030121    0.89999998    2.73000002
   15.56999969   78.60040283    0.89999998    2.73000002
   15.57277775   77.02390289    0.89999998    2.73000002
   15.57583332   76.76640320    0.88000000    2.73000002
   15.57916641   73.84049988    0.88000000    2.73000002
   15.58222198   73.50759888    0.88000000    2.73000002
   15.58555508   75.77429962    0.88000000    2.73000002
   15.58861065   73.38189697    0.88000000    2.73000002
   15.59194374   73.57520294    0.88000000    2.73000002
   15.59527779   75.41059875    0.88000000    2.73000002
   15.59833336   72.13420105    0.86000001    2.75000000
   15.60444450   72.13420105    0.86000001    2.73000002
   15.60861111   76.69889832    0.86000001    2.75000000
   15.61194515   73.21759796    0.88000000    2.73000002
   15.61500072   76.47270203    0.86000001    2.75000000
   15.61833382   80.23529816    0.86000001    2.73000002
   15.62166691   77.24770355    0.86000001    2.73000002
   15.62472248   81.13700104    0.86000001    2.73000002
   15.62805557   79.98370361    0.86000001    2.75000000
   15.63138866   79.02510071    0.83999997    2.73000002
   15.63444424   74.65570068    0.81999999    2.73000002
   15.63666630   74.95390320    0.81999999    2.73000002
   15.63833332   76.31839752    0.81999999    2.73000002
   15.64138889   75.92890167    0.83999997    2.75000000
   15.64722252   75.92890167    0.80000001    2.73000002
   15.65138817   74.72730255    0.80000001    2.73000002
   15.65472221   75.21880341    0.80000001    2.73000002
   15.65777779   75.08529663    0.79000002    2.75000000
   15.66111088   74.31680298    0.79000002    2.75000000
   15.66444397   76.10959625    0.79000002    2.73000002
   15.66750050   77.28050232    0.75000000    2.75000000
   15.67000008   75.59179688    0.75000000    2.75000000
   15.67138958   73.05780029    0.76999998    2.73000002
   15.67444515   77.61720276    0.75000000    2.73000002
   15.67777824   75.42479706    0.75000000    2.73000002
   15.68083382   75.94629669    0.73000002    2.75000000
   15.68416691   72.24720001    0.73000002    2.73000002
   15.69027805   72.24720001    0.75000000    2.75000000
   15.69444466   77.87110138    0.75000000    2.75000000
   15.69750023   74.38670349    0.75000000    2.73000002
   15.70083332   74.37439728    0.75000000    2.73000002
   15.70333290   72.56719971    0.76999998    2.75000000
   15.70444393   73.74569702    0.76999998    2.75000000
   15.70749950   75.29080200    0.76999998    2.73000002
   15.71083355   75.94059753    0.79000002    2.73000002
   15.71388912   73.81359863    0.81999999    2.75000000
   15.71722221   73.42829895    0.81999999    2.73000002
   15.72027779   71.10769653    0.81999999    2.75000000
   15.72361088   78.42430115    0.81999999    2.73000002
   15.72694397   72.72949982    0.81999999    2.73000002
   15.73305511   72.72949982    0.80000001    2.73000002
   15.73722267   74.08999634    0.79000002    2.73000002
   15.74027824   74.44190216    0.76999998    2.75000000
   15.74361134   76.88330078    0.76999998    2.75000000
   15.74666691   82.11109924    0.75000000    2.73000002
   15.75000000   73.64080048    0.75000000    2.73000002
   15.75333309   80.41290283    0.75000000    2.73000002
   15.75638866   78.67849731    0.75000000    2.75000000
   15.75972176   76.31079865    0.75000000    2.73000002
   15.76277733   73.73590088    0.73000002    2.73000002
   15.76611137   75.09400177    0.73000002    2.73000002
   15.76944447   72.39430237    0.73000002    2.75000000
   15.76999950   74.14219666    0.75000000    2.73000002
   15.77583313   74.14219666    0.75000000    2.73000002
   15.77999973   75.03130341    0.75000000    2.75000000
   15.78333378   73.63520050    0.76999998    2.75000000
   15.78694534   73.01950073    0.79000002    2.73000002
   15.79000092   73.06819916    0.76999998    2.73000002
   15.79333401   72.73480225    0.76999998    2.73000002
   15.79666710   74.47550201    0.76999998    2.75000000
   15.79972267   75.33370209    0.79000002    2.75000000
   15.80305576   73.56169891    0.79000002    2.73000002
   15.80361176   73.38670349    0.79000002    2.73000002
   15.80638885   75.48169708    0.80000001    2.73000002
   15.80972195   73.39959717    0.80000001    2.73000002
   15.81277752   75.12840271    0.80000001    2.73000002
   15.81861115   75.12840271    0.80000001    2.73000002
   15.82277775   81.78959656    0.80000001    2.73000002
   15.82611084   77.39040375    0.79000002    2.73000002
   15.82916641   77.61750031    0.80000001    2.73000002
   15.83249950   81.04830170    0.80000001    2.73000002
   15.83555508   73.61060333    0.81999999    2.73000002
   15.83694458   74.14160156    0.81999999    2.73000002
   15.83916664   74.67880249    0.81999999    2.73000002
   15.84249973   75.95369720    0.81999999    2.73000002
   15.84555531   76.24520111    0.83999997    2.73000002
   15.84888840   74.74030304    0.83999997    2.73000002
   15.85222244   74.18219757    0.86000001    2.75000000
   15.85527802   77.67929840    0.83999997    2.75000000
   15.86166668   77.67929840    0.86000001    2.73000002
   15.86555576   76.79280090    0.86000001    2.73000002
   15.86888885   78.97209930    0.86000001    2.73000002
   15.87027836   73.67939758    0.86000001    2.73000002
   15.87250042   80.49800110    0.86000001    2.75000000
   15.87583351   77.55860138    0.83999997    2.75000000
   15.87888908   76.92009735    0.83999997    2.73000002
   15.88222218   76.88140106    0.81999999    2.75000000
   15.88555527   72.69809723    0.83999997    2.75000000
   15.88861084   76.86810303    0.83999997    2.73000002
   15.89194393   76.39550018    0.83999997    2.73000002
   15.89499950   72.91010284    0.81999999    2.75000000
   15.89833355   74.44779968    0.81999999    2.73000002
   15.90444374   74.44779968    0.81999999    2.73000002
   15.90861034   76.45279694    0.80000001    2.73000002
   15.91166592   76.07540131    0.81999999    2.73000002
   15.91499996   77.42680359    0.80000001    2.75000000
   15.91805553   74.48680115    0.80000001    2.75000000
   15.92138958   76.60189819    0.80000001    2.75000000
   15.92472267   78.10269928    0.79000002    2.75000000
   15.92777824   79.26709747    0.79000002    2.75000000
   15.93111134   76.57669830    0.79000002    2.73000002
   15.93416691   75.25219727    0.79000002    2.73000002
   15.93694496   74.34919739    0.79000002    2.75000000
   15.93777752   74.95300293    0.79000002    2.75000000
   15.94111156   76.08599854    0.79000002    2.75000000
   15.94722271   76.08599854    0.80000001    2.75000000
   15.95138836   74.45649719    0.81999999    2.75000000
   15.95472240   74.29190063    0.81999999    2.73000002
   15.95777798   77.46820068    0.81999999    2.75000000
   15.96111107   77.15409851    0.81999999    2.75000000
   15.96444416   73.65039825    0.83999997    2.73000002
   15.96749973   76.62960052    0.86000001    2.75000000
   15.97027779   73.08190155    0.83999997    2.75000000
   15.97111034   78.44730377    0.83999997    2.73000002
   15.97444439   73.88009644    0.86000001    2.75000000
   15.97749996   72.63929749    0.86000001    2.75000000
   15.98083305   74.57779694    0.83999997    2.75000000
   15.98416710   73.76470184    0.83999997    2.75000000
   15.99000072   73.76470184    0.81999999    2.75000000
   15.99416733   76.10790253    0.83999997    2.75000000
   15.99750042   74.50810242    0.81999999    2.75000000
   16.00055504   74.93759918    0.83999997    2.75000000
   16.00361061   76.55780029    0.81999999    2.73000002
   16.00416756   74.98449707    0.81999999    2.73000002
   16.00749969   72.71800232    0.81999999    2.75000000
   16.01055527   76.35459900    0.80000001    2.75000000
   16.01388931   75.13690186    0.81999999    2.75000000
   16.01722145   75.49939728    0.80000001    2.75000000
   16.02027702   72.29789734    0.80000001    2.75000000
   16.02361107   76.39730072    0.80000001    2.75000000
   16.02666664   77.35389709    0.80000001    2.75000000
   16.03305435   77.35389709    0.81999999    2.75000000
   16.03694344   78.87760162    0.81999999    2.75000000
   16.04027748   71.63120270    0.81999999    2.75000000
   16.04361153   76.77549744    0.81999999    2.75000000
   16.04666710   78.46929932    0.81999999    2.75000000
   16.04999924   72.87480164    0.83999997    2.75000000
   16.05305481   71.35109711    0.83999997    2.75000000
   16.05638885   71.31719971    0.83999997    2.75000000
   16.05944443   73.90219879    0.83999997    2.75000000
   16.06277657   76.07620239    0.86000001    2.73000002
   16.06611061   74.89299774    0.86000001    2.75000000
   16.06916809   73.08580017    0.83999997    2.75000000
   16.07027817   74.91369629    0.83999997    2.75000000
   16.07583427   74.91369629    0.81999999    2.75000000
   16.08000183   75.46730042    0.81999999    2.75000000
   16.08305550   76.93520355    0.81999999    2.75000000
   16.08638954   73.43489838    0.80000001    2.76999998
   16.08944511   76.99250031    0.79000002    2.75000000
   16.09277916   74.82060242    0.79000002    2.75000000
   16.09611130   74.15660095    0.79000002    2.75000000
   16.09916687   74.55580139    0.79000002    2.75000000
   16.10250092   75.54219818    0.76999998    2.75000000
   16.10361099   76.30249786    0.76999998    2.75000000
   16.10583305   73.67729950    0.75000000    2.75000000
   16.10916710   73.97869873    0.75000000    2.73000002
   16.11250114   77.00700378    0.75000000    2.75000000
   16.11861038   77.00700378    0.75000000    2.75000000
   16.12277794   76.05030060    0.75000000    2.75000000
   16.12583351   73.86830139    0.75000000    2.75000000
   16.12916756   76.20649719    0.73000002    2.75000000
   16.13249969   78.35099792    0.70999998    2.75000000
   16.13555527   71.72419739    0.67000002    2.76999998
   16.13694382   79.24990082    0.69000000    2.75000000
   16.13916588   79.41690063    0.67000002    2.75000000
   16.14249992   77.42400360    0.67000002    2.75000000
   16.14583397   79.41169739    0.67000002    2.75000000
   16.14888954   76.62449646    0.69000000    2.75000000
   16.15222168   75.38339996    0.69000000    2.75000000
   16.15527725   73.02369690    0.69000000    2.75000000
   16.16138840   73.02369690    0.73000002    2.75000000
   16.16555595   75.39849854    0.75000000    2.75000000
   16.16888809   78.58570099    0.76999998    2.75000000
   16.17027664   78.42859650    0.76999998    2.75000000
   16.17249870   75.48020172    0.76999998    2.75000000
   16.17583275   78.84660339    0.79000002    2.75000000
   16.17916679   76.07929993    0.79000002    2.75000000
   16.18222237   73.56279755    0.79000002    2.75000000
   16.18555450   77.50340271    0.80000001    2.76999998
   16.18861008   73.28869629    0.80000001    2.75000000
   16.19194412   78.48529816    0.79000002    2.75000000
   16.19499969   72.01550293    0.80000001    2.75000000
   16.19833183   74.03810120    0.81999999    2.75000000
   16.20444489   74.03810120    0.83999997    2.75000000
   16.20861244   71.97669983    0.86000001    2.75000000
   16.21166801   75.16320038    0.86000001    2.75000000
   16.21500015   73.95780182    0.86000001    2.75000000
   16.21805573   76.68280029    0.86000001    2.75000000
   16.22138977   74.80120087    0.86000001    2.75000000
   16.22444534   80.38279724    0.86000001    2.75000000
   16.22777748   73.17659760    0.83999997    2.75000000
   16.23111153   76.35430145    0.83999997    2.75000000
   16.23416710   75.67900085    0.80000001    2.75000000
   16.23694420   78.89499664    0.81999999    2.75000000
   16.23777771   78.93299866    0.81999999    2.75000000
   16.24111176   78.92289734    0.79000002    2.73000002
   16.24722290   78.92289734    0.76999998    2.75000000
   16.25138855   76.59539795    0.76999998    2.75000000
   16.25444412   75.15689850    0.76999998    2.75000000
   16.25777817   73.82389832    0.79000002    2.75000000
   16.26083374   76.12930298    0.76999998    2.75000000
   16.26416588   75.24459839    0.76999998    2.75000000
   16.26749992   74.42209625    0.76999998    2.75000000
   16.27027702   76.19120026    0.75000000    2.75000000
   16.27083397   74.29759979    0.75000000    2.75000000
   16.27416611   72.88359833    0.75000000    2.73000002
   16.27750015   75.81390381    0.75000000    2.75000000
   16.28055573   74.61049652    0.73000002    2.75000000
   16.28388786   75.58570099    0.73000002    2.75000000
   16.28999901   75.58570099    0.73000002    2.75000000
   16.29416656   76.16329956    0.69000000    2.75000000
   16.29749870   84.48919678    0.69000000    2.75000000
   16.30055428   77.10160065    0.70999998    2.75000000
   16.30360985   76.78150177    0.70999998    2.75000000
   16.30416679   78.02850342    0.69000000    2.73000002
   16.30749893   78.18060303    0.69000000    2.75000000
   16.31083298   75.96019745    0.69000000    2.75000000
   16.31388855   79.16750336    0.69000000    2.75000000
   16.31722260   75.36029816    0.70999998    2.75000000
   16.32027817   77.33969879    0.69000000    2.75000000
   16.32361221   76.66490173    0.69000000    2.75000000
   16.32666779   79.28340149    0.69000000    2.76999998
   16.33277893   79.28340149    0.69000000    2.75000000
   16.33694458   82.86859894    0.70999998    2.75000000
   16.34027863   78.65239716    0.73000002    2.73000002
   16.34333420   77.67939758    0.73000002    2.75000000
   16.34666824   76.55380249    0.73000002    2.75000000
   16.35000038   80.76020050    0.73000002    2.75000000
   16.35305595   80.09519958    0.75000000    2.75000000
   16.35639000   78.11830139    0.75000000    2.75000000
   16.35944557   79.74210358    0.75000000    2.75000000
   16.36277771   79.35540009    0.75000000    2.75000000
   16.36583328   78.87429810    0.75000000    2.75000000
   16.36916733   80.33560181    0.75000000    2.75000000
   16.37027740   79.23349762    0.76999998    2.75000000
   16.39083290   79.23349762    0.80000001    2.75000000
   16.39500046   79.81999969    0.81999999    2.75000000
   16.39833260   80.40360260    0.80000001    2.75000000
   16.40138817   80.35099792    0.79000002    2.76999998
   16.40361023   79.58499908    0.79000002    2.75000000
   16.40499878   77.93759918    0.79000002    2.75000000
   16.40833282   77.58570099    0.79000002    2.75000000
   16.41166687   77.23549652    0.76999998    2.75000000
   16.41472244   78.33470154    0.79000002    2.75000000
   16.41805458   79.03009796    0.79000002    2.75000000
   16.42111015   73.19470215    0.76999998    2.76999998
   16.42444420   76.50910187    0.76999998    2.75000000
   16.42749977   73.65200043    0.76999998    2.73000002
   16.43361092   73.65200043    0.76999998    2.75000000
   16.43777657   76.25029755    0.79000002    2.75000000
   16.44111061   73.12809753    0.79000002    2.75000000
   16.44416618   75.28820038    0.81999999    2.75000000
   16.44749832   72.58049774    0.81999999    2.75000000
   16.45083427   75.11190033    0.86000001    2.75000000
   16.45388985   78.29519653    0.83999997    2.75000000
   16.45722389   74.25270081    0.86000001    2.75000000
   16.46055603   77.63050079    0.86000001    2.73000002
   16.46361160   76.42790222    0.88000000    2.75000000
   16.46694565   75.71399689    0.88000000    2.76999998
   16.47000122   74.90679932    0.88000000    2.75000000
   16.47055626   79.20480347    0.88000000    2.75000000
   16.47638893   79.20480347    0.89999998    2.75000000
   16.48055649   76.74569702    0.89999998    2.75000000
   16.48388863   79.86060333    0.89999998    2.73000002
   16.48694420   78.80500031    0.89999998    2.75000000
   16.49027824   83.37110138    0.89999998    2.75000000
   16.49361229   76.07389832    0.89999998    2.73000002
   16.49666786   76.06980133    0.89999998    2.75000000
   16.50000000   76.53559875    0.89999998    2.76999998
   16.50305557   75.06670380    0.88000000    2.75000000
   16.50388908   76.64260101    0.88000000    2.75000000
   16.50666618   78.03559875    0.89999998    2.75000000
   16.50972176   79.23040009    0.89999998    2.75000000
   16.51305580   73.24749756    0.88000000    2.75000000
   16.51944351   73.24749756    0.88000000    2.75000000
   16.52361107   75.83650208    0.88000000    2.75000000
   16.52666664   73.93679810    0.86000001    2.75000000
   16.53000069   74.61799622    0.86000001    2.75000000
   16.53305435   73.63980103    0.86000001    2.75000000
   16.53638840   75.16529846    0.86000001    2.75000000
   16.53722191   73.58329773    0.86000001    2.75000000
   16.53999901   77.11250305    0.86000001    2.75000000
   16.54305458   77.55390167    0.86000001    2.75000000
   16.54638863   76.06069946    0.86000001    2.75000000
   16.54972076   74.12840271    0.83999997    2.75000000
   16.55277634   77.93039703    0.83999997    2.75000000
   16.55611038   74.83480072    0.80000001    2.75000000
   16.56222153   74.83480072    0.80000001    2.75000000
   16.56638718   72.98310089    0.80000001    2.75000000
   16.56972313   77.04219818    0.81999999    2.76999998
   16.57055664   72.44809723    0.80000001    2.75000000
   16.57333374   75.61949921    0.81999999    2.75000000
   16.57638931   75.59420013    0.80000001    2.75000000
   16.57972336   79.57160187    0.80000001    2.75000000
   16.58305550   76.03369904    0.81999999    2.75000000
   16.58611107   75.45570374    0.83999997    2.75000000
   16.58944511   75.05069733    0.80000001    2.75000000
   16.59250069   75.50559998    0.80000001    2.75000000
   16.59583473   77.04759979    0.79000002    2.76999998
   16.59916687   77.48919678    0.79000002    2.75000000
   16.60499954   77.48919678    0.79000002    2.76999998
   16.60916710   75.64019775    0.76999998    2.75000000
   16.61250114   77.92269897    0.76999998    2.75000000
   16.61555672   73.83930206    0.76999998    2.75000000
   16.61888885   75.76280212    0.81999999    2.75000000
   16.62194443   75.18599701    0.81999999    2.75000000
   16.62527847   73.20120239    0.81999999    2.75000000
   16.62861061   72.61260223    0.83999997    2.75000000
   16.63166618   75.01429749    0.80000001    2.75000000
   16.63500023   75.93679810    0.80000001    2.75000000
   16.63722229   76.47419739    0.80000001    2.75000000
   16.63861084   77.28880310    0.80000001    2.75000000
   16.64194489   78.59980011    0.80000001    2.75000000
   16.64777756   78.59980011    0.80000001    2.75000000
   16.65194321   79.67340088    0.86000001    2.75000000
   16.65527725   78.83589935    0.86000001    2.75000000
   16.65861130   75.25689697    0.94000000    2.75000000
   16.66166687   76.93199921    0.94000000    2.75000000
   16.66499901   76.74240112    0.98000002    2.75000000
   16.66805458   79.61679840    0.98000002    2.75000000
   16.67055511   74.19930267    1.00000000    2.75000000
   16.67166519   82.37550354    1.00000000    2.75000000
   16.67499924   73.94300079    1.01999998    2.75000000
   16.67805481   77.98909760    1.01999998    2.75000000
   16.68138885   77.18229675    1.00000000    2.75000000
   16.68444443   78.98169708    1.00000000    2.75000000
   16.69083214   78.98169708    0.94000000    2.75000000
   16.69499969   73.26059723    0.94000000    2.75000000
   16.69805527   75.84449768    0.92000002    2.75000000
   16.70138931   77.62920380    0.92000002    2.75000000
   16.70388985   73.59239960    0.92000002    2.75000000
   16.70499992   72.17569733    0.89999998    2.75000000
   16.70805550   73.76650238    0.89999998    2.75000000
   16.71138954   73.66040039    0.89999998    2.75000000
   16.71472359   75.37740326    0.92000002    2.75000000
   16.71777916   75.62210083    0.98000002    2.73000002
   16.72111130   75.18340302    0.98000002    2.75000000
   16.72416687   75.24720001    1.00000000    2.73000002
   16.72750092   75.07440186    1.05999994    2.73000002
   16.73361206   75.07440186    1.03999996    2.73000002
   16.73777771   75.48539734    1.03999996    2.75000000
   16.74083328   73.06439972    1.01999998    2.75000000
   16.74416733   77.85769653    1.01999998    2.75000000
   16.74722290   73.79840088    1.01999998    2.73000002
   16.75055504   75.68389893    1.00000000    2.75000000
   16.75388908   79.50360107    0.98000002    2.75000000
   16.75694466   77.56420135    0.98000002    2.73000002
   16.76027870   75.13700104    0.98000002    2.73000002
   16.76333427   75.14330292    0.98000002    2.75000000
   16.76666641   79.03179932    0.95999998    2.73000002
   16.76972198   78.95169830    0.95999998    2.75000000
   16.77055550   77.05460358    0.95999998    2.75000000
   16.77638817   77.05460358    0.94000000    2.75000000
   16.78055573   78.23259735    0.92000002    2.75000000
   16.78388786   80.32910156    0.94000000    2.75000000
   16.78694344   80.36689758    0.92000002    2.75000000
   16.79027748   75.43160248    0.92000002    2.73000002
   16.79333305   81.94830322    0.89999998    2.73000002
   16.79666710   78.52600098    0.89999998    2.73000002
   16.79972076   80.92019653    0.89999998    2.75000000
   16.80305481   77.55310059    0.89999998    2.73000002
   16.80388832   76.02290344    0.89999998    2.73000002
   16.80666542   74.56990051    0.88000000    2.75000000
   16.80999947   74.37960052    0.88000000    2.75000000
   16.81305504   76.21080017    0.88000000    2.75000000
   16.81916809   76.21080017    0.89999998    2.75000000
   16.82333374   77.66380310    0.95999998    2.73000002
   16.82666779   76.13710022    0.95999998    2.75000000
   16.82972336   74.62500000    0.95999998    2.75000000
   16.83305550   77.48390198    0.95999998    2.73000002
   16.83638954   75.98159790    0.98000002    2.75000000
   16.83722305   72.01439667    0.98000002    2.75000000
   16.84000015   74.08399963    1.00000000    2.75000000
   16.84333420   79.08270264    0.98000002    2.75000000
   16.84638977   73.23970032    0.98000002    2.73000002
   16.84972191   73.40239716    0.98000002    2.75000000
   16.85277748   73.73829651    1.00000000    2.73000002
   16.85611153   75.22029877    1.01999998    2.75000000
   16.86222267   75.22029877    1.03999996    2.75000000
   16.86638832   73.35399628    1.05999994    2.75000000
   16.86944389   73.85780334    1.13000000    2.73000002
   16.87055588   71.82810211    1.11000001    2.73000002
   16.87305641   72.80599976    1.11000001    2.75000000
   16.87638855   73.25309753    1.13000000    2.73000002
   16.87944412   73.37490082    1.13000000    2.75000000
   16.88277817   75.04429626    1.19000006    2.73000002
   16.88583374   74.13439941    1.19000006    2.75000000
   16.88916588   72.07319641    1.23000002    2.73000002
   16.89249992   76.17060089    1.23000002    2.73000002
   16.89555550   74.24469757    1.23000002    2.73000002
   16.89888954   74.04489899    1.23000002    2.73000002
   16.90499878   74.04489899    1.11000001    2.73000002
   16.90916634   74.07749939    1.09000003    2.73000002
   16.91222191   73.06430054    1.09000003    2.75000000
   16.91555595   76.66950226    1.07000005    2.75000000
   16.91888809   72.60399628    1.11000001    2.75000000
   16.92194366   75.75309753    1.09000003    2.73000002
   16.92527771   72.90660095    1.09000003    2.73000002
   16.92833328   74.04029846    1.07000005    2.73000002
   16.93166542   74.77539825    1.05999994    2.73000002
   16.93472099   75.06900024    1.05999994    2.73000002
   16.93722153   72.81109619    1.07000005    2.75000000
   16.93833160   74.56189728    1.07000005    2.75000000
   16.94166565   73.71900177    1.07000005    2.75000000
   16.94777679   73.71900177    1.05999994    2.75000000
   16.95194435   74.17140198    1.03999996    2.75000000
   16.95527840   75.48680115    1.00000000    2.73000002
   16.95833397   76.68160248    1.00000000    2.73000002
   16.96166801   74.31159973    0.95999998    2.75000000
   16.96472359   75.96260071    0.92000002    2.75000000
   16.96805573   77.98590088    0.92000002    2.75000000
   16.97055626   78.67800140    0.89999998    2.75000000
   16.97166634   74.84279633    0.89999998    2.75000000
   16.97500038   75.38120270    0.89999998    2.75000000
   16.97805595   74.08029938    0.89999998    2.73000002
   16.98139000   73.95359802    0.89999998    2.75000000
   16.98444557   76.42630005    0.89999998    2.73000002
   16.99083328   76.42630005    0.89999998    2.75000000
   16.99472237   77.27359772    0.83999997    2.75000000
   16.99805641   74.70210266    0.80000001    2.73000002
   17.00111198   76.22730255    0.79000002    2.75000000
   17.00388908   75.86460114    0.76999998    2.75000000
   17.00472260   70.82710266    0.73000002    2.75000000
   17.00805473   73.40339661    0.70999998    2.75000000
   17.01111031   75.47190094    0.69000000    2.75000000
   17.01444435   72.54940033    0.69000000    2.75000000
   17.01749992   74.55870056    0.69000000    2.75000000
   17.02083397   71.48329926    0.69000000    2.75000000
   17.02416611   74.90830231    0.70999998    2.76999998
   17.02722168   72.85030365    0.70999998    2.75000000
   17.03361130   72.85030365    0.69000000    2.75000000
   17.03777695   73.79889679    0.69000000    2.75000000
   17.04111099   74.60260010    0.70999998    2.76999998
   17.04416656   74.01200104    0.70999998    2.75000000
   17.04749870   73.93540192    0.70999998    2.75000000
   17.05055428   74.37370300    0.70999998    2.75000000
   17.05388832   71.99369812    0.70999998    2.75000000
   17.05694389   76.77919769    0.70999998    2.75000000
   17.06027794   73.34580231    0.70999998    2.75000000
   17.06361008   74.76200104    0.70999998    2.75000000
   17.06666756   74.17050171    0.70999998    2.75000000
   17.07000160   74.95059967    0.73000002    2.75000000
   17.07083511   74.16410065    0.73000002    2.75000000
   17.07638931   74.16410065    0.73000002    2.75000000
   17.08055687   77.51260376    0.75000000    2.75000000
   17.08361244   73.33499908    0.75000000    2.75000000
   17.08694458   74.57530212    0.79000002    2.75000000
   17.09000015   73.09010315    0.79000002    2.75000000
   17.09333420   73.66880035    0.79000002    2.75000000
   17.09666824   74.79160309    0.80000001    2.75000000
   17.09972191   75.53479767    0.79000002    2.75000000
   17.10305595   76.26490021    0.79000002    2.73000002
   17.10388947   72.92939758    0.79000002    2.75000000
   17.10666656   75.64600372    0.76999998    2.75000000
   17.11000061   74.92400360    0.75000000    2.75000000
   17.11305618   78.58319855    0.73000002    2.75000000
   17.11916733   78.58319855    0.73000002    2.75000000
   17.12333298   75.03780365    0.70999998    2.73000002
   17.12666702   75.62030029    0.70999998    2.75000000
   17.12972260   73.63909912    0.70999998    2.75000000
   17.13305473   72.00980377    0.70999998    2.75000000
   17.13611031   72.05030060    0.70999998    2.75000000
   17.13750076   73.20629883    0.70999998    2.75000000
   17.13972282   71.09349823    0.70999998    2.75000000
   17.14305496   73.87480164    0.69000000    2.75000000
   17.14611053   75.07270050    0.69000000    2.75000000
   17.14944458   74.78959656    0.69000000    2.75000000
   17.15250015   76.00319672    0.69000000    2.75000000
   17.15583229   77.73719788    0.69000000    2.75000000
   17.16194344   77.73719788    0.70999998    2.75000000
   17.16611099   77.35330200    0.69000000    2.75000000
   17.16944313   76.30570221    0.69000000    2.75000000
   17.17083359   74.46320343    0.69000000    2.75000000
   17.17305565   72.32360077    0.69000000    2.75000000
   17.17638779   74.57430267    0.69000000    2.75000000
   17.17944336   75.27529907    0.69000000    2.75000000
   17.18277740   74.32980347    0.70999998    2.75000000
   17.18583298   74.70890045    0.69000000    2.76999998
   17.18916512   73.29789734    0.69000000    2.75000000
   17.19249916   74.29029846    0.67000002    2.75000000
   17.19555473   74.04810333    0.69000000    2.75000000
   17.19888878   73.30359650    0.69000000    2.75000000
   17.20499992   73.30359650    0.70999998    2.75000000
   17.20916748   80.45739746    0.70999998    2.75000000
   17.21222305   72.58570099    0.70999998    2.75000000
   17.21555710   80.09480286    0.70999998    2.75000000
   17.21861076   78.99520111    0.70999998    2.75000000
   17.22194481   75.86389923    0.67000002    2.75000000
   17.22527885   73.87930298    0.67000002    2.75000000
   17.22833443   75.01260376    0.67000002    2.76999998
   17.23166656   75.33630371    0.64999998    2.75000000
   17.23472214   74.76460266    0.64999998    2.76999998
   17.23750114   73.08470154    0.64999998    2.76999998
   17.23833275   76.54119873    0.64999998    2.75000000
   17.24166679   76.84110260    0.63000000    2.75000000
   17.24777794   76.84110260    0.63000000    2.75000000
   17.25194359   74.93530273    0.64999998    2.75000000
   17.25499916   73.71009827    0.67000002    2.75000000
   17.25833321   74.72149658    0.69000000    2.75000000
   17.26138878   77.52559662    0.70999998    2.75000000
   17.26472282   71.89050293    0.70999998    2.75000000
   17.26805496   77.37570190    0.70999998    2.75000000
   17.27083397   76.21790314    0.70999998    2.75000000
   17.27138901   75.71410370    0.69000000    2.75000000
   17.27472115   73.71260071    0.69000000    2.75000000
   17.27777672   75.40049744    0.69000000    2.75000000
   17.28111076   71.55760193    0.67000002    2.76999998
   17.28444481   74.14659882    0.67000002    2.75000000
   17.29055595   74.14659882    0.69000000    2.75000000
   17.29472160   74.09690094    0.70999998    2.75000000
   17.29805565   75.73320007    0.73000002    2.75000000
   17.30111122   73.94059753    0.73000002    2.75000000
   17.30416679   72.09619904    0.75000000    2.75000000
   17.30472183   75.13020325    0.75000000    2.73000002
   17.30805397   74.11180115    0.76999998    2.75000000
   17.31110954   74.48400116    0.79000002    2.75000000
   17.31444359   75.37640381    0.76999998    2.75000000
   17.31777954   73.00610352    0.76999998    2.75000000
   17.32083511   76.54129791    0.79000002    2.75000000
   17.32416725   73.96679688    0.79000002    2.75000000
   17.32722282   75.62339783    0.79000002    2.75000000
   17.33361244   75.62339783    0.76999998    2.75000000
   17.33750153   78.95310211    0.73000002    2.75000000
   17.34083366   73.37940216    0.73000002    2.75000000
   17.34416771   75.11060333    0.70999998    2.75000000
   17.34722328   74.65899658    0.69000000    2.75000000
   17.35055542   73.41649628    0.69000000    2.75000000
   17.35361099   74.88200378    0.69000000    2.75000000
   17.35694504   77.94670105    0.67000002    2.75000000
   17.36000061   75.82420349    0.64999998    2.75000000
   17.36333466   76.74320221    0.64999998    2.75000000
   17.36666679   76.89569855    0.64999998    2.75000000
   17.36972237   75.56269836    0.64999998    2.75000000
   17.37083435   76.22619629    0.64999998    2.76999998
   17.37638855   76.22619629    0.63000000    2.75000000
   17.38055611   73.93409729    0.58999997    2.75000000
   17.38361168   74.77030182    0.58999997    2.76999998
   17.38694382   73.91220093    0.58999997    2.75000000
   17.40444374   74.20050049    0.56999999    2.75000000
   17.40666580   72.56659698    0.56999999    2.75000000
   17.40999985   74.94589996    0.56999999    2.75000000
   17.41305542   76.01519775    0.56999999    2.75000000
   17.41944313   76.01519775    0.56999999    2.75000000
   17.42361069   72.74510193    0.56999999    2.75000000
   17.42666626   72.23059845    0.56999999    2.75000000
   17.43000031   73.69930267    0.55000001    2.75000000
   17.43305397   71.91510010    0.56999999    2.75000000
   17.43638802   70.92130280    0.58999997    2.76999998
   17.43777657   76.21839905    0.61000001    2.75000000
   17.43999863   -1.00000000    0.64999998    2.75000000
   17.44305420   -1.00000000    0.64999998    2.75000000
   17.44638824   74.55770111    0.69000000    2.75000000
   17.44944382   73.89869690    0.70999998    2.73000002
   17.45277786   76.39679718    0.73000002    2.75000000
   17.45583344   73.84680176    0.75000000    2.75000000
   17.46222305   73.84680176    0.73000002    2.75000000
   17.46638870   73.23120117    0.75000000    2.75000000
   17.46944427   76.29090118    0.73000002    2.75000000
   17.47111130   76.02950287    0.75000000    2.73000002
   17.47333336   73.96499634    0.76999998    2.75000000
   17.47638893   74.36830139    0.79000002    2.75000000
   17.47972298   75.44979858    0.79000002    2.75000000
   17.48277855   73.87940216    0.80000001    2.75000000
   17.48611069   75.09639740    0.80000001    2.73000002
   17.48944473   75.19539642    0.83999997    2.73000002
   17.49250031   72.94740295    0.86000001    2.73000002
   17.49583435   75.84700012    0.86000001    2.73000002
   17.49888992   73.76709747    0.83999997    2.73000002
   17.50499916   73.76709747    0.81999999    2.75000000
   17.50916672   73.55999756    0.80000001    2.73000002
   17.51250076   75.26770020    0.81999999    2.75000000
   17.51555634   72.06539917    0.83999997    2.73000002
   17.51888847   76.51360321    0.83999997    2.75000000
   17.52194405   72.52100372    0.88000000    2.73000002
   17.52527809   73.39360046    0.92000002    2.73000002
   17.52833366   75.38539886    0.89999998    2.73000002
   17.53166580   74.12310028    0.89999998    2.73000002
   17.53499985   72.84049988    0.88000000    2.75000000
   17.53777695   74.31400299    0.86000001    2.73000002
   17.53861046   74.56659698    0.88000000    2.73000002
   17.54166603   74.03099823    0.86000001    2.75000000
   17.54805565   74.03099823    0.86000001    2.75000000
   17.55194283   72.67410278    0.81999999    2.75000000
   17.55527687   73.67649841    0.81999999    2.73000002
   17.55861092   72.92539978    0.83999997    2.75000000
   17.56166649   77.77290344    0.86000001    2.75000000
   17.56499863   72.56690216    0.86000001    2.73000002
   17.56805611   77.42320251    0.86000001    2.73000002
   17.57111168   74.77749634    0.86000001    2.73000002
   17.57194519   76.51460266    0.81999999    2.75000000
   17.57500076   71.98190308    0.83999997    2.73000002
   17.57833481   77.23560333    0.80000001    2.73000002
   17.58166695   72.49019623    0.80000001    2.75000000
   17.58472252   74.32920074    0.80000001    2.73000002
   17.59083366   74.32920074    0.79000002    2.75000000
   17.59500122   74.58889771    0.79000002    2.75000000
   17.59805679   72.69339752    0.75000000    2.75000000
   17.60138893   71.55169678    0.75000000    2.75000000
   17.60444450   77.72309875    0.76999998    2.75000000
   17.60499954   71.46330261    0.76999998    2.73000002
   17.60805511   80.68309784    0.76999998    2.73000002
   17.61138916   81.44560242    0.79000002    2.75000000
   17.61444473   81.17330170    0.80000001    2.73000002
   17.61777878   77.99960327    0.79000002    2.73000002
   17.62111092   76.73090363    0.80000001    2.75000000
   17.62416649   75.56590271    0.81999999    2.73000002
   17.62750053   74.40390015    0.81999999    2.75000000
   17.63361168   74.40390015    0.81999999    2.75000000
   17.63777733   71.72170258    0.83999997    2.73000002
   17.63833237   71.46759796    0.83999997    2.73000002
   17.64138794   72.42340088    0.83999997    2.73000002
   17.64472198   77.63439941    0.83999997    2.75000000
   17.64777756   75.58540344    0.83999997    2.75000000
   17.65111160   74.80500031    0.81999999    2.73000002
   17.65444374   75.06569672    0.81999999    2.73000002
   17.65749931   69.84100342    0.83999997    2.73000002
   17.66083336   75.44349670    0.83999997    2.75000000
   17.66388893   74.69889832    0.83999997    2.73000002
   17.66722107   75.02580261    0.83999997    2.73000002
   17.67027664   77.07720184    0.83999997    2.73000002
   17.67111015   76.91359711    0.83999997    2.73000002
   17.67638779   76.91359711    0.88000000    2.73000002
   17.68055534   74.59210205    0.89999998    2.73000002
   17.68388748   71.78769684    0.89999998    2.73000002
   17.68694305   76.12190247    0.92000002    2.75000000
   17.69027710   73.83350372    0.94000000    2.73000002
   17.69333267   73.43019867    0.95999998    2.73000002
   17.69666672   73.35330200    0.95999998    2.73000002
   17.69972038   74.01100159    0.98000002    2.73000002
   17.70305634   72.69390106    0.98000002    2.73000002
   17.70444489   73.39230347    0.95999998    2.73000002
   17.70666695   73.51069641    0.95999998    2.73000002
   17.70972252   74.18299866    0.98000002    2.73000002
   17.71305656   74.91970062    0.98000002    2.73000002
   17.71916771   74.91970062    1.00000000    2.73000002
   17.72333336   72.73919678    0.98000002    2.73000002
   17.72666740   74.19319916    0.95999998    2.73000002
   17.72972298   70.52600098    0.92000002    2.73000002
   17.73305511   72.26619720    0.92000002    2.73000002
   17.73638916   73.74890137    0.88000000    2.73000002
   17.73777771   72.55940247    0.88000000    2.73000002
   17.73999977   71.22869873    0.88000000    2.73000002
   17.74305534   72.16329956    0.88000000    2.73000002
   17.74638939   73.22049713    0.86000001    2.75000000
   17.74944496   72.26560211    0.86000001    2.73000002
   17.75277710   71.71350098    0.86000001    2.73000002
   17.75611115   73.68859863    0.92000002    2.73000002
   17.76222229   73.68859863    0.89999998    2.73000002
   17.76638794   74.62850189    0.92000002    2.73000002
   17.76944351   74.40899658    0.92000002    2.73000002
   17.77111053   72.54709625    0.92000002    2.73000002
   17.77305603   77.25119781    0.92000002    2.73000002
   17.77611160   72.56500244    0.94000000    2.71000004
   17.77944374   74.51129913    0.94000000    2.75000000
   17.78249931   70.67169952    0.88000000    2.73000002
   17.78583336   75.48940277    0.88000000    2.73000002
   17.78916550   75.15550232    0.83999997    2.73000002
   17.79222107   74.64140320    0.81999999    2.73000002
   17.79555511   72.59600067    0.76999998    2.73000002
   17.79861069   77.42099762    0.79000002    2.73000002
   17.80499840   77.42099762    0.75000000    2.75000000
   17.80916595   74.18879700    0.75000000    2.73000002
   17.81222153   74.37200165    0.79000002    2.75000000
   17.81555557   74.71869659    0.80000001    2.73000002
   17.81861115   73.18450165    0.81999999    2.73000002
   17.82194519   72.46499634    0.83999997    2.73000002
   17.82527924   74.23870087    0.81999999    2.73000002
   17.82833481   73.63849640    0.81999999    2.73000002
   17.83166695   74.47080231    0.81999999    2.73000002
   17.83472252   75.17690277    0.81999999    2.73000002
   17.83777809   74.70970154    0.81999999    2.73000002
   17.83861160   74.64379883    0.81999999    2.73000002
   17.84194565   71.21530151    0.80000001    2.73000002
   17.84777832   71.21530151    0.75000000    2.73000002
   17.85194397   71.80539703    0.73000002    2.75000000
   17.85527802   75.95120239    0.73000002    2.75000000
   17.85833359   74.89080048    0.75000000    2.75000000
   17.86166763   77.05349731    0.76999998    2.73000002
   17.86472321   75.07689667    0.79000002    2.73000002
   17.86805534   73.40670013    0.76999998    2.73000002
   17.87111092   74.67489624    0.76999998    2.73000002
   17.87166595   74.05020142    0.76999998    2.73000002
   17.87472153   75.03479767    0.75000000    2.73000002
   17.87805557   72.60420227    0.75000000    2.73000002
   17.88138962   74.24379730    0.73000002    2.75000000
   17.88444519   70.45089722    0.73000002    2.75000000
   17.89055634   70.45089722    0.73000002    2.75000000
   17.89472198   75.68379974    0.73000002    2.73000002
   17.89805603   72.64299774    0.75000000    2.75000000
   17.90166664   73.38069916    0.76999998    2.73000002
   17.90444374   74.24089813    0.75000000    2.73000002
   17.90527725   70.46510315    0.75000000    2.73000002
   17.90833282   72.75109863    0.76999998    2.73000002
   17.91166687   72.54319763    0.75000000    2.73000002
   17.91499901   75.26360321    0.75000000    2.73000002
   17.91805458   73.53230286    0.75000000    2.73000002
   17.92138863   71.88629913    0.75000000    2.73000002
   17.92444420   72.06990051    0.75000000    2.73000002
   17.92777634   72.58679962    0.76999998    2.73000002
   17.93361092   72.58679962    0.76999998    2.73000002
   17.93750000   76.55970001    0.76999998    2.73000002
   17.93805504   71.71730042    0.76999998    2.73000002
   17.94138718   70.61150360    0.81999999    2.73000002
   17.94472122   72.20010376    0.81999999    2.73000002
   17.94777679   74.71610260    0.81999999    2.73000002
   17.95111275   74.54660034    0.79000002    2.73000002
   17.95416832   72.30760193    0.79000002    2.75000000
   17.95750046   72.47309875    0.73000002    2.73000002
   17.96055603   74.56649780    0.75000000    2.75000000
   17.96389008   77.46800232    0.75000000    2.73000002
   17.96722221   73.74169922    0.73000002    2.75000000
   17.97027779   72.22930145    0.73000002    2.75000000
   17.97138977   74.02559662    0.73000002    2.73000002
   17.97638893   74.02559662    0.75000000    2.73000002
   17.98055649   71.36479950    0.76999998    2.73000002
   17.98361206   75.52050018    0.76999998    2.75000000
   17.98694420   75.42610168    0.79000002    2.73000002
   17.98999977   72.88300323    0.80000001    2.73000002
   17.99333382   74.76589966    0.83999997    2.73000002
   17.99666786   77.43949890    0.83999997    2.71000004
   17.99972153   73.85220337    0.83999997    2.73000002
   18.00305557   74.74279785    0.86000001    2.73000002
   18.00472260   71.19480133    0.86000001    2.73000002
   18.00666618   74.51010132    0.86000001    2.71000004
   18.01000023   72.11499786    0.88000000    2.73000002
   18.01305580   73.36900330    0.88000000    2.73000002
   18.01916695   73.36900330    0.89999998    2.73000002
   18.02333260   76.73000336    1.00000000    2.73000002
   18.02666664   76.12349701    1.01999998    2.71000004
   18.02972221   71.94660187    1.01999998    2.71000004
   18.03305435   73.90329742    1.05999994    2.71000004
   18.03610992   75.30290222    1.13000000    2.71000004
   18.03805542   73.67169952    1.11000001    2.73000002
   18.03972244   75.68039703    1.07000005    2.73000002
   18.04305458   74.47979736    1.01999998    2.71000004
   18.04611015   75.39179993    1.00000000    2.71000004
   18.04944420   73.48290253    0.98000002    2.71000004
   18.05249977   71.90540314    0.94000000    2.71000004
   18.05583191   71.29360199    0.88000000    2.73000002
   18.06194305   71.29360199    0.88000000    2.73000002
   18.06611061   76.73760223    0.86000001    2.73000002
   18.06944466   74.05989838    0.86000001    2.73000002
   18.07139015   73.49909973    0.86000001    2.71000004
   18.07305717   74.78610229    0.88000000    2.71000004
   18.07638931   73.59909821    0.88000000    2.73000002
   18.07944489   73.26439667    0.88000000    2.71000004
   18.08277893   75.24680328    0.88000000    2.71000004
   18.08583450   73.71150208    0.83999997    2.73000002
   18.08916664   74.22290039    0.83999997    2.71000004
   18.09222221   73.63200378    0.81999999    2.71000004
   18.09555626   72.14250183    0.80000001    2.73000002
   18.09889030   73.58670044    0.81999999    2.75000000
   18.10499954   73.58670044    0.80000001    2.73000002
   18.10888863   72.51000214    0.80000001    2.73000002
   18.11222267   75.34030151    0.80000001    2.71000004
   18.11555672   70.99710083    0.81999999    2.73000002
   18.11861038   73.72049713    0.83999997    2.71000004
   18.12194443   75.98149872    0.86000001    2.73000002
   18.12500000   76.79859924    0.86000001    2.71000004
   18.12833405   72.67459869    0.86000001    2.73000002
   18.13138962   72.16840363    0.88000000    2.71000004
   18.13472176   74.06349945    0.88000000    2.71000004
   18.13805580   74.86399841    0.92000002    2.73000002
   18.13833237   75.13050079    0.92000002    2.73000002
   18.14166641   72.64289856    0.92000002    2.73000002
   18.14777756   72.64289856    0.92000002    2.73000002
   18.15194321   76.03160095    0.89999998    2.71000004
   18.15499878   75.15950012    0.92000002    2.73000002
   18.15833282   74.21260071    0.92000002    2.71000004
   18.16138840   76.69840240    0.95999998    2.71000004
   18.16472244   71.61499786    0.98000002    2.71000004
   18.16805458   73.93409729    0.98000002    2.71000004
   18.17111015   75.50730133    1.00000000    2.71000004
   18.17166519   74.95960236    1.00000000    2.71000004
   18.17472076   73.96360016    1.00000000    2.73000002
   18.17805481   76.53500366    0.98000002    2.71000004
   18.18111038   77.13310242    1.00000000    2.71000004
   18.18444443   73.75450134    0.98000002    2.71000004
   18.19055557   73.75450134    1.00000000    2.73000002
   18.19472122   73.59459686    1.01999998    2.71000004
   18.19805527   75.99539948    1.01999998    2.71000004
   18.20111275   74.40769958    1.05999994    2.71000004
   18.20444489   74.23490143    1.07000005    2.71000004
   18.20499992   72.73519897    1.07000005    2.71000004
   18.20805550   74.37020111    1.07000005    2.71000004
   18.21138954   74.42060089    1.07000005    2.71000004
   18.21444511   75.55410004    1.05999994    2.71000004
   18.21777916   74.99289703    1.03999996    2.71000004
   18.22083473   75.91429901    1.03999996    2.71000004
   18.22416687   73.22940063    1.03999996    2.71000004
   18.22750092   75.43759918    1.05999994    2.71000004
   18.23333359   75.43759918    1.07000005    2.71000004
   18.23750114   76.93309784    1.05999994    2.71000004
   18.23833275   75.04419708    1.05999994    2.71000004
   18.24111176   75.09369659    1.05999994    2.71000004
   18.24444389   72.90920258    1.03999996    2.71000004
   18.24749947   76.29620361    1.03999996    2.71000004
   18.25083351   73.97000122    1.03999996    2.71000004
   18.25388908   73.50209808    1.07000005    2.71000004
   18.25722313   76.10369873    1.09000003    2.69000006
   18.26027870   74.97200012    1.14999998    2.69000006
   18.26361084   74.79969788    1.14999998    2.69000006
   18.26694489   73.63569641    1.14999998    2.71000004
   18.27000046   75.48190308    1.14999998    2.71000004
   18.27166557   73.57029724    1.13000000    2.69000006
   18.27638817   73.57029724    1.13000000    2.69000006
   18.28027725   78.94120026    1.11000001    2.71000004
   18.28361130   74.46649933    1.11000001    2.69000006
   18.28694344   74.37969971    1.11000001    2.71000004
   18.28999901   74.23529816    1.09000003    2.71000004
   18.29333305   73.53440094    1.09000003    2.71000004
   18.29638863   73.42359924    1.09000003    2.71000004
   18.29972076   76.98290253    1.09000003    2.71000004
   18.30305481   75.87930298    1.09000003    2.71000004
   18.30527687   74.63619995    1.03999996    2.69000006
   18.30638885   73.01139832    1.00000000    2.71000004
   18.30972099   73.05339813    1.00000000    2.71000004
   18.31277657   73.24359894    0.95999998    2.71000004
   18.31916809   73.24359894    0.98000002    2.71000004
   18.32333374   72.39589691    0.98000002    2.71000004
   18.32666779   73.69139862    1.01999998    2.71000004
   18.32972336   79.09400177    1.03999996    2.71000004
   18.33305550   74.52400208    1.03999996    2.69000006
   18.33611107   74.59100342    1.05999994    2.71000004
   18.33861160   79.02130127    1.05999994    2.71000004
   18.33972359   74.98149872    1.05999994    2.71000004
   18.34305573   74.42510223    1.05999994    2.69000006
   18.34611130   74.36660004    1.03999996    2.69000006
   18.34944534   73.99299622    1.03999996    2.71000004
   18.35250092   72.40689850    1.05999994    2.69000006
   18.35583305   74.46330261    1.03999996    2.71000004
   18.36194420   74.46330261    1.03999996    2.69000006
   18.36611176   78.76619720    1.05999994    2.71000004
   18.36944389   76.45220184    1.05999994    2.71000004
   18.37194443   74.87619781    1.07000005    2.69000006
   18.37277794   75.56690216    1.07000005    2.71000004
   18.37611198   74.98249817    1.07000005    2.71000004
   18.37916756   73.33100128    1.05999994    2.71000004
   18.38249969   76.36769867    1.05999994    2.71000004
   18.38583374   74.74060059    1.05999994    2.71000004
   18.38888931   74.47470093    1.05999994    2.71000004
   18.39222145   74.00540161    1.05999994    2.71000004
   18.39527702   73.48639679    1.05999994    2.71000004
   18.39861107   71.29060364    1.03999996    2.69000006
   18.40472221   71.29060364    1.03999996    2.71000004
   18.42333221   73.88150024    1.05999994    2.71000004
   18.42638779   73.65139771    1.07000005    2.69000006
   18.42972183   75.92400360    1.07000005    2.69000006
   18.43277740   75.23400116    1.05999994    2.69000006
   18.43610954   74.85279846    1.05999994    2.71000004
   18.43944359   76.12550354    1.01999998    2.69000006
   18.44249916   72.38469696    1.01999998    2.71000004
   18.44805527   72.38469696    1.01999998    2.69000006
   18.45194435   75.14129639    1.01999998    2.69000006
   18.45527840   76.98410034    1.00000000    2.69000006
   18.45639038   76.89749908    1.00000000    2.69000006
   18.45888901   76.33550262    1.00000000    2.71000004
   18.46222305   73.72689819    0.98000002    2.71000004
   18.46527863   75.80519867    0.98000002    2.71000004
   18.46861076   74.15699768    0.98000002    2.71000004
   18.47194481   75.56759644    0.98000002    2.71000004
   18.47500038   74.36329651    0.95999998    2.71000004
   18.47833443   73.61530304    0.95999998    2.71000004
   18.48139000   75.75499725    0.95999998    2.71000004
   18.48472214   76.40979767    0.94000000    2.71000004
   18.49083328   76.40979767    0.94000000    2.71000004
   18.49500084   75.31790161    0.95999998    2.71000004
   18.49805641   72.22949982    0.95999998    2.69000006
   18.50138855   72.48880005    0.98000002    2.69000006
   18.50444412   73.44129944    1.01999998    2.69000006
   18.50777817   73.55970001    1.01999998    2.69000006
   18.51111031   77.94339752    1.01999998    2.71000004
   18.51416588   76.31159973    1.01999998    2.69000006
   18.51749992   74.90509796    1.01999998    2.69000006
   18.52055550   77.83679962    1.01999998    2.71000004
   18.52305603   76.06420135    1.01999998    2.69000006
   18.52416611   74.06970215    1.01999998    2.69000006
   18.52750015   73.70469666    1.01999998    2.69000006
   18.53361130   73.70469666    1.00000000    2.69000006
   18.53777695   74.25669861    1.00000000    2.69000006
   18.54083252   75.08989716    1.00000000    2.69000006
   18.54416656   76.31060028    1.01999998    2.69000006
   18.54749870   76.25420380    1.01999998    2.71000004
   18.55055428   77.36450195    1.01999998    2.69000006
   18.55388832   75.86260223    1.01999998    2.71000004
   18.55638885   76.66310120    1.01999998    2.71000004
   18.55722237   76.60469818    1.01999998    2.71000004
   18.56055450   77.25789642    1.01999998    2.69000006
   18.56361008   77.39369965    0.98000002    2.69000006
   18.56694603   78.11609650    0.98000002    2.69000006
   18.57027817   76.50469971    0.98000002    2.69000006
   18.57638931   76.50469971    0.95999998    2.69000006
   18.58055687   76.17749786    0.95999998    2.71000004
   18.58388901   77.09179688    0.95999998    2.69000006
   18.58694458   72.63809967    0.98000002    2.69000006
   18.58972359   74.07080078    0.98000002    2.71000004
   18.59055710   74.44249725    0.98000002    2.71000004
   18.59388924   74.55819702    0.95999998    2.69000006
   18.59722328   78.03540039    0.98000002    2.69000006
   18.60027885   76.61990356    0.95999998    2.69000006
   18.60361099   76.72940063    0.95999998    2.69000006
   18.60666656   72.17449951    0.94000000    2.69000006
   18.61000061   75.28330231    0.94000000    2.69000006
   18.61305618   72.62270355    0.94000000    2.71000004
   18.61944389   72.62270355    0.94000000    2.69000006
   18.62333298   74.33370209    0.94000000    2.69000006
   18.62666702   76.92289734    0.92000002    2.69000006
   18.63000107   76.47619629    0.92000002    2.71000004
   18.63305473   76.11270142    0.88000000    2.69000006
   18.63638878   75.29329681    0.88000000    2.71000004
   18.63944435   75.38999939    0.86000001    2.71000004
   18.64277840   80.12149811    0.83999997    2.69000006
   18.64583397   71.93520355    0.86000001    2.71000004
   18.64916611   74.90100098    0.83999997    2.69000006
   18.65250015   75.66750336    0.83999997    2.69000006
   18.65555573   74.50260162    0.83999997    2.71000004
   18.65638924   73.19090271    0.83999997    2.71000004
   18.66222191   73.19090271    0.86000001    2.71000004
   18.66638756   76.03939819    0.86000001    2.69000006
   18.66944313   73.43440247    0.88000000    2.69000006
   18.67277718   73.64990234    0.88000000    2.69000006
   18.67583275   75.20510101    0.86000001    2.69000006
   18.67916679   72.84619904    0.86000001    2.71000004
   18.68249893   73.35700226    0.89999998    2.69000006
   18.68555450   74.89459991    0.92000002    2.71000004
   18.68888855   78.14839935    0.95999998    2.69000006
   18.68972206   76.25270081    0.95999998    2.69000006
   18.69222069   76.03990173    0.95999998    2.69000006
   18.69555473   75.38990021    1.00000000    2.69000006
   18.69861031   78.53549957    1.00000000    2.69000006
   18.70499992   78.53549957    1.01999998    2.69000006
   18.70916748   76.88710022    1.03999996    2.69000006
   18.71222305   77.52809906    1.01999998    2.69000006
   18.71555710   73.69770050    1.01999998    2.69000006
   18.71888924   73.15529633    1.03999996    2.69000006
   18.72194481   76.57350159    1.03999996    2.69000006
   18.72305679   74.08940125    1.03999996    2.69000006
   18.72555542   77.79570007    1.03999996    2.69000006
   18.72888947   74.67160034    1.03999996    2.69000006
   18.73194504   72.69290161    1.01999998    2.69000006
   18.73527718   72.42600250    1.01999998    2.69000006
   18.73861122   72.30770111    1.01999998    2.69000006
   18.74166679   74.48229980    1.00000000    2.69000006
   18.74777794   74.48229980    1.00000000    2.69000006
   18.75194359   75.07469940    1.00000000    2.69000006
   18.75527763   75.49109650    0.98000002    2.67000008
   18.75638962   73.33580017    0.98000002    2.69000006
   18.75861168   72.73130035    1.00000000    2.69000006
   18.76194382   75.00360107    1.00000000    2.69000006
   18.76527786   75.53359985    1.00000000    2.69000006
   18.76833344   72.10009766    0.98000002    2.69000006
   18.77166557   75.05699921    1.00000000    2.69000006
   18.77472115   76.79840088    1.00000000    2.67000008
   18.77805519   78.58599854    1.03999996    2.67000008
   18.78111076   76.61460114    1.05999994    2.67000008
   18.78444481   76.97599792    1.05999994    2.67000008
   18.79083252   76.97599792    1.03999996    2.69000006
   18.79472160   79.58249664    1.03999996    2.67000008
   18.79805565   76.60849762    1.03999996    2.67000008
   18.80138779   75.19550323    1.03999996    2.67000008
   18.80444336   74.25659943    1.03999996    2.67000008
   18.80777740   74.33260345    1.03999996    2.67000008
   18.81083298   71.69290161    1.05999994    2.67000008
   18.81416512   72.03720093    1.05999994    2.67000008
   18.81722260   71.38339996    1.05999994    2.67000008
   18.82055664   73.96379852    1.05999994    2.67000008
   18.82305717   74.19969940    1.05999994    2.67000008
   18.82416725   75.10479736    1.05999994    2.67000008
   18.82750130   74.87560272    1.05999994    2.67000008
   18.83361244   74.87560272    1.07000005    2.67000008
   18.83777809   78.22070313    1.05999994    2.67000008
   18.84083366   74.22889709    1.03999996    2.69000006
   18.84416771   75.56980133    1.03999996    2.67000008
   18.84722328   76.97419739    1.01999998    2.67000008
   18.85055542   72.59970093    1.01999998    2.67000008
   18.85388947   79.23880005    1.01999998    2.67000008
   18.85639000   76.23889923    1.01999998    2.67000008
   18.85722351   75.04470062    1.01999998    2.69000006
   18.86055565   74.15209961    1.05999994    2.67000008
   18.86388969   74.01550293    1.03999996    2.67000008
   18.86694527   75.74490356    1.09000003    2.67000008
   18.87027740   78.14969635    1.09000003    2.67000008
   18.87638855   78.14969635    1.05999994    2.67000008
   18.88055611   74.46589661    1.07000005    2.67000008
   18.88388824   74.95629883    1.11000001    2.67000008
   18.88694382   75.22109985    1.11000001    2.67000008
   18.88972282   76.03359985    1.11000001    2.66000009
   18.89055634   73.52690125    1.11000001    2.67000008
   18.89388847   72.35489655    1.13000000    2.67000008
   18.89722252   74.93270111    1.11000001    2.67000008
   18.90027809   73.19370270    1.13000000    2.67000008
   18.90361023   75.68900299    1.11000001    2.66000009
   18.90666580   74.45240021    1.13000000    2.67000008
   18.90999985   74.51799774    1.11000001    2.67000008
   18.91305542   75.10179901    1.13000000    2.67000008
   18.91916656   75.10179901    1.05999994    2.67000008
   18.92333221   74.55480194    1.05999994    2.67000008
   18.92666626   73.42289734    1.05999994    2.67000008
   18.92972183   75.50090027    1.03999996    2.67000008
   18.93305397   74.66089630    1.03999996    2.67000008
   18.93638802   72.89640045    1.03999996    2.67000008
   18.93944359   72.13130188    1.01999998    2.67000008
   18.94277763   73.06269836    1.00000000    2.67000008
   18.94583321   73.31659698    1.00000000    2.67000008
   18.94916534   73.35299683    1.01999998    2.67000008
   18.95222282   73.00520325    1.01999998    2.67000008
   18.95555687   73.89990234    1.01999998    2.67000008
   18.95639038   74.71170044    1.01999998    2.67000008
   18.96222305   74.71170044    1.01999998    2.67000008
   18.96611214   76.90360260    1.00000000    2.67000008
   18.96944427   73.41629791    1.00000000    2.67000008
   18.97277832   73.18170166    1.00000000    2.66000009
   18.97583389   75.62779999    1.00000000    2.66000009
   18.97916794   73.49829865    1.01999998    2.67000008
   18.98222351   75.35700226    1.01999998    2.67000008
   18.98555565   74.89459991    1.01999998    2.67000008
   18.98888969   74.51319885    1.01999998    2.67000008
   18.98972321   75.29940033    1.01999998    2.67000008
   18.99222183   76.31430054    1.01999998    2.67000008
   18.99555588   72.39360046    1.00000000    2.67000008
   18.99888992   74.63210297    1.03999996    2.67000008
   19.00499916   74.63210297    1.09000003    2.67000008
   19.00916672   72.94139862    1.09000003    2.66000009
   19.01222229   74.33550262    1.09000003    2.66000009
   19.01555634   74.18910217    1.09000003    2.67000008
   19.01888847   76.18769836    1.09000003    2.66000009
   19.02222252   72.06649780    1.11000001    2.67000008
   19.02305603   76.44779968    1.11000001    2.66000009
   19.02555466   74.88269806    1.09000003    2.66000009
   19.02888870   73.09359741    1.09000003    2.67000008
   19.03222275   72.84519958    1.07000005    2.67000008
   19.03527641   73.77030182    1.09000003    2.66000009
   19.03861046   74.04429626    1.09000003    2.66000009
   19.04166603   73.76139832    1.09000003    2.67000008
   19.04777718   73.76139832    1.11000001    2.66000009
   19.05194283   74.33560181    1.11000001    2.66000009
   19.05499840   74.88169861    1.13000000    2.66000009
   19.05638885   73.81950378    1.11000001    2.66000009
   19.05888748   74.68969727    1.13000000    2.66000009
   19.06194305   70.92379761    1.11000001    2.66000009
   19.06527710   76.63140106    1.11000001    2.67000008
   19.06833458   73.96230316    1.11000001    2.66000009
   19.07166672   73.21720123    1.13000000    2.66000009
   19.07472229   74.94270325    1.11000001    2.66000009
   19.07805634   98.65979767    1.11000001    2.66000009
   19.08139038   76.13110352    1.11000001    2.66000009
   19.08444595   77.64800262    1.09000003    2.66000009
   19.09055710   77.64800262    1.09000003    2.66000009
   19.09472275   76.26180267    1.07000005    2.66000009
   19.09805679   72.55870056    1.07000005    2.66000009
   19.10111237   75.68240356    1.03999996    2.66000009
   19.10444450   74.55919647    1.03999996    2.66000009
   19.10750008   73.04910278    1.00000000    2.67000008
   19.11083412   73.70230103    0.98000002    2.66000009
   19.11416626   72.29540253    0.95999998    2.67000008
   19.11722183   78.07460022    0.95999998    2.66000009
   19.12055588   74.60549927    1.11000001    2.66000009
   19.12305641   75.31300354    1.16999996    2.66000009
   19.12416649   77.73840332    1.25000000    2.66000009
   19.12722206   72.89459991    1.66999996    2.66000009
   19.13361168   72.89459991    1.94000006    2.66000009
   19.13777733   73.18969727    1.61000001    2.66000009
   19.14083290   73.29540253    1.55999994    2.66000009
   19.14416695   74.21630096    1.28999996    2.66000009
   19.14722252   72.73729706    1.33000004    2.66000009
   19.15055466   77.20529938    1.36000001    2.66000009
   19.15361023   74.70629883    1.36000001    2.66000009
   19.15638924   76.28220367    1.26999998    2.66000009
   19.15749931   73.32039642    1.25000000    2.66000009
   19.16055489   77.47180176    1.21000004    2.66000009
   19.16388893   74.49349976    1.07000005    2.66000009
   19.16694450   73.80590057    1.07000005    2.67000008
   19.17027664   73.11180115    1.11000001    2.67000008
   19.17638779   73.11180115    1.21000004    2.67000008
   19.18055534   71.23709869    1.21000004    2.67000008
   19.18361092   73.60540009    1.23000002    2.66000009
   19.18694305   73.12210083    1.13000000    2.66000009
   19.18972206   76.47879791    1.14999998    2.66000009
   19.19055557   73.48639679    1.14999998    2.66000009
   19.19361115   77.29820251    1.14999998    2.66000009
   19.19694328   75.40910339    1.13000000    2.66000009
   19.20000076   73.25409698    1.00000000    2.66000009
   19.20333481   75.24829865    1.01999998    2.66000009
   19.20639038   76.57469940    1.01999998    2.66000009
   19.20972252   72.31500244    1.01999998    2.66000009
   19.21305656   76.46910095    1.01999998    2.66000009
   19.21916771   76.46910095    1.05999994    2.66000009
   19.22333336   74.15720367    1.07000005    2.66000009
   19.22666740   72.63130188    1.07000005    2.66000009
   19.22972298   72.52480316    1.07000005    2.66000009
   19.23305511   75.02790070    1.05999994    2.66000009
   19.23611069   77.18019867    1.05999994    2.66000009
   19.23944473   72.82520294    1.03999996    2.66000009
   19.24250031   72.97070313    1.01999998    2.66000009
   19.24583435   75.33159637    1.01999998    2.66000009
   19.24916649   75.05439758    1.03999996    2.66000009
   19.25250053   74.55439758    1.03999996    2.66000009
   19.25555611   73.54579926    1.03999996    2.66000009
   19.25638962   76.64620209    1.03999996    2.66000009
   19.26194382   76.64620209    1.03999996    2.64000010
   19.26611137   76.02919769    1.03999996    2.64000010
   19.26944351   78.30829620    1.03999996    2.64000010
   19.27249908   73.64360046    1.03999996    2.64000010
   19.27583313   75.26460266    1.03999996    2.66000009
   19.27888870   73.67700195    1.07000005    2.66000009
   19.28222275   73.84510040    1.05999994    2.64000010
   19.28555489   78.87429810    1.05999994    2.66000009
   19.28861046   77.58879852    1.05999994    2.64000010
   19.28972244   74.65709686    1.05999994    2.66000009
   19.29249954   77.39969635    1.05999994    2.64000010
   19.29555511   72.93859863    1.05999994    2.64000010
   19.29888916   75.92680359    1.05999994    2.66000009
   19.30499840   75.92680359    1.05999994    2.64000010
   19.30888748   73.74019623    1.05999994    2.64000010
   19.31222153   75.08399963    1.05999994    2.64000010
   19.31555557   78.04019928    1.05999994    2.64000010
   19.31861115   79.72630310    1.05999994    2.66000009
   19.32194519   73.47350311    1.05999994    2.64000010
   19.32305717   75.82389832    1.05999994    2.66000009
   19.32555580   76.57800293    1.03999996    2.64000010
   19.32861137   74.94519806    1.03999996    2.64000010
   19.33194542   78.03320313    1.03999996    2.64000010
   19.33500099   75.84700012    1.03999996    2.64000010
   19.33833313   76.72209930    1.05999994    2.64000010
   19.34166718   76.11479950    1.03999996    2.64000010
   19.34777832   76.11479950    1.03999996    2.64000010
   19.35194397   79.06040192    1.07000005    2.64000010
   19.35499954   74.74330139    1.07000005    2.64000010
   19.35639000   77.56120300    1.07000005    2.64000010
   19.35888863   78.05370331    1.07000005    2.64000010
   19.36194420   75.91590118    1.05999994    2.64000010
   19.36527824   76.88430023    1.05999994    2.64000010
   19.36833382   74.50610352    1.05999994    2.64000010
   19.37166595   73.38099670    1.05999994    2.64000010
   19.37500000   76.33460236    1.07000005    2.64000010
   19.37805557   75.18800354    1.11000001    2.64000010
   19.38138962   75.52729797    1.11000001    2.64000010
   19.38444519   73.73670197    1.13000000    2.64000010
   19.39055634   73.73670197    1.13000000    2.64000010
   19.39472198   76.00689697    1.09000003    2.64000010
   19.39805603   73.50610352    1.05999994    2.64000010
   19.40111160   75.53050232    1.05999994    2.64000010
   19.40444374   74.74340057    1.03999996    2.64000010
   19.40749931   73.86460114    1.03999996    2.64000010
   19.41083336   73.44560242    1.05999994    2.64000010
   19.41388893   73.76959991    1.09000003    2.64000010
   19.41722107   74.73079681    1.09000003    2.64000010
   19.42055511   76.17620087    1.13000000    2.64000010
   19.42305565   73.35009766    1.13000000    2.64000010
   19.44361115   73.35009766    1.13000000    2.64000010
   19.44777679   75.22290039    1.09000003    2.64000010
   19.45111275   74.82749939    1.09000003    2.64000010
   19.45416832   73.33499908    1.09000003    2.64000010
   19.45639038   76.48120117    1.07000005    2.64000010
   19.45805550   73.58249664    1.05999994    2.61999989
   19.46138954   74.76419830    1.05999994    2.61999989
   19.46444511   76.65750122    1.05999994    2.64000010
   19.46777916   76.07949829    1.05999994    2.64000010
   19.47083473   74.50520325    1.05999994    2.64000010
   19.47416687   75.48429871    1.05999994    2.64000010
   19.47722244   77.48040009    1.07000005    2.64000010
   19.48055649   75.25270081    1.09000003    2.64000010
   19.48638916   75.25270081    1.11000001    2.64000010
   19.49055672   76.34639740    1.11000001    2.61999989
   19.49388885   76.42379761    1.13000000    2.61999989
   19.49694443   74.03489685    1.11000001    2.61999989
   19.50027847   72.79019928    1.13000000    2.61999989
   19.50333405   74.56109619    1.13000000    2.61999989
   19.50666618   77.36669922    1.11000001    2.64000010
   19.50972176   73.47270203    1.07000005    2.64000010
   19.51305580   76.33049774    1.07000005    2.64000010
   19.51638794   75.49539948    1.07000005    2.61999989
   19.51944351   73.32879639    1.07000005    2.61999989
   19.52277756   77.13279724    1.09000003    2.61999989
   19.52333260   75.09089661    1.09000003    2.61999989
   19.52916718   75.09089661    1.13000000    2.61999989
   19.53333282   72.54380035    1.16999996    2.61999989
   19.53666687   75.28320313    1.19000006    2.61999989
   19.53972244   74.97869873    1.19000006    2.59999990
   19.54305458   77.01290131    1.21000004    2.61999989
   19.54638863   74.93039703    1.21000004    2.64000010
   19.54944420   74.59249878    1.21000004    2.61999989
   19.55277634   75.50779724    1.21000004    2.61999989
   19.55583191   78.54250336    1.19000006    2.59999990
   19.55666542   75.85430145    1.19000006    2.59999990
   19.55944443   74.82099915    1.21000004    2.61999989
   19.56277657   73.60260010    1.21000004    2.61999989
   19.56583214   74.41979980    1.23000002    2.61999989
   19.57222366   74.41979980    1.25000000    2.61999989
   19.57638931   73.95880127    1.25000000    2.61999989
   19.57944489   75.01830292    1.25000000    2.61999989
   19.58277893   76.15440369    1.23000002    2.61999989
   19.58583450   73.76670074    1.21000004    2.59999990
   19.58916664   74.62619781    1.21000004    2.61999989
   19.59000015   73.33979797    1.21000004    2.61999989
   19.59277916   73.01309967    1.16999996    2.59999990
   19.59611130   74.63069916    1.16999996    2.61999989
   19.59916687   75.85970306    1.16999996    2.61999989
   19.60250092   74.33190155    1.16999996    2.61999989
   19.60583305   77.50740051    1.14999998    2.61999989
   19.60888863   75.98410034    1.14999998    2.61999989
   19.61499977   75.98410034    1.13000000    2.59999990
   19.61916733   75.75460052    1.13000000    2.61999989
   19.62222290   75.30960083    1.13000000    2.61999989
   19.62333298   75.16280365    1.13000000    2.61999989
   19.62583351   74.79630280    1.13000000    2.59999990
   19.62916756   77.20850372    1.13000000    2.59999990
   19.63222313   75.48090363    1.14999998    2.61999989
   19.63555527   77.72409821    1.13000000    2.61999989
   19.63888931   75.33760071    1.13000000    2.59999990
   19.64194489   74.18900299    1.11000001    2.59999990
   19.64527702   73.63729858    1.09000003    2.59999990
   19.64833260   73.98210144    1.11000001    2.59999990
   19.65166664   75.20999908    1.13000000    2.59999990
   19.65777779   75.20999908    1.14999998    2.61999989
   19.66194344   76.74900055    1.14999998    2.59999990
   19.66527748   74.35649872    1.13000000    2.59999990
   19.66833305   74.90540314    1.14999998    2.59999990
   19.67166519   75.14900208    1.14999998    2.59999990
   19.67472076   76.20639801    1.13000000    2.59999990
   19.67805481   74.01499939    1.14999998    2.59999990
   19.68138885   72.56420135    1.16999996    2.59999990
   19.68444443   74.47589874    1.16999996    2.59999990
   19.68777657   74.43389893    1.16999996    2.59999990
   19.68999863   72.25769806    1.19000006    2.59999990
   19.69138718   74.39559937    1.21000004    2.59999990
   19.69472122   76.19139862    1.19000006    2.59999990
   19.70055580   76.19139862    1.19000006    2.59999990
   19.70472336   76.36789703    1.19000006    2.59999990
   19.70805550   75.44529724    1.19000006    2.59999990
   19.71138954   77.30799866    1.19000006    2.59999990
   19.71444511   75.94840240    1.21000004    2.59999990
   19.71777916   75.30110168    1.21000004    2.59999990
   19.72083473   79.14250183    1.21000004    2.59999990
   19.72333336   75.96109772    1.21000004    2.59999990
   19.72444534   74.91709900    1.21000004    2.59999990
   19.72777748   75.02660370    1.21000004    2.59999990
   19.73083305   76.43340302    1.21000004    2.59999990
   19.73416710   75.47170258    1.19000006    2.59999990
   19.73750114   75.16639709    1.19000006    2.59999990
   19.74361229   75.16639709    1.19000006    2.57999992
   19.74777794   74.88569641    1.19000006    2.59999990
   19.75083351   76.77220154    1.19000006    2.57999992
   19.75416756   78.29699707    1.19000006    2.59999990
   19.75666618   73.54049683    1.19000006    2.57999992
   19.75749969   74.85220337    1.19000006    2.59999990
   19.76083374   73.63200378    1.19000006    2.59999990
   19.76388931   73.32479858    1.19000006    2.59999990
   19.76722145   77.42500305    1.19000006    2.59999990
   19.77055550   74.29060364    1.19000006    2.59999990
   19.77361107   75.21820068    1.19000006    2.57999992
   19.77694511   77.22200012    1.19000006    2.57999992
   19.78000069   75.43730164    1.19000006    2.57999992
   19.78638840   75.43730164    1.16999996    2.59999990
   19.79055595   77.90660095    1.19000006    2.59999990
   19.79361153   72.15640259    1.16999996    2.57999992
   19.79694366   74.53530121    1.16999996    2.57999992
   19.80027771   74.56079865    1.19000006    2.57999992
   19.80333328   74.81819916    1.21000004    2.57999992
   19.80666542   79.68370056    1.16999996    2.57999992
   19.80972099   76.23190308    1.14999998    2.57999992
   19.81305504   80.05670166    1.13000000    2.57999992
   19.81611061   74.90470123    1.14999998    2.57999992
   19.81944466   77.96600342    1.13000000    2.57999992
   19.82277870   78.75340271    1.16999996    2.59999990
   19.82333374   77.16680145    1.16999996    2.59999990
   19.82916832   77.16680145    1.16999996    2.57999992
   19.83333397   74.70680237    1.19000006    2.55999994
   19.83666801   75.72350311    1.19000006    2.57999992
   19.83972359   74.98650360    1.21000004    2.57999992
   19.84305573   73.71769714    1.19000006    2.57999992
   19.84611130   75.97619629    1.19000006    2.57999992
   19.84944534   78.07150269    1.19000006    2.57999992
   19.85277748   77.01820374    1.21000004    2.57999992
   19.85583305   76.44930267    1.21000004    2.57999992
   19.85666656   76.64050293    1.21000004    2.57999992
   19.85944557   78.68450165    1.21000004    2.57999992
   19.86277771   -1.00000000    1.25000000    2.55999994
   19.86583328   -1.00000000    1.21000004    2.55999994
   19.87611198   -1.00000000    1.19000006    2.57999992
   19.87944412   -1.00000000    1.19000006    2.57999992
   19.88249969   -1.00000000    1.19000006    2.57999992
   19.88583374   -1.00000000    1.19000006    2.55999994
   19.88888931   -1.00000000    1.21000004    2.57999992
   19.89249992   -1.00000000    1.19000006    2.55999994
   19.89583397   -1.00000000    1.19000006    2.55999994
   19.89888954   -1.00000000    1.16999996    2.55999994
   19.90222168   -1.00000000    1.16999996    2.57999992
   19.90527725   -1.00000000    1.14999998    2.55999994
   19.90861130   -1.00000000    1.14999998    2.55999994
   19.91888809   -1.00000000    1.14999998    2.55999994
   19.92222214   -1.00000000    1.16999996    2.55999994
   19.92555428   -1.00000000    1.16999996    2.55999994
   19.92888832   -1.00000000    1.21000004    2.55999994
   19.93194389   -1.00000000    1.23000002    2.55999994
   19.93527603   -1.00000000    1.26999998    2.55999994
   19.93833160   -1.00000000    1.28999996    2.55999994
   19.94166565   -1.00000000    1.30999994    2.55999994
   19.94472122   -1.00000000    1.30999994    2.55999994
   19.94805527   -1.00000000    1.33000004    2.53999996
   19.95138931   -1.00000000    1.36000001    2.55999994
   19.96166801   -1.00000000    1.46000004    2.55999994
   19.96500015   -1.00000000    1.46000004    2.55999994
   19.96833420   -1.00000000    1.51999998    2.53999996
   19.97138977   -1.00000000    1.51999998    2.53999996
   19.97472191   -1.00000000    1.51999998    2.53999996
   19.97777748   -1.00000000    1.51999998    2.53999996
   19.98111153   -1.00000000    1.50000000    2.55999994
   19.98416710   -1.00000000    1.50000000    2.53999996
   19.98750114   -1.00000000    1.48000002    2.53999996
   19.99111176   -1.00000000    1.44000006    2.53999996
   19.99444389   -1.00000000    1.44000006    2.53999996
   20.00472260   -1.00000000    1.38000000    2.53999996
   20.00777817   -1.00000000    1.36000001    2.53999996
   20.01111031   -1.00000000    1.36000001    2.53999996
   20.01416588   -1.00000000    1.36000001    2.53999996
   20.01749992   -1.00000000    1.33000004    2.53999996
   20.02083397   -1.00000000    1.33000004    2.53999996
   20.02416611   -1.00000000    1.34000003    2.53999996
   20.02750015   -1.00000000    1.34000003    2.53999996
   20.03055573   -1.00000000    1.36000001    2.55999994
   20.03388786   -1.00000000    1.36000001    2.55999994
   20.03694344   -1.00000000    1.36000001    2.53999996
   20.04749870   -1.00000000    1.41999996    2.53999996
   20.05083275   -1.00000000    1.41999996    2.51999998
   20.05388832   -1.00000000    1.39999998    2.51999998
   20.05749893   -1.00000000    1.39999998    2.51999998
   20.06083298   -1.00000000    1.39999998    2.51999998
   20.06388855   -1.00000000    1.39999998    2.53999996
   20.06722260   -1.00000000    1.38000000    2.53999996
   20.07027817   -1.00000000    1.38000000    2.51999998
   20.07361221   -1.00000000    1.39999998    2.51999998
   20.07666779   -1.00000000    1.38000000    2.53999996
   20.08000183   -1.00000000    1.38000000    2.53999996
   20.09055710   -1.00000000    1.39999998    2.51999998
   20.09361267   -1.00000000    1.41999996    2.51999998
   20.09694481   -1.00000000    1.44000006    2.51999998
   20.10000038   -1.00000000    1.48000002    2.51999998
   20.10333443   -1.00000000    1.50000000    2.51999998
   20.10666656   -1.00000000    1.51999998    2.51999998
   20.10972214   -1.00000000    1.51999998    2.51999998
   20.11305618   -1.00000000    1.51999998    2.51999998
   20.11611176   -1.00000000    1.51999998    2.51999998
   20.11944389   -1.00000000    1.53999996    2.51999998
   20.12249947   -1.00000000    1.55999994    2.51999998
   20.13305473   -1.00000000    1.53999996    2.50000000
   20.13638878   -1.00000000    1.53999996    2.51999998
   20.13972282   -1.00000000    1.55999994    2.50000000
   20.14277840   -1.00000000    1.53999996    2.50000000
   20.14611053   -1.00000000    1.55999994    2.51999998
   20.14916611   -1.00000000    1.55999994    2.50000000
   20.15250015   -1.00000000    1.55999994    2.50000000
   20.15555573   -1.00000000    1.55999994    2.50000000
   20.15916634   -1.00000000    1.53999996    2.50000000
   20.16250038   -1.00000000    1.53999996    2.50000000
   20.16555595   -1.00000000    1.51999998    2.50000000
   20.17611122   -1.00000000    1.50000000    2.50000000
   20.17916679   -1.00000000    1.50000000    2.51999998
   20.18249893   -1.00000000    1.50000000    2.51999998
   20.18555450   -1.00000000    1.46000004    2.51999998
   20.18888855   -1.00000000    1.46000004    2.50000000
   20.19222069   -1.00000000    1.46000004    2.50000000
   20.19555473   -1.00000000    1.44000006    2.50000000
   20.19861031   -1.00000000    1.44000006    2.51999998
   20.20194435   -1.00000000    1.44000006    2.50000000
   20.20499992   -1.00000000    1.44000006    2.50000000
   20.20833397   -1.00000000    1.44000006    2.50000000
   20.21888924   -1.00000000    1.44000006    2.50000000
   20.22194481   -1.00000000    1.41999996    2.50000000
   20.22583389   -1.00000000    1.41999996    2.50000000
   20.22888947   -1.00000000    1.41999996    2.50000000
   20.23222351   -1.00000000    1.41999996    2.50000000
   20.23527718   -1.00000000    1.41999996    2.50000000
   20.23861122   -1.00000000    1.46000004    2.50000000
   20.24166679   -1.00000000    1.46000004    2.50000000
   20.24500084   -1.00000000    1.46000004    0.13000000
   20.24833298   -1.00000000    1.46000004    2.50000000
   20.25138855   -1.00000000    1.46000004    2.48000002
   20.26166725   -1.00000000    1.48000002    2.48000002
   20.26499939   -1.00000000    1.50000000    2.48000002
   20.26805496   -1.00000000    1.51999998    2.48000002
   20.27138901   -1.00000000    1.53999996    2.48000002
   20.27472115   -1.00000000    1.55999994    2.48000002
   20.27777672   -1.00000000    1.55999994    2.48000002
   20.28111076   -1.00000000    1.55999994    2.48000002
   20.28416634   -1.00000000    1.58000004    2.48000002
   20.28750038   -1.00000000    1.58000004    2.48000002
   20.29083252   -1.00000000    1.58000004    2.48000002
   20.29416656   -1.00000000    1.60000002    2.48000002
   20.30444336   -1.00000000    1.61000001    2.46000004
   20.30777740   -1.00000000    1.63000000    2.48000002
   20.31110954   -1.00000000    1.63000000    2.48000002
   20.31416512   -1.00000000    1.66999996    2.48000002
   20.31750107   -1.00000000    1.66999996    2.46000004
   20.32055664   -1.00000000    1.66999996    2.46000004
   20.32416725   -1.00000000    1.66999996    2.46000004
   20.32750130   -1.00000000    1.71000004    2.46000004
   20.33055687   -1.00000000    1.71000004    2.46000004
   20.33388901   -1.00000000    1.73000002    2.46000004
   20.33694458   -1.00000000    1.75000000    2.46000004
   20.34749985   -1.00000000    1.75000000    2.46000004
   20.35055542   -1.00000000    1.75000000    2.44000006
   20.35388947   -1.00000000    1.75000000    2.46000004
   20.35722351   -1.00000000    1.75000000    2.46000004
   20.36055565   -1.00000000    1.76999998    2.46000004
   20.36361122   -1.00000000    1.76999998    2.46000004
   20.36694527   -1.00000000    1.76999998    2.46000004
   20.37000084   -1.00000000    1.76999998    2.46000004
   20.37333298   -1.00000000    1.75000000    2.46000004
   20.37666702   -1.00000000    1.76999998    2.46000004
   20.37972260   -1.00000000    1.75000000    2.46000004
   20.39027786   -1.00000000    1.73000002    2.44000006
   20.39361191   -1.00000000    1.73000002    2.44000006
   20.39666748   -1.00000000    1.71000004    2.44000006
   20.39999962   -1.00000000    1.69000006    2.46000004
   20.40305519   -1.00000000    1.66999996    2.46000004
   20.40638924   -1.00000000    1.64999998    2.44000006
   20.40944481   -1.00000000    1.64999998    2.46000004
   20.41277695   -1.00000000    1.66999996    2.46000004
   20.41583252   -1.00000000    1.66999996    2.46000004
   20.41916656   -1.00000000    1.64999998    2.46000004
   20.42249870   -1.00000000    1.64999998    2.44000006
   20.43305397   -1.00000000    1.63000000    2.46000004
   20.43638802   -1.00000000    1.64999998    2.44000006
   20.43944359   -1.00000000    1.64999998    2.44000006
   20.45916748   -1.00000000    1.75000000    2.44000006
   20.46222305   -1.00000000    1.76999998    2.42000008
   20.46555710   -1.00000000    1.76999998    2.42000008
   20.47611237   -1.00000000    1.83000004    2.42000008
   20.47916794   -1.00000000    1.85000002    2.42000008
   20.48250008   -1.00000000    1.88000000    2.42000008
   20.48555565   -1.00000000    1.88000000    2.42000008
   20.48888969   -1.00000000    1.88000000    2.42000008
   20.49250031   -1.00000000    1.88000000    2.42000008
   20.49555588   -1.00000000    1.89999998    2.40000010
   20.49888992   -1.00000000    1.89999998    2.40000010
   20.50194359   -1.00000000    1.89999998    2.42000008
   20.50527763   -1.00000000    1.89999998    2.40000010
   20.50861168   -1.00000000    1.89999998    2.40000010
   20.51888847   -1.00000000    1.89999998    2.40000010
   20.52222252   -1.00000000    1.89999998    2.40000010
   20.52583313   -1.00000000    1.91999996    2.40000010
   20.52888870   -1.00000000    1.89999998    2.40000010
   20.53222275   -1.00000000    1.89999998    2.40000010
   20.53527641   -1.00000000    1.91999996    2.40000010
   20.53861046   -1.00000000    1.94000006    2.40000010
   20.54194450   -1.00000000    1.96000004    2.40000010
   20.54500008   -1.00000000    2.01999998    2.40000010
   20.54833221   -1.00000000    2.05999994    2.39000010
   20.55138779   -1.00000000    2.07999992    2.40000010
   20.56166649   -1.00000000    2.19000006    2.39000010
   20.56499863   -1.00000000    2.19000006    2.39000010
   20.56805611   -1.00000000    2.21000004    2.39000010
   20.57139015   -1.00000000    2.26999998    2.39000010
   20.57444572   -1.00000000    2.28999996    2.39000010
   20.57777786   -1.00000000    2.30999994    2.39000010
   20.58111191   -1.00000000    2.34999990    2.39000010
   20.58416748   -1.00000000    2.39000010    2.36999989
   20.58750153   -1.00000000    2.40000010    2.36999989
   20.59111214   -1.00000000    2.44000006    2.36999989
   20.59416771   -1.00000000    2.42000008    2.36999989
   20.60444450   -1.00000000    2.50000000    2.36999989
   20.60777855   -1.00000000    2.50000000    2.36999989
   20.61111069   -1.00000000    2.50000000    2.34999990
   20.61416626   -1.00000000    2.55999994    2.34999990
   20.61750031   -1.00000000    2.59999990    2.34999990
   20.62055588   -1.00000000    2.59999990    2.34999990
   20.62416649   -1.00000000    2.61999989    2.34999990
   20.62722206   -1.00000000    2.64000010    2.34999990
   20.63055611   -1.00000000    2.64000010    2.34999990
   20.63361168   -1.00000000    2.66000009    2.34999990
   20.63694382   -1.00000000    2.66000009    2.34999990
   20.64749908   -1.00000000    2.67000008    2.34999990
   20.65055466   -1.00000000    2.64000010    2.34999990
   20.65388870   -1.00000000    2.64000010    2.34999990
   20.65749931   -1.00000000    2.66000009    2.32999992
   20.66055489   -1.00000000    2.67000008    2.32999992
   20.66388893   -1.00000000    2.73000002    2.32999992
   20.66694450   -1.00000000    2.76999998    2.32999992
   20.67027664   -1.00000000    2.80999994    2.32999992
   20.67333221   -1.00000000    2.82999992    2.32999992
   20.67666626   -1.00000000    2.86999989    2.30999994
   20.68000031   -1.00000000    2.89000010    2.32999992
   20.69027710   -1.00000000    2.93000007    2.32999992
   20.69388771   -1.00000000    2.93000007    2.32999992
   20.69722176   -1.00000000    2.94000006    2.32999992
   20.70027924   -1.00000000    2.94000006    2.30999994
   20.70361137   -1.00000000    2.96000004    2.30999994
   20.70666695   -1.00000000    2.98000002    2.30999994
   20.71000099   -1.00000000    3.01999998    2.30999994
   20.71305656   -1.00000000    3.01999998    2.30999994
   20.71638870   -1.00000000    3.01999998    2.30999994
   20.71972275   -1.00000000    3.01999998    2.30999994
   20.72277832   -1.00000000    3.01999998    2.30999994
   20.73305511   -1.00000000    3.01999998    2.28999996
   20.73638916   -1.00000000    3.03999996    2.30999994
   20.73944473   -1.00000000    3.07999992    2.28999996
   20.74277878   -1.00000000    3.11999989    2.28999996
   20.74583435   -1.00000000    3.16000009    2.28999996
   20.74916649   -1.00000000    3.16000009    2.28999996
   20.75250053   -1.00000000    3.18000007    2.28999996
   20.75555611   -1.00000000    3.21000004    2.28999996
   20.75916672   -1.00000000    3.23000002    2.26999998
   20.76250076   -1.00000000    3.25000000    2.26999998
   20.76555634   -1.00000000    3.26999998    2.28999996
   20.77583313   -1.00000000    3.36999989    2.26999998
   20.77916718   -1.00000000    3.39000010    2.26999998
   20.78249931   -1.00000000    3.43000007    2.26999998
   20.78555489   -1.00000000    3.46000004    2.26999998
   20.78888893   -1.00000000    3.51999998    2.25000000
   20.79222107   -1.00000000    3.53999996    2.26999998
   20.79555511   -1.00000000    3.59999990    2.25000000
   20.79861069   -1.00000000    3.61999989    2.25000000
   20.80194283   -1.00000000    3.66000009    2.25000000
   20.80499840   -1.00000000    3.70000005    2.23000002
   20.80833244   -1.00000000    3.72000003    2.25000000
   20.81888962   -1.00000000    3.91000009    2.23000002
   20.82194519   -1.00000000    3.95000005    2.23000002
   20.82555580   -1.00000000    3.97000003    2.23000002
   20.82888985   -1.00000000    4.00000000    2.23000002
   20.83194542   -1.00000000    4.01999998    2.23000002
   20.83527756   -1.00000000    4.03999996    2.23000002
   20.83833313   -1.00000000    4.05999994    2.23000002
   20.84166718   -1.00000000    4.07999992    2.23000002
   20.84472275   -1.00000000    4.09999990    2.23000002
   20.84805679   -1.00000000    4.11999989    2.21000004
   20.85138893   -1.00000000    4.15999985    2.21000004
   20.86166763   -1.00000000    4.23999977    2.21000004
   20.86499977   -1.00000000    4.26000023    2.21000004
   20.86805534   -1.00000000    4.26999998    2.21000004
   20.87138939   -1.00000000    4.28999996    2.21000004
   20.87444496   -1.00000000    4.28999996    2.19000006
   20.87777710   -1.00000000    4.30999994    2.19000006
   20.88083267   -1.00000000    4.32999992    2.19000006
   20.88416672   -1.00000000    4.32999992    2.19000006
   20.88722229   -1.00000000    4.30999994    2.19000006
   20.89055634   -1.00000000    4.30999994    2.19000006
   20.89416695   -1.00000000    4.28999996    2.19000006
   20.90444374   -1.00000000    4.32999992    2.17000008
   20.90777779   -1.00000000    4.32999992    2.19000006
   20.91083336   -1.00000000    4.30999994    2.17000008
   20.91416550   -1.00000000    4.28999996    2.17000008
   20.91722107   -1.00000000    4.26999998    2.17000008
   20.92055511   -1.00000000    4.26000023    2.17000008
   20.92361069   -1.00000000    4.26000023    2.17000008
   20.92722130   -1.00000000    4.21999979    2.17000008
   20.93055534   -1.00000000    4.21999979    2.17000008
   20.93361092   -1.00000000    4.19999981    2.17000008
   20.93694305   -1.00000000    4.19999981    2.17000008
   20.94722176   -1.00000000    4.19999981    2.17000008
   20.95055580   -1.00000000    4.21999979    2.17000008
   20.95388985   -1.00000000    4.19999981    2.17000008
   20.95694542   -1.00000000    4.19999981    2.17000008
   20.96055603   -1.00000000    4.19999981    2.17000008
   20.96389008   -1.00000000    4.19999981    2.15000010
   20.96694565   -1.00000000    4.19999981    2.15000010
   20.97027779   -1.00000000    4.17999983    2.15000010
   20.97333336   -1.00000000    4.17999983    2.17000008
   20.97666740   -1.00000000    4.17999983    2.15000010
   20.97972298   -1.00000000    4.17999983    2.15000010
   20.99027824   -1.00000000    4.13999987    2.15000010
   20.99361229   -1.00000000    4.13999987    2.13000011
   20.99694443   -1.00000000    4.13999987    2.13000011
   21.00000000   -1.00000000    4.13999987    2.13000011
   21.00333405   -1.00000000    4.13999987    2.13000011
   21.00638962   -1.00000000    4.13999987    2.15000010
   21.00972176   -1.00000000    4.15999985    2.15000010
   21.01277733   -1.00000000    4.17999983    2.13000011
   21.01611137   -1.00000000    4.15999985    2.13000011
   21.01944351   -1.00000000    4.15999985    2.13000011
   21.02249908   -1.00000000    4.15999985    2.13000011
   21.03305435   -1.00000000    4.15999985    2.11999989
   21.03610992   -1.00000000    4.15999985    2.13000011
   21.03944397   -1.00000000    4.15999985    2.13000011
   21.04277802   -1.00000000    4.17999983    2.11999989
   21.04583359   -1.00000000    4.15999985    2.13000011
   21.04916573   -1.00000000    4.13999987    2.11999989
   21.05222130   -1.00000000    4.13999987    2.13000011
   21.05555534   -1.00000000    4.13999987    2.11999989
   21.05888748   -1.00000000    4.13999987    2.11999989
   21.06222153   -1.00000000    4.13999987    2.11999989
   21.06527710   -1.00000000    4.13999987    2.09999990
   21.07583427   -1.00000000    4.15999985    2.11999989
   21.07916832   -1.00000000    4.17999983    2.11999989
   21.08222389   -1.00000000    4.17999983    2.09999990
   21.08555603   -1.00000000    4.19999981    2.09999990
   21.08861160   -1.00000000    4.21999979    2.09999990
   21.09222221   -1.00000000    4.21999979    2.09999990
   21.09555626   -1.00000000    4.23999977    2.09999990
   21.09861183   -1.00000000    4.26000023    2.09999990
   21.10194397   -1.00000000    4.26999998    2.07999992
   21.10499954   -1.00000000    4.28999996    2.07999992
   21.10833359   -1.00000000    4.28999996    2.09999990
   21.11861038   -1.00000000    4.26000023    2.07999992
   21.12194443   -1.00000000    4.23999977    2.07999992
   21.12527847   -1.00000000    4.23999977    2.07999992
   21.12861061   -1.00000000    4.23999977    2.07999992
   21.13166618   -1.00000000    4.23999977    2.07999992
   21.13500023   -1.00000000    4.23999977    2.07999992
   21.13805580   -1.00000000    4.23999977    2.05999994
   21.14138794   -1.00000000    4.23999977    2.05999994
   21.14444351   -1.00000000    4.23999977    2.05999994
   21.14777756   -1.00000000    4.23999977    2.05999994
   21.15111160   -1.00000000    4.23999977    2.03999996
   21.16083336   -1.00000000    4.26999998    2.03999996
   21.16388893   -1.00000000    4.26999998    2.03999996
   21.16694450   -1.00000000    4.26999998    2.05999994
   21.17000008   -1.00000000    4.28999996    2.03999996
   21.17305565   -1.00000000    4.28999996    2.03999996
