    HOUR (UT)   FLARE FACTOR    SKY TESTER    SUN TESTER
   12.17222214   -1.00000000   -1.00000000   -1.00000000
   12.19999981  121.07399750    4.90999985    2.19000006
   12.20333290  129.41900635    4.90999985    2.21000004
   12.20638847  134.19599915    4.90999985    2.21000004
   12.20972157  135.47099304    4.90999985    2.21000004
   12.21305561  125.84700012    4.90999985    2.21000004
   12.43416691  120.74600220    4.80999994    2.30999994
   12.43750000  128.75900269    4.80000019    2.30999994
   12.44055557  118.19899750    4.78000021    2.32999992
   12.44388866  131.31300354    4.73999977    2.32999992
   12.44722271  124.63400269    4.71999979    2.34999990
   12.45027733  127.94100189    4.69999981    2.32999992
   12.45444393  127.94100189    4.67999983    2.32999992
   12.45861053  126.19100189    4.76000023    2.32999992
   12.46194458  128.50300598    4.80999994    2.32999992
   12.46500015  129.92599487    4.84999990    2.32999992
   12.46749973  125.45200348    4.86999989    2.32999992
   12.46888828  121.52400208    4.86999989    2.32999992
   12.47222137  136.40800476    4.90999985    2.32999992
   12.47527695  127.37500000    4.90999985    2.32999992
   12.47861099  124.64600372    4.90999985    2.32999992
   12.48166656  127.09400177    4.90999985    2.32999992
   12.48500061  120.54000092    4.90999985    2.32999992
   12.48833370  122.42500305    4.90999985    2.32999992
   12.49138927  120.56500244    4.90999985    2.32999992
   12.49805546  120.56500244    4.88999987    2.32999992
   12.50249958  126.71700287    4.90999985    2.34999990
   12.50555515  131.27799988    4.90999985    2.34999990
   12.50888920  125.28800201    4.90999985    2.34999990
   12.51194477  116.56199646    4.90999985    2.32999992
   12.51527786  128.66600037    4.90999985    2.34999990
   12.51861095  123.80200195    4.90999985    2.32999992
   12.52166653  116.09899902    4.90999985    2.34999990
   12.52499962  120.03399658    4.90999985    2.32999992
   12.52833271  123.12799835    4.90999985    2.32999992
   12.53138828  125.91799927    4.90999985    2.34999990
   12.53416729  117.06400299    4.90999985    2.34999990
   12.53500080  116.09899902    4.90999985    2.34999990
   12.54027843  116.09899902    4.90999985    2.34999990
   12.54444504  121.26799774    4.90999985    2.32999992
   12.54750061  120.04000092    4.90999985    2.32999992
   12.55083370  117.47000122    4.90999985    2.36999989
   12.55416679  119.99299622    4.90999985    2.34999990
   12.55722237  120.21499634    4.90999985    2.36999989
   12.56055546  116.22100067    4.90999985    2.36999989
   12.56361103  112.90799713    4.88999987    2.34999990
   12.56694412  112.45400238    4.86999989    2.34999990
   12.56750011  114.85800171    4.86999989    2.34999990
   12.57055569  113.63800049    4.84999990    2.36999989
   12.57388878  110.27999878    4.82999992    2.34999990
   12.57694435  115.36399841    4.84999990    2.36999989
   12.58305550  115.36399841    4.88999987    2.36999989
   12.58722210  117.70099640    4.88999987    2.36999989
   12.59055519  120.30100250    4.86999989    2.36999989
   12.59361076  106.59600067    4.80999994    2.36999989
   12.59694386  122.31800079    4.76000023    2.36999989
   12.60000038  116.61499786    4.76000023    2.39000010
   12.60083389  110.55000305    4.76000023    2.39000010
   12.60388947  114.77700043    4.73999977    2.36999989
   12.60722256  111.75700378    4.69999981    2.39000010
   12.61027813  113.21600342    4.65999985    2.36999989
   12.61361122  103.34400177    4.65999985    2.39000010
   12.61777782  112.01699829    4.67999983    2.39000010
   12.62111092  120.41100311    4.67999983    2.36999989
   12.62611103  120.41100311    4.65999985    2.39000010
   12.63027763  107.27100372    4.65999985    2.39000010
   12.63361073  113.53399658    4.65999985    2.39000010
   12.63416672  117.74400330    4.63999987    2.39000010
   12.63722229  105.83999634    4.61999989    2.39000010
   12.64055538  110.31600189    4.61999989    2.39000010
   12.64361095  116.32900238    4.59999990    2.39000010
   12.64694405  115.73699951    4.59999990    2.39000010
   12.64999962  118.93599701    4.59999990    2.39000010
   12.65333271  110.46700287    4.57999992    2.39000010
   12.65666676  113.05599976    4.59999990    2.40000010
   12.65972137  112.76399994    4.61999989    2.40000010
   12.66305542  113.56999969    4.65999985    2.40000010
   12.66916656  113.56999969    4.71999979    2.39000010
   12.67305565  114.30000305    4.73999977    2.39000010
   12.67638874  106.39199829    4.73999977    2.39000010
   12.67972279  109.13300323    4.76000023    2.39000010
   12.68277836  112.06700134    4.76000023    2.40000010
   12.68611145  111.71099854    4.80000019    2.39000010
   12.68944454  112.98699951    4.80999994    2.39000010
   12.69250011  105.72899628    4.80999994    2.39000010
   12.69583321  113.50499725    4.80000019    2.40000010
   12.69888878  107.29399872    4.78000021    2.39000010
   12.70083332  112.27700043    4.78000021    2.40000010
   12.70277786  114.13200378    4.76000023    2.40000010
   12.70611095  110.09899902    4.71999979    2.40000010
   12.71194458  110.09899902    4.65999985    2.40000010
   12.71611118  108.42099762    4.63999987    2.39000010
   12.71916580  107.36900330    4.63999987    2.40000010
   12.72249985  105.82700348    4.61999989    2.40000010
   12.72583294   98.35510254    4.57999992    2.40000010
   12.72888851  116.07199860    4.55999994    2.40000010
   12.73222160  105.42700195    4.57999992    2.40000010
   12.73416710  111.25800323    4.57999992    2.40000010
   12.73583317  119.43900299    4.57999992    2.40000010
   12.73916721  115.45400238    4.57999992    2.40000010
   12.74222279  115.06600189    4.59999990    2.40000010
   12.74555588  113.90299988    4.61999989    2.40000010
   12.74888897  112.21199799    4.63999987    2.40000010
   12.75472260  112.21199799    4.69999981    2.40000010
   12.75888920  114.84999847    4.71999979    2.40000010
   12.76222229  111.32099915    4.71999979    2.40000010
   12.76527786  112.67299652    4.73999977    2.40000010
   12.76749992  111.83699799    4.73999977    2.42000008
   12.76888847  103.17500305    4.76000023    2.40000010
   12.77222157  112.94200134    4.76000023    2.42000008
   12.77527714  120.29299927    4.76000023    2.42000008
   12.77861118  109.71499634    4.71999979    2.42000008
   12.78194427  105.30999756    4.71999979    2.42000008
   12.78500080  116.83799744    4.73999977    2.42000008
   12.78833389  109.55000305    4.73999977    2.40000010
   12.79166698   96.11969757    4.76000023    2.42000008
   12.79750061   96.11969757    4.80999994    2.42000008
   12.80166721  102.26899719    4.80999994    2.40000010
   12.80500031  107.56400299    4.80000019    2.42000008
   12.80805588  103.03800201    4.80999994    2.42000008
   12.81138897  102.50099945    4.84999990    2.42000008
   12.81472206  110.72799683    4.86999989    2.40000010
   12.81777763  110.46600342    4.90999985    2.42000008
   12.82111073  103.40200043    4.90999985    2.42000008
   12.82444477  101.75399780    4.90999985    2.42000008
   12.82750034  110.93599701    4.90999985    2.42000008
   12.83083344  100.41500092    4.90999985    2.40000010
   12.83388901   99.43099976    4.90999985    2.42000008
   12.83444405  109.02999878    4.90999985    2.42000008
   12.84055519  109.02999878    4.90999985    2.40000010
   12.84444427  112.00800323    4.90999985    2.42000008
   12.84777737  115.95200348    4.90999985    2.40000010
   12.85111141  111.21900177    4.90999985    2.42000008
   12.85416698  107.28900146    4.90999985    2.40000010
   12.85750008  113.25599670    4.90999985    2.42000008
   12.86083412  111.20200348    4.90999985    2.42000008
   12.86388969  109.90200043    4.90999985    2.42000008
   12.86722279  102.56099701    4.90999985    2.42000008
   12.86777782  103.18699646    4.90999985    2.42000008
   12.87083340  109.30500031    4.90999985    2.42000008
   12.87416649  109.89900208    4.90999985    2.40000010
   12.87722206  110.05000305    4.90999985    2.42000008
   12.88333321  110.05000305    4.90999985    2.42000008
   12.88749981  114.44499969    4.90999985    2.42000008
   12.89055538  107.67199707    4.90999985    2.42000008
   12.89388847  108.29900360    4.90999985    2.42000008
   12.89722252  110.33399963    4.90999985    2.44000006
   12.90027714  111.14800262    4.90999985    2.44000006
   12.90111065  114.41699982    4.90999985    2.44000006
   12.90388870  107.65699768    4.90999985    2.44000006
   12.90722179  111.02799988    4.90999985    2.42000008
   12.91027737  108.24900055    4.90999985    2.44000006
   12.91361046  113.40499878    4.90999985    2.44000006
   12.91694450  110.28700256    4.90999985    2.42000008
   12.92000008  110.21900177    4.90999985    2.44000006
   12.92611122  110.21900177    4.90999985    2.44000006
   12.93027782  112.73899841    4.90999985    2.44000006
   12.93333340  107.50900269    4.90999985    2.44000006
   12.93444443  108.59400177    4.90999985    2.44000006
   12.93694496   99.28140259    4.90999985    2.44000006
   12.94027805  107.46600342    4.90999985    2.44000006
   12.94333363  106.41999817    4.90999985    2.46000004
   12.94666672  110.43599701    4.90999985    2.44000006
   12.94999981  105.80100250    4.90999985    2.44000006
   12.95305538  104.04100037    4.90999985    2.44000006
   12.95638847  111.26300049    4.90999985    2.44000006
   12.95944405  106.00499725    4.90999985    2.46000004
   12.96277714  117.77200317    4.90999985    2.44000006
   12.96888828  117.77200317    4.90999985    2.44000006
   12.97305489  100.74800110    4.90999985    2.44000006
   12.97638798  106.97699738    4.90999985    2.44000006
   12.97944355  104.82199860    4.90999985    2.42000008
   12.98277760  107.34300232    4.90999985    2.44000006
   12.98611164  108.82900238    4.90999985    2.44000006
   12.98916721  103.02799988    4.90999985    2.44000006
   12.99250031  110.58200073    4.90999985    2.44000006
   12.99583340  107.63700104    4.90999985    2.46000004
   12.99888897   99.46250153    4.90999985    2.46000004
   13.00111103   96.17279816    4.90999985    2.44000006
   13.00249958  103.61499786    4.90999985    2.44000006
   13.00583363  103.71299744    4.90999985    2.44000006
   13.01194477  103.71299744    4.90999985    2.46000004
   13.01583290   98.33070374    4.90999985    2.46000004
   13.01916599  102.45700073    4.90999985    2.46000004
   13.02250004  107.62500000    4.90999985    2.46000004
   13.02555561  106.64299774    4.90999985    2.46000004
   13.02888870  101.44300079    4.90999985    2.46000004
   13.03222179  111.67600250    4.90999985    2.46000004
   13.03444481  108.71600342    4.90999985    2.46000004
   13.03583336  110.38700104    4.90999985    2.46000004
   13.03916740  107.15000153    4.90999985    2.44000006
   13.04222298  110.55200195    4.90999985    2.44000006
   13.04555607  105.96900177    4.90999985    2.46000004
   13.04888916  107.03399658    4.90999985    2.46000004
   13.05472279  107.03399658    4.90999985    2.46000004
   13.05888939  105.51699829    4.90999985    2.46000004
   13.06194496  115.94300079    4.90999985    2.46000004
   13.06527805  111.78900146    4.90999985    2.46000004
   13.06777763  109.13300323    4.90999985    2.46000004
   13.06888866  106.84700012    4.90999985    2.46000004
   13.07222176  105.20300293    4.90999985    2.46000004
   13.07527733  101.65100098    4.90999985    2.48000002
   13.07861137  113.17199707    4.90999985    2.46000004
   13.08194447  104.90599823    4.90999985    2.48000002
   13.08500004  105.51499939    4.90999985    2.46000004
   13.08833313  104.13200378    4.90999985    2.46000004
   13.09138870  102.93299866    4.90999985    2.46000004
   13.09749985  102.93299866    4.90999985    2.46000004
   13.10166740  102.94999695    4.90999985    2.46000004
   13.10500050  111.54900360    4.90999985    2.46000004
   13.10805607   98.04319763    4.90999985    2.46000004
   13.11138916  101.86699677    4.90999985    2.46000004
   13.11472225  111.65200043    4.90999985    2.46000004
   13.11777782  109.76200104    4.90999985    2.46000004
   13.12111092  114.79599762    4.90999985    2.46000004
   13.12416649  114.10700226    4.90999985    2.46000004
   13.12750053  101.81099701    4.90999985    2.46000004
   13.13083363  112.04100037    4.90999985    2.46000004
   13.13388920   97.04709625    4.90999985    2.46000004
   13.13444424  100.20500183    4.90999985    2.46000004
   13.14027786  100.20500183    4.90999985    2.48000002
   13.14444447  112.22799683    4.90999985    2.46000004
   13.14777756  107.88500214    4.90999985    2.48000002
   13.15083313  105.05400085    4.90999985    2.48000002
   13.15416622  104.81400299    4.90999985    2.46000004
   13.15749931   95.95480347    4.90999985    2.48000002
   13.16055489   99.81900024    4.90999985    2.46000004
   13.16388893  101.95899963    4.90999985    2.46000004
   13.16694450   93.60729980    4.90999985    2.46000004
   13.16805553  104.57299805    4.90999985    2.48000002
   13.17055607  106.94100189    4.90999985    2.48000002
   13.17388916  100.52700043    4.90999985    2.46000004
   13.17694473   99.12760162    4.90999985    2.48000002
   13.18305588   99.12760162    4.90999985    2.48000002
   13.18722248  109.46399689    4.90999985    2.46000004
   13.19055557  104.15100098    4.90999985    2.46000004
   13.19388866  103.00599670    4.90999985    2.48000002
   13.19694424  100.98000336    4.90999985    2.46000004
   13.20027733   96.57620239    4.90999985    2.48000002
   13.20138836   97.15180206    4.90999985    2.46000004
   13.20388889   98.50599670    4.90999985    2.46000004
   13.20722198  105.08300018    4.90999985    2.46000004
   13.21027756  102.73899841    4.90999985    2.48000002
   13.21361065   -1.00000000    4.90999985    2.46000004
   13.21694374   -1.00000000    4.90999985    2.48000002
   13.21999931   -1.00000000    4.90999985    2.48000002
   13.22611046   -1.00000000    4.90999985    2.48000002
   13.23027706   -1.00000000    4.90999985    2.48000002
   13.23333359   -1.00000000    4.90999985    2.48000002
   13.23694515   -1.00000000    4.90999985    2.48000002
   13.24027824   -1.00000000    4.90999985    2.48000002
   13.24333382   -1.00000000    4.90999985    2.48000002
   13.24666691   -1.00000000    4.90999985    2.48000002
   13.24972248   -1.00000000    4.90999985    2.48000002
   13.25305557   -1.00000000    4.90999985    2.48000002
   13.25638866   -1.00000000    4.90999985    2.48000002
   13.25944424   -1.00000000    4.90999985    2.48000002
   13.26277733   -1.00000000    4.90999985    2.48000002
   13.27305508   -1.00000000    4.90999985    2.48000002
   13.27611065   -1.00000000    4.90999985    2.48000002
   13.30583382  111.92199707    4.90999985    2.48000002
   13.30916691  101.48400116    4.90999985    2.50000000
   13.31222248  103.90299988    4.90999985    2.50000000
   13.31555557  101.11000061    4.90999985    2.50000000
   13.31888866  101.85600281    4.90999985    2.50000000
   13.32194424  107.16799927    4.90999985    2.50000000
   13.32611084  107.16799927    4.90999985    2.50000000
   13.33027744  108.96700287    4.90999985    2.50000000
   13.33361053  108.85600281    4.90999985    2.50000000
   13.33666611  113.43900299    4.90999985    2.50000000
   13.33916664  112.39199829    4.90999985    2.50000000
   13.34055519  108.63800049    4.90999985    2.50000000
   13.34361076  103.33399963    4.90999985    2.50000000
   13.34694386  113.54100037    4.90999985    2.50000000
   13.35027790  115.36900330    4.90999985    2.50000000
   13.35333347  111.94799805    4.90999985    2.50000000
   13.35666752  110.18399811    4.90999985    2.50000000
   13.35972214  108.52400208    4.90999985    2.50000000
   13.36305618  114.02200317    4.90999985    2.50000000
   13.36888885  114.02200317    4.90999985    2.50000000
   13.37305546  117.00099945    4.90999985    2.50000000
   13.37638855   99.41979980    4.90999985    2.50000000
   13.37944412  108.89499664    4.90999985    2.50000000
   13.38277817  111.02300262    4.90999985    2.50000000
   13.38611126  105.59200287    4.90999985    2.50000000
   13.38916683  108.57800293    4.90999985    2.51999998
   13.39249992  114.53099823    4.90999985    2.51999998
   13.39583302  112.07199860    4.90999985    2.50000000
   13.39888859  112.13800049    4.90999985    2.50000000
   13.40222168  114.05500031    4.90999985    2.50000000
   13.40527725  111.82599640    4.90999985    2.50000000
   13.40583324  107.44499969    4.90999985    2.50000000
   13.41194439  107.44499969    4.90999985    2.50000000
   13.41583252  112.19899750    4.90999985    2.50000000
   13.41916656  109.61399841    4.90999985    2.50000000
   13.42250061  108.25800323    4.90999985    2.50000000
   13.42555618  113.90699768    4.90999985    2.50000000
   13.42888927  106.43099976    4.90999985    2.50000000
   13.43222237  112.78700256    4.90999985    2.50000000
   13.43527794  114.26100159    4.90999985    2.50000000
   13.43861103  112.62100220    4.90999985    2.51999998
   13.43916702  110.74400330    4.90999985    2.50000000
   13.44222260  104.39600372    4.90999985    2.51999998
   13.44555569  109.43900299    4.90999985    2.50000000
   13.44861126  111.82499695    4.90999985    2.51999998
   13.45472240  111.82499695    4.90999985    2.51999998
   13.45888901  119.62400055    4.90999985    2.51999998
   13.46194458  110.79399872    4.90999985    2.51999998
   13.46527767  108.15699768    4.90999985    2.50000000
   13.46861076  110.41500092    4.90999985    2.51999998
   13.47166634  109.72200012    4.90999985    2.51999998
   13.47249985  105.41999817    4.90999985    2.51999998
   13.47527695  113.66799927    4.90999985    2.50000000
   13.47861099  105.52300262    4.90999985    2.50000000
   13.48194408  107.12699890    4.90999985    2.51999998
   13.48500061   99.38420105    4.90999985    2.50000000
   13.48833370  101.04399872    4.90999985    2.51999998
   13.49138927   83.09750366    4.90999985    2.51999998
   13.49750042   83.09750366    4.90999985    2.51999998
   13.50166702   87.14589691    4.90999985    2.51999998
   13.50500011   95.46350098    4.90999985    2.50000000
   13.50583363   94.42160034    4.90999985    2.51999998
   13.50861073  102.64099884    4.90999985    2.50000000
   13.51194477  139.75799561    4.90999985    2.51999998
   13.51500034  245.38800049    4.90999985    2.51999998
   13.51833344   -1.00000000    4.90999985    2.51999998
   13.52166653   -1.00000000    4.90999985    2.51999998
   13.52472210   -1.00000000    4.90999985    2.51999998
   13.52805519   -1.00000000    4.90999985    2.51999998
   13.53111076   -1.00000000    4.90999985    2.51999998
   13.53444481   -1.00000000    4.90999985    2.50000000
   13.54444504   -1.00000000    4.90999985    2.51999998
   13.54750061   -1.00000000    4.90999985    2.53999996
   13.55083370   -1.00000000    4.90999985    2.51999998
   13.55416679   -1.00000000    4.90999985    2.51999998
   13.55722237   -1.00000000    4.90999985    2.51999998
   13.56055546   -1.00000000    4.90999985    2.51999998
   13.56388950   -1.00000000    4.90999985    2.53999996
   13.56694412   -1.00000000    4.90999985    2.53999996
   13.57027817   -1.00000000    4.90999985    2.53999996
   13.57388878   -1.00000000    4.90999985    2.53999996
   13.57694435   -1.00000000    4.90999985    2.51999998
   13.58722210   -1.00000000    4.90999985    2.51999998
   13.59055519   -1.00000000    4.90999985    2.51999998
   13.59361076   -1.00000000    4.90999985    2.51999998
   13.59694386   -1.00000000    4.90999985    2.53999996
   13.60027790   -1.00000000    4.90999985    2.53999996
   13.60333347   -1.00000000    4.90999985    2.51999998
   13.60694504   -1.00000000    4.90999985    2.53999996
   13.61000061   -1.00000000    4.90999985    2.51999998
   13.61333370   -1.00000000    4.90999985    2.53999996
   13.61666679   -1.00000000    4.90999985    2.51999998
   13.61972237   -1.00000000    4.90999985    2.53999996
   13.63000011   -1.00000000    4.90999985    2.51999998
   13.63333321   -1.00000000    4.90999985    2.51999998
   13.63666630   -1.00000000    4.90999985    2.53999996
   13.64027786   -1.00000000    4.90999985    2.53999996
   13.64333344   -1.00000000    4.90999985    2.53999996
   13.64666653   -1.00000000    4.90999985    2.53999996
   13.64999962   -1.00000000    4.90999985    2.53999996
   13.65305519   -1.00000000    4.90999985    2.51999998
   13.65638828   -1.00000000    4.90999985    2.51999998
   13.65944386   -1.00000000    4.90999985    2.51999998
   13.66277695   -1.00000000    4.90999985    2.51999998
   13.67305565   -1.00000000    4.90999985    2.51999998
   13.67611122   -1.00000000    4.90999985    2.53999996
   13.67944431   -1.00000000    4.90999985    2.53999996
   13.68249989   -1.00000000    4.90999985    2.53999996
   13.71722221   -1.00000000   -1.00000000   -1.00000000
   13.74194431  123.64900208    4.90999985    2.53999996
   13.74499989  112.68399811    4.90999985    2.53999996
   13.74833393  122.38600159    4.90999985    2.51999998
   13.75166702  116.38300323    4.90999985    2.53999996
   13.75472260  124.84700012    4.90999985    2.53999996
   13.75805569  121.91200256    4.90999985    2.53999996
   13.76222229  121.91200256    4.90999985    2.53999996
   13.76638889  119.18199921    4.90999985    2.55999994
   13.76944447  115.48400116    4.90999985    2.53999996
   13.77277756  121.42800140    4.90999985    2.53999996
   13.77499962  117.52200317    4.90999985    2.55999994
   13.77638817  112.06700134    4.90999985    2.53999996
   13.77944374  119.08499908    4.90999985    2.53999996
   13.78277779  112.25399780    4.90999985    2.53999996
   13.78583336  124.74299622    4.90999985    2.53999996
   13.78916740  114.71199799    4.90999985    2.53999996
   13.79250050  115.62200165    4.90999985    2.53999996
   13.79555607  115.15299988    4.90999985    2.53999996
   13.79888916  117.63999939    4.90999985    2.55999994
   13.80500031  117.63999939    4.90999985    2.55999994
   13.80916691  123.02799988    4.90999985    2.55999994
   13.81250000  113.50399780    4.90999985    2.53999996
   13.81583309  118.58599854    4.90999985    2.53999996
   13.81888866  119.52500153    4.90999985    2.55999994
   13.82222176  120.40599823    4.90999985    2.53999996
   13.82555580  127.78399658    4.90999985    2.55999994
   13.82861137  120.01699829    4.90999985    2.55999994
   13.83194447  122.42800140    4.90999985    2.53999996
   13.83500004  115.99600220    4.90999985    2.55999994
   13.83833313  109.97499847    4.90999985    2.55999994
   13.84166622  123.28299713    4.90999985    2.53999996
   13.84222221  123.72599792    4.90999985    2.53999996
   13.84805489  123.72599792    4.90999985    2.55999994
   13.85194492  118.43399811    4.90999985    2.55999994
   13.85527802  123.23300171    4.90999985    2.55999994
   13.85861111  109.44999695    4.90999985    2.53999996
   13.86166668  113.04599762    4.90999985    2.53999996
   13.86500072  115.61399841    4.90999985    2.55999994
   13.86805534  114.97499847    4.90999985    2.53999996
   13.87138939  116.37400055    4.90999985    2.53999996
   13.87472248  110.75399780    4.90999985    2.55999994
   13.87555599  117.23600006    4.90999985    2.55999994
   13.87805557  115.37300110    4.90999985    2.55999994
   13.88138866  123.56700134    4.90999985    2.55999994
   13.88444424  121.14700317    4.90999985    2.53999996
   13.89055538  121.14700317    4.90999985    2.55999994
   13.89472198  115.39399719    4.90999985    2.55999994
   13.89805508  117.67500305    4.90999985    2.55999994
   13.90138817  116.33200073    4.90999985    2.55999994
   13.90444374  117.70200348    4.90999985    2.53999996
   13.90777779  122.71199799    4.90999985    2.53999996
   13.90888882  120.72200012    4.90999985    2.53999996
   13.91138840  117.27500153    4.90999985    2.55999994
   13.91472149  117.53199768    4.90999985    2.55999994
   13.91777802  117.17600250    4.90999985    2.55999994
   13.92111111  121.58999634    4.90999985    2.55999994
   13.92444515  121.02100372    4.90999985    2.55999994
   13.92750072  121.91799927    4.90999985    2.53999996
   13.93361092  121.91799927    4.90999985    2.55999994
   13.93777752  117.33000183    4.90999985    2.55999994
   13.94083309  120.39600372    4.90999985    2.55999994
   13.94222260  116.37799835    4.90999985    2.55999994
   13.94444466  124.44599915    4.90999985    2.55999994
   13.94777775  124.82099915    4.90999985    2.55999994
   13.95083332  121.38899994    4.90999985    2.55999994
   13.95416641  129.11300659    4.90999985    2.55999994
   13.95749950  122.40599823    4.90999985    2.55999994
   13.96055508  122.44300079    4.90999985    2.55999994
   13.96388912  120.19200134    4.90999985    2.55999994
   13.96722221  127.59500122    4.90999985    2.55999994
   13.97027779  121.07499695    4.90999985    2.55999994
   13.97638798  121.07499695    4.90999985    2.55999994
   13.98055553  121.96600342    4.90999985    2.55999994
   13.98361111  123.65699768    4.90999985    2.55999994
   13.98694515  126.45200348    4.90999985    2.57999992
   13.99027824  126.98000336    4.90999985    2.55999994
   13.99333382  120.43000031    4.90999985    2.55999994
   13.99666691  123.01300049    4.90999985    2.55999994
   14.00000000  115.07099915    4.90999985    2.55999994
   14.00305557  115.94999695    4.90999985    2.57999992
   14.00638866  120.06099701    4.90999985    2.57999992
   14.00888920  121.55899811    4.90999985    2.57999992
   14.01000023  118.88500214    4.90999985    2.57999992
   14.01333332  122.70500183    4.90999985    2.57999992
   14.01916599  122.70500183    4.90999985    2.57999992
   14.02333355  125.95700073    4.90999985    2.57999992
   14.02666664  119.94699860    4.90999985    2.55999994
   14.02999973  124.62799835    4.90999985    2.57999992
   14.03305531  126.52999878    4.90999985    2.55999994
   14.03638935  121.40000153    4.90999985    2.57999992
   14.03944492  121.59300232    4.90999985    2.57999992
   14.04222298  120.73600006    4.90999985    2.57999992
   14.04305553  120.53900146    4.90999985    2.57999992
   14.04638958  119.35900116    4.90999985    2.57999992
   14.04972267  125.75900269    4.90999985    2.55999994
   14.05305576  122.96499634    4.90999985    2.57999992
   14.05611134  120.78900146    4.90999985    2.57999992
   14.06222248  120.78900146    4.90999985    2.57999992
   14.06638908  121.06099701    4.90999985    2.57999992
   14.06972218  120.45400238    4.90999985    2.57999992
   14.07277775  122.87699890    4.90999985    2.55999994
   14.07555580  118.49800110    4.90999985    2.57999992
   14.07638836  122.97899628    4.90999985    2.57999992
   14.07972240  117.69200134    4.90999985    2.57999992
   14.08305550  124.20400238    4.90999985    2.57999992
   14.08611107  126.02600098    4.90999985    2.57999992
   14.08944416  130.84399414    4.90999985    2.57999992
   14.09277725  126.76100159    4.90999985    2.57999992
   14.09583282  124.11499786    4.90999985    2.57999992
   14.09916592  123.19799805    4.90999985    2.57999992
   14.10500050  123.19799805    4.90999985    2.55999994
   14.10916710  123.74500275    4.90999985    2.55999994
   14.11222267  125.04000092    4.90999985    2.57999992
   14.11555576  108.11199951    4.90999985    2.57999992
   14.11861134  117.86100006    4.90999985    2.57999992
   14.12194443  116.25499725    4.90999985    2.57999992
   14.12527752  125.61399841    4.90999985    2.57999992
   14.12833309  120.76799774    4.90999985    2.57999992
   14.13166714  117.47200012    4.90999985    2.57999992
   14.13500023  121.05000305    4.90999985    2.57999992
   14.13805580  116.42600250    4.90999985    2.57999992
   14.14138889  107.90299988    4.90999985    2.57999992
   14.14222240  114.69300079    4.90999985    2.57999992
   14.14777756  114.69300079    4.90999985    2.57999992
   14.15194416  118.85399628    4.90999985    2.57999992
   14.15527725  112.81600189    4.90999985    2.57999992
   14.15833282  111.19999695    4.90999985    2.57999992
   14.16166592  119.74700165    4.90999985    2.57999992
   14.16472149  119.98300171    4.90999985    2.57999992
   14.16805553  120.09500122    4.90999985    2.57999992
   14.17138958  117.55300140    4.90999985    2.57999992
   14.17444515  120.72100067    4.90999985    2.57999992
   14.17555618  111.18199921    4.90999985    2.57999992
   14.17805576  119.82399750    4.90999985    2.57999992
   14.18138885  121.29299927    4.90999985    2.57999992
   14.18472195  114.76000214    4.90999985    2.57999992
   14.19055557  114.76000214    4.90999985    2.57999992
   14.19472218  121.81999969    4.90999985    2.57999992
   14.19805527  120.20200348    4.90999985    2.57999992
   14.20111084  127.44599915    4.90999985    2.57999992
   14.20444393  118.10900116    4.90999985    2.57999992
   14.20777798  125.81300354    4.90999985    2.57999992
   14.20888901  120.43599701    4.90999985    2.57999992
   14.21111107  118.43399811    4.90999985    2.57999992
   14.21444416  117.49700165    4.90999985    2.57999992
   14.21777725  111.91400146    4.90999985    2.57999992
   14.22083282  121.65899658    4.90999985    2.57999992
   14.22416592  118.00199890    4.90999985    2.57999992
   14.22749996  112.09600067    4.90999985    2.57999992
   14.23333359  112.09600067    4.90999985    2.57999992
   14.23750019  110.28700256    4.90999985    2.57999992
   14.24083328  119.44799805    4.90999985    2.57999992
   14.24222279  111.63600159    4.90999985    2.57999992
   14.24444485  105.28700256    4.90999985    2.57999992
   14.24805546  109.83899689    4.90999985    2.59999990
   14.25138855  115.39199829    4.90999985    2.57999992
   14.25444412  110.82800293    4.90999985    2.57999992
   14.25777817  112.04900360    4.90999985    2.57999992
   14.26111126  105.68800354    4.90999985    2.59999990
   14.26416683  115.87899780    4.90999985    2.59999990
   14.26749992  114.75299835    4.90999985    2.57999992
   14.27055550  113.54799652    4.90999985    2.57999992
   14.27638817  113.54799652    4.90999985    2.59999990
   14.28055573  115.60500336    4.90999985    2.57999992
   14.28361130  117.04299927    4.90999985    2.57999992
   14.28694534  115.07599640    4.90999985    2.57999992
   14.29027843  110.30699921    4.90999985    2.57999992
   14.29333401  117.37300110    4.90999985    2.57999992
   14.29666710  113.88400269    4.90999985    2.59999990
   14.29972267  111.74299622    4.90999985    2.59999990
   14.30305576  117.26100159    4.90999985    2.57999992
   14.30638885  114.98300171    4.90999985    2.57999992
   14.30888939  125.23999786    4.90999985    2.57999992
   14.30972195  118.05899811    4.90999985    2.57999992
   14.31305599  116.78900146    4.90999985    2.57999992
   14.31916618  116.78900146    4.90999985    2.59999990
   14.32333374  105.22200012    4.90999985    2.57999992
   14.32638836  110.13999939    4.90999985    2.57999992
   14.32972240  113.17600250    4.90999985    2.57999992
   14.33305550  113.29900360    4.90999985    2.57999992
   14.33611107  112.13400269    4.90999985    2.57999992
   14.33944416  110.94100189    4.90999985    2.59999990
   14.34222221  106.86799622    4.90999985    2.59999990
   14.34305477  108.95500183    4.90999985    2.57999992
   14.34638882  114.86399841    4.90999985    2.57999992
   14.34972191  115.75199890    4.90999985    2.57999992
   14.35277843  109.26899719    4.90999985    2.57999992
   14.35611153  111.97200012    4.90999985    2.57999992
   14.36194515  111.97200012    4.90999985    2.59999990
   14.36611176  113.28600311    4.90999985    2.59999990
   14.36944485  115.54399872    4.90999985    2.57999992
   14.37250042  117.93399811    4.90999985    2.57999992
   14.37555599  113.12999725    4.90999985    2.57999992
   14.37611103  109.84700012    4.90999985    2.57999992
   14.37944412  113.34899902    4.90999985    2.57999992
   14.38277817  112.62799835    4.90999985    2.57999992
   14.38583279  114.47699738    4.90999985    2.59999990
   14.38916683  102.39199829    4.90999985    2.59999990
   14.39249992  117.76499939    4.90999985    2.59999990
   14.39555550  113.82299805    4.90999985    2.57999992
   14.39888859  111.62100220    4.90999985    2.59999990
   14.40472221  111.62100220    4.90999985    2.57999992
   14.40888882  112.73300171    4.90999985    2.59999990
   14.41222191  108.65100098    4.90999985    2.59999990
   14.41555500  111.69000244    4.90999985    2.57999992
   14.41861153  112.62899780    4.90999985    2.57999992
   14.42194462  117.78099823    4.90999985    2.59999990
   14.42527771  106.43699646    4.90999985    2.59999990
   14.42833328  107.56500244    4.90999985    2.57999992
   14.43166733  115.33200073    4.90999985    2.57999992
   14.43500042  113.79399872    4.90999985    2.57999992
   14.43805599  107.01300049    4.90999985    2.59999990
   14.44138908  116.23600006    4.90999985    2.59999990
   14.44222260  107.62799835    4.90999985    2.59999990
   14.44777775  107.62799835    4.90999985    2.59999990
   14.45166683  110.01000214    4.88999987    2.59999990
   14.45499992  110.04599762    4.90999985    2.59999990
   14.45888901  107.73300171    4.90999985    2.59999990
   14.46222210  111.87500000    4.90999985    2.59999990
   14.46555519  114.09899902    4.90999985    2.59999990
   14.46861076  111.97399902    4.90999985    2.57999992
   14.47194386  108.14499664    4.90999985    2.57999992
   14.47527695  100.60700226    4.90999985    2.59999990
   14.47583294  107.74700165    4.90999985    2.59999990
   14.47888851  106.02600098    4.90999985    2.59999990
   14.48222160  110.54199982    4.90999985    2.57999992
   14.48611164  110.01899719    4.90999985    2.57999992
   14.49055576  110.01899719    4.88999987    2.59999990
   14.49472237  100.55100250    4.90999985    2.59999990
   14.49777794  104.60600281    4.90999985    2.59999990
   14.50111103   98.66230011    4.90999985    2.59999990
   14.50444412  113.25900269    4.90999985    2.59999990
   14.50777817  104.68800354    4.90999985    2.59999990
   14.50916672  106.70400238    4.90999985    2.59999990
   14.51111126  103.73999786    4.90999985    2.61999989
   14.51444435  113.05000305    4.90999985    2.59999990
   14.51777744  107.85099792    4.90999985    2.59999990
   14.52083302  105.69100189    4.90999985    2.59999990
   14.52416611  110.68399811    4.90999985    2.59999990
   14.52750015  106.77999878    4.90999985    2.59999990
   14.53333378  106.77999878    4.90999985    2.57999992
   14.53750038  110.91899872    4.90999985    2.57999992
   14.54083347  108.86499786    4.90999985    2.59999990
   14.54250050  111.85099792    4.90999985    2.59999990
   14.54444504  113.15699768    4.90999985    2.59999990
   14.54777813  108.26300049    4.90999985    2.59999990
   14.55083370  112.46800232    4.90999985    2.59999990
   14.55416679  100.94799805    4.90999985    2.57999992
   14.55749989  105.91500092    4.90999985    2.59999990
   14.56055546  102.23500061    4.90999985    2.59999990
   14.56388950  107.46099854    4.90999985    2.59999990
   14.56722260  111.11499786    4.90999985    2.59999990
   14.57027817  105.52700043    4.90999985    2.57999992
   14.57611084  105.52700043    4.90999985    2.59999990
   14.58027744  113.30999756    4.90999985    2.59999990
   14.58361053  111.93699646    4.90999985    2.59999990
   14.58666611  111.59100342    4.90999985    2.59999990
   14.59000015  111.00000000    4.90999985    2.59999990
   14.59333324  110.51100159    4.90999985    2.59999990
   14.59638882  106.02700043    4.90999985    2.59999990
   14.59972191  110.81999969    4.90999985    2.59999990
   14.60305595  108.45800018    4.90999985    2.59999990
   14.60611153  107.22299957    4.90999985    2.59999990
   14.60916710  111.50900269    4.90999985    2.59999990
   14.60972214  111.15599823    4.90999985    2.59999990
   14.61305618  104.16999817    4.90999985    2.61999989
   14.61916637  104.16999817    4.90999985    2.59999990
   14.62333393  105.24700165    4.90999985    2.59999990
   14.62638855  110.27700043    4.90999985    2.59999990
   14.62972260  115.55400085    4.90999985    2.59999990
   14.63277817  116.72299957    4.90999985    2.59999990
   14.63611126  110.61299896    4.90999985    2.59999990
   14.63944435  108.80500031    4.90999985    2.59999990
   14.64249992  117.81600189    4.90999985    2.59999990
   14.64277744  111.84700012    4.90999985    2.59999990
   14.64611053  111.46900177    4.90999985    2.59999990
   14.64944458  115.11199951    4.90999985    2.59999990
   14.65277767  106.90799713    4.90999985    2.61999989
   14.65611076  115.30799866    4.88999987    2.59999990
   14.66194439  115.30799866    4.90999985    2.61999989
   14.66611099  111.07499695    4.90999985    2.59999990
   14.66916656  112.05599976    4.90999985    2.59999990
   14.67250061  115.47699738    4.90999985    2.59999990
   14.67583370  111.11799622    4.90999985    2.61999989
   14.67611122  107.57399750    4.90999985    2.61999989
   14.67944431  117.57399750    4.90999985    2.59999990
   14.68277836  108.70200348    4.90999985    2.61999989
   14.68583298  112.36100006    4.90999985    2.61999989
   14.68916702  107.61699677    4.88999987    2.59999990
   14.69222260  113.38999939    4.84999990    2.59999990
   14.69555569  113.97499847    4.80999994    2.61999989
   14.69888878  108.93499756    4.78000021    2.61999989
   14.70472240  108.93499756    4.73999977    2.61999989
   14.70888901  119.01799774    4.80000019    2.61999989
   14.70944405  109.81199646    4.80999994    2.61999989
   14.71277714  109.84300232    4.82999992    2.59999990
   14.71583271  112.96399689    4.82999992    2.61999989
   14.71916580  106.51699829    4.80000019    2.61999989
   14.72222137  111.36599731    4.80999994    2.61999989
   14.72555542  109.36000061    4.80000019    2.61999989
   14.72888851  112.44999695    4.80999994    2.59999990
   14.73194408  116.23200226    4.80000019    2.61999989
   14.73527813  118.79299927    4.80000019    2.59999990
   14.73861122  109.20200348    4.78000021    2.61999989
   14.74166679  114.21399689    4.76000023    2.61999989
   14.75888920  119.99600220    4.73999977    2.61999989
   14.76305580  119.99600220    4.76000023    2.61999989
   14.76722240  106.03099823    4.78000021    2.61999989
   14.77027798  109.29900360    4.82999992    2.59999990
   14.77361107  120.78900146    4.86999989    2.59999990
   14.77694416  113.43099976    4.86999989    2.61999989
   14.77999973  115.04399872    4.84999990    2.59999990
   14.78333378  113.52999878    4.80999994    2.61999989
   14.78666687  116.37799835    4.80000019    2.61999989
   14.78972244  114.70300293    4.76000023    2.64000010
   14.79222298  120.91899872    4.69999981    2.61999989
   14.79333401  109.42800140    4.69999981    2.61999989
   14.79666710  121.73999786    4.65999985    2.61999989
   14.79972267  114.75299835    4.65999985    2.61999989
   14.80583382  114.75299835    4.59999990    2.64000010
   14.81000042  113.66999817    4.61999989    2.61999989
   14.81333351  117.92600250    4.67999983    2.61999989
   14.81638908  116.96099854    4.71999979    2.64000010
   14.81972218  113.58699799    4.76000023    2.61999989
   14.92833328   -1.00000000   -1.00000000   -1.00000000
   15.03138828   -1.00000000   -1.00000000   -1.00000000
   15.14972210   -1.00000000   -1.00000000   -1.00000000
   15.25277805   -1.00000000   -1.00000000   -1.00000000
   15.38833332   -1.00000000   -1.00000000   -1.00000000
   15.45555496   73.81839752    4.57999992    2.64000010
   15.45916653  113.88999939    4.57999992    2.64000010
   15.46249962  107.04299927    4.59999990    2.64000010
   15.46583271  111.04799652    4.61999989    2.64000010
   15.46916580  107.35500336    4.57999992    2.64000010
   15.47583294  107.35500336    4.67999983    2.64000010
   15.47999954  110.81199646    4.65999985    2.64000010
   15.48333359  107.45800018    4.59999990    2.66000009
   15.48638916   95.41680145    4.59999990    2.64000010
   15.48888874  115.95099640    4.57999992    2.66000009
   15.49000072  100.12999725    4.55999994    2.66000009
   15.49333382   97.61560059    4.48999977    2.66000009
   15.49638939  106.77600098    4.38999987    2.66000009
   15.49972248  108.39299774    4.34999990    2.66000009
   15.50277805  107.29900360    4.32999992    2.66000009
   15.50611115  112.19400024    4.30999994    2.67000008
   15.50944424  101.06099701    4.26999998    2.66000009
   15.51249981   95.95760345    4.38999987    2.64000010
   15.51888847   95.95760345    4.48999977    2.66000009
   15.52305508  106.19000244    4.51000023    2.66000009
   15.52611065  105.88700104    4.51000023    2.66000009
   15.52944374  102.95099640    4.53000021    2.66000009
   15.53277779  100.01200104    4.42999983    2.66000009
   15.53638935  103.34600067    4.34999990    2.66000009
   15.53972244   98.81549835    4.32999992    2.66000009
   15.54277802  105.14900208    4.30999994    2.64000010
   15.54611111  105.39099884    4.28999996    2.67000008
   15.54916668  103.24099731    4.28999996    2.67000008
   15.55249977   99.42320251    4.30999994    2.66000009
   15.55583382   94.38490295    4.32999992    2.66000009
   15.55638885  106.24099731    4.34999990    2.66000009
   15.56166649  106.24099731    4.32999992    2.64000010
   15.56583309  105.75599670    4.21999979    2.66000009
   15.56944466  105.01599884    4.26000023    2.66000009
   15.57333374  100.25800323    4.26999998    2.66000009
   15.57666683  102.82700348    4.26000023    2.66000009
   15.57972240  102.16100311    4.26000023    2.67000008
   15.58305550   96.75000000    4.28999996    2.66000009
   15.58638859   96.84400177    4.36999989    2.66000009
   15.58888817   99.07479858    4.42999983    2.66000009
   15.59000015  101.13600159    4.44999981    2.61999989
   15.59333324  110.24900055    4.48999977    2.66000009
   15.59666634  100.34600067    4.53000021    2.66000009
   15.59972191  103.67299652    4.53999996    2.66000009
   15.60444450  103.67299652    4.51000023    2.64000010
   15.60861111   97.62259674    4.48999977    2.66000009
   15.61194515  102.36499786    4.48999977    2.66000009
   15.61500072   96.03669739    4.42999983    2.67000008
   15.61833382  100.67500305    4.44999981    2.66000009
   15.62138939  102.75399780    4.42999983    2.66000009
   15.62222195  105.63999939    4.42999983    2.64000010
   15.62500000   98.58229828    4.38999987    2.66000009
   15.62833309   96.68389893    4.34999990    2.66000009
   15.63166714  105.87500000    4.34999990    2.67000008
   15.63500023  103.16699982    4.30999994    2.67000008
   15.63805580   98.10929871    4.28999996    2.66000009
   15.64138889  103.39199829    4.26999998    2.66000009
   15.64722252  103.39199829    4.21999979    2.66000009
   15.65138817  105.13700104    4.17999983    2.67000008
   15.65472221   81.52449799    4.17999983    2.67000008
   15.65555477  101.52799988    4.17999983    2.67000008
   15.65833282  105.00399780    4.19999981    2.66000009
   15.66166592  106.82399750    4.17999983    2.66000009
   15.66472149   94.66619873    4.13999987    2.66000009
   15.66805553  107.40399933    4.13999987    2.67000008
   15.67111111  101.21900177    4.09999990    2.67000008
   15.67444515  102.07299805    4.07999992    2.69000006
   15.67777824   95.87680054    4.01999998    2.66000009
   15.68083382  105.93299866    4.03999996    2.67000008
   15.68416691  101.45600128    4.00000000    2.67000008
   15.69027805  101.45600128    3.86999989    2.67000008
   15.69444466  100.44000244    3.89000010    2.67000008
   15.69750023  109.30200195    3.91000009    2.67000008
   15.70083332  105.89399719    3.91000009    2.66000009
   15.70388889   92.49349976    3.89000010    2.66000009
   15.70722198  109.06300354    3.86999989    2.69000006
   15.71027756   96.40989685    3.86999989    2.67000008
   15.71361065  104.08000183    3.97000003    2.67000008
   15.71694374   96.28260040    3.97000003    2.67000008
   15.71999931  101.09799957    3.97000003    2.67000008
   15.72222137  108.03299713    3.99000001    2.67000008
   15.72361088  107.70500183    4.00000000    2.67000008
   15.72694397  107.53900146    4.00000000    2.67000008
   15.73305511  107.53900146    4.05999994    2.67000008
   15.73722267  103.91600037    4.09999990    2.67000008
   15.74027824  102.75900269    4.11999989    2.67000008
   15.74361134  100.03900146    4.05999994    2.67000008
   15.74694443  103.54199982    4.01999998    2.67000008
   15.75000000  100.90599823    4.00000000    2.69000006
   15.75333309   99.81590271    3.97000003    2.67000008
   15.75555515  104.02899933    3.97000003    2.66000009
   15.75694466  102.29499817    3.97000003    2.69000006
   15.76027775  103.55500031    3.97000003    2.67000008
   15.76333332   95.10089874    4.01999998    2.67000008
   15.76666641   98.21099854    4.00000000    2.67000008
   15.76972198  104.68900299    4.01999998    2.67000008
   15.77583313  104.68900299    4.11999989    2.67000008
   15.77999973  101.79000092    4.13999987    2.66000009
   15.78333378  103.67099762    4.15999985    2.67000008
   15.78638935  102.78299713    4.15999985    2.67000008
   15.78888893  105.96600342    4.13999987    2.67000008
   15.79000092  105.40000153    4.13999987    2.67000008
   15.79333401   98.00080109    4.11999989    2.67000008
   15.79638958  109.70800018    4.13999987    2.67000008
   15.79972267  108.18399811    4.13999987    2.66000009
   15.80277824   88.13020325    4.17999983    2.66000009
   15.80611134  107.11199951    4.19999981    2.67000008
   15.80944443   99.62629700    4.21999979    2.67000008
   15.81250000  108.76200104    4.23999977    2.66000009
   15.81861115  108.76200104    4.32999992    2.66000009
   15.82277775  104.59300232    4.34999990    2.67000008
   15.82611084   99.92559814    4.36999989    2.66000009
   15.82916641  104.82399750    4.36999989    2.67000008
   15.83249950   98.81169891    4.38999987    2.67000008
   15.83583260  106.97599792    4.36999989    2.66000009
   15.83888817   87.19740295    4.34999990    2.66000009
   15.84222221  104.70099640    4.36999989    2.67000008
   15.84527779  103.98500061    4.40999985    2.66000009
   15.84861088  109.33100128    4.42999983    2.67000008
   15.85194492  108.78199768    4.42999983    2.66000009
   15.85500050  102.32499695    4.44999981    2.66000009
   15.85555553   97.32640076    4.44999981    2.66000009
   15.86166668   97.32640076    4.40999985    2.67000008
   15.86583328   93.14600372    4.34999990    2.67000008
   15.86888885  107.67900085    4.32999992    2.66000009
   15.87222195   95.80210114    4.30999994    2.66000009
   15.87527752  102.05799866    4.28999996    2.66000009
   15.87861156  101.93399811    4.26999998    2.69000006
   15.88194466  108.11499786    4.26000023    2.66000009
   15.88500023  100.73200226    4.26000023    2.67000008
   15.88833332  100.01699829    4.26000023    2.67000008
   15.88888836   97.73349762    4.26000023    2.67000008
   15.89194393  100.13300323    4.26999998    2.67000008
   15.89527798   93.95570374    4.26999998    2.67000008
   15.89833355   82.59349823    4.26999998    2.69000006
   15.90444374   82.59349823    4.32999992    2.67000008
   15.90861034   97.61070251    4.32999992    2.66000009
   15.91166592  101.14299774    4.34999990    2.67000008
   15.91499996   99.25810242    4.34999990    2.67000008
   15.91833401  111.95800018    4.40999985    2.67000008
   15.92138958  100.60199738    4.42999983    2.67000008
   15.92250061  102.45999908    4.44999981    2.66000009
   15.92500019  101.29000092    4.44999981    2.66000009
   15.92833328   89.60340118    4.40999985    2.66000009
   15.93138885  111.97499847    4.40999985    2.69000006
   15.93472195  108.41999817    4.38999987    2.67000008
   15.93805599  109.08300018    4.36999989    2.66000009
   15.94111156  101.46900177    4.34999990    2.66000009
   15.94722271  101.46900177    4.34999990    2.67000008
   15.95138836  105.77100372    4.36999989    2.66000009
   15.95472240  101.79599762    4.34999990    2.67000008
   15.95583344  103.07199860    4.32999992    2.66000009
   15.95833302  104.42299652    4.32999992    2.67000008
   15.96166611  105.52799988    4.26999998    2.67000008
   15.96472168  103.92600250    4.28999996    2.67000008
   15.96805477  103.82900238    4.32999992    2.66000009
   15.97138882  102.26399994    4.34999990    2.67000008
   15.97444439   93.57640076    4.32999992    2.67000008
   15.97777748  103.13200378    4.30999994    2.67000008
   15.98111057  114.88800049    4.32999992    2.67000008
   15.98416710  109.65000153    4.32999992    2.69000006
   15.99000072  109.65000153    4.38999987    2.66000009
   15.99416733  103.92199707    4.34999990    2.67000008
   15.99750042  119.93199921    4.30999994    2.67000008
   16.00083351  110.13500214    4.28999996    2.67000008
   16.00388908   95.01119995    4.26999998    2.67000008
   16.00722313   89.46759796    4.26999998    2.67000008
   16.01027870  111.12000275    4.26000023    2.67000008
   16.01361084  102.08499908    4.26000023    2.66000009
   16.01694489   98.85600281    4.26000023    2.66000009
   16.02000046  101.43199921    4.26000023    2.66000009
   16.02249908  102.72200012    4.26000023    2.66000009
   16.02361107  101.34300232    4.23999977    2.67000008
   16.02694511  106.64499664    4.19999981    2.67000008
   16.03305435  106.64499664    4.21999979    2.67000008
   16.03722191  111.76699829    4.17999983    2.67000008
   16.04083252   96.63539886    0.00000000    0.00000000
   16.04472160  107.14900208    0.00000000    0.00000000
   16.04861069  105.13500214    0.00000000    0.00000000
   16.05249977  108.61699677    0.00000000    0.00000000
   16.05638885  112.60500336    0.00000000    0.00000000
   16.05666542  105.55899811    0.00000000    0.00000000
   16.06055450   93.75969696    0.00000000    0.00000000
   16.06444359  107.33399963    0.00000000    0.00000000
   16.06833458  119.21900177    0.00000000    0.00000000
   16.07194519   94.65969849    4.17999983    2.67000008
   16.07638931   94.65969849    4.17999983    2.67000008
   16.08027840  113.51999664    4.17999983    2.67000008
   16.08361244  128.86300659    4.17999983    2.67000008
   16.08694458  106.29399872    4.17999983    2.67000008
   16.08916664  129.91099548    4.17999983    2.67000008
   16.09055710  113.84799957    4.17999983    2.67000008
   16.09388924  111.60500336    4.17999983    2.67000008
   16.09722328  105.60900116    4.15999985    2.69000006
   16.10027885  109.34200287    4.15999985    2.67000008
   16.10361099  113.58000183    4.15999985    2.67000008
   16.10666656   95.15039825    4.21999979    2.66000009
   16.11000061   85.21209717    4.19999981    2.67000008
   16.11333466   98.47239685    4.19999981    2.66000009
   16.11916733   98.47239685    4.28999996    2.67000008
   16.12333298  102.33200073    4.26999998    2.67000008
   16.12638855   95.08640289    4.23999977    2.67000008
   16.12972260   92.19539642    4.26000023    2.67000008
   16.13305473  101.35099792    4.23999977    2.66000009
   16.13611031   93.42649841    4.21999979    2.67000008
   16.13944435   97.02380371    4.19999981    2.67000008
   16.14249992   91.48580170    4.19999981    2.67000008
   16.14583397  107.43900299    4.19999981    2.66000009
   16.14916611   94.01660156    4.17999983    2.67000008
   16.15222168   97.04019928    4.19999981    2.66000009
   16.15555573  106.78800201    4.19999981    2.66000009
   16.15611076  102.49099731    4.19999981    2.67000008
   16.16194344  102.49099731    4.15999985    2.67000008
   16.16611099  100.09999847    4.09999990    2.67000008
   16.16944313   85.82350159    4.13999987    2.67000008
   16.17249870  100.32599640    4.19999981    2.67000008
   16.17583275   84.58209991    4.30999994    2.67000008
   16.17888832   96.70999908    4.32999992    2.67000008
   16.18222237   97.69529724    4.40999985    2.67000008
   16.18555450   91.25810242    4.44999981    2.67000008
   16.18861008   94.38169861    4.53000021    2.67000008
   16.18944359   99.21569824    4.53000021    2.66000009
   16.19249916   95.00700378    4.53999996    2.67000008
   16.19555473  102.94300079    4.46999979    2.67000008
   16.19888878   98.87740326    4.42999983    2.67000008
   16.20472336   98.87740326    4.48999977    2.66000009
   16.20888901   99.98909760    4.53999996    2.66000009
   16.21222305  110.82599640    4.51000023    2.66000009
   16.21555710   98.14389801    4.40999985    2.67000008
   16.21861076  103.94400024    4.36999989    2.67000008
   16.22194481  107.01499939    4.34999990    2.66000009
   16.22277832  110.33699799    4.34999990    2.67000008
   16.22555542  103.30500031    4.30999994    2.66000009
   16.22861099  104.94999695    4.34999990    2.66000009
   16.23194504  110.84500122    4.40999985    2.66000009
   16.23500061  108.98500061    4.40999985    2.67000008
   16.23833275   88.18430328    4.36999989    2.67000008
   16.24166679  104.36100006    4.34999990    2.67000008
   16.24777794  104.36100006    4.26999998    2.66000009
   16.25166702  109.33699799    4.15999985    2.66000009
   16.25499916   99.56690216    4.05999994    2.67000008
   16.25611115  103.11499786    4.05999994    2.69000006
   16.25888824   95.79209900    4.01999998    2.67000008
   16.26194382   94.01699829    4.00000000    2.67000008
   16.26527786  104.88700104    3.97000003    2.69000006
   16.26833344  111.85600281    3.95000005    2.67000008
   16.27166557  111.59200287    3.91000009    2.69000006
   16.27499962  117.09799957    3.86999989    2.69000006
   16.27805519  100.37999725    3.93000007    2.67000008
   16.28138924  111.47499847    3.93000007    2.67000008
   16.28472137  105.70800018    3.89000010    2.67000008
   16.29055595  105.70800018    3.89000010    2.69000006
   16.29472160  107.78500366    3.78999996    2.69000006
   16.29777718  115.40000153    3.76999998    2.69000006
   16.30111122  109.04699707    3.72000003    2.69000006
   16.30444336  114.33100128    3.66000009    2.67000008
   16.30749893  102.61900330    3.68000007    2.67000008
   16.31083298  105.94200134    3.68000007    2.69000006
   16.31388855  111.61299896    3.76999998    2.67000008
   16.31722260  110.00299835    3.99000001    2.64000010
   16.32055664  103.61599731    4.13999987    2.67000008
   16.32277870  104.20899963    4.21999979    2.67000008
   16.32416725  101.06700134    4.19999981    2.67000008
   16.32722282  103.58200073    4.09999990    2.67000008
   16.33333397  103.58200073    4.23999977    2.67000008
   16.33750153   93.87270355    4.26999998    2.67000008
   16.34083366  113.16000366    4.28999996    2.67000008
   16.34388924  105.90699768    4.15999985    2.67000008
   16.34722328  113.49900055    4.05999994    2.67000008
   16.35027885  108.24900055    4.05999994    2.67000008
   16.35361099   99.94920349    4.01999998    2.67000008
   16.35611153   96.54229736    3.91000009    2.67000008
   16.35750008  109.30100250    3.84999990    2.67000008
   16.36055565  126.29299927    3.75000000    2.67000008
   16.36388969  120.05400085    3.68000007    2.69000006
   16.36694527  111.45999908    3.68000007    2.69000006
   16.37027740  108.07099915    3.68000007    2.69000006
   16.37611198  108.07099915    3.78999996    2.69000006
   16.38027763  112.28500366    3.86999989    2.67000008
   16.38361168  124.30400085    3.95000005    2.67000008
   16.38694382  121.82099915    4.00000000    2.67000008
   16.38944435  120.66400146    4.03999996    2.69000006
   16.39055634  119.72299957    4.01999998    2.67000008
   16.39361191  111.21099854    4.01999998    2.67000008
   16.39694405  124.09999847    4.05999994    2.67000008
   16.39999962  114.63300323    4.07999992    2.69000006
   16.40333366  113.35700226    4.17999983    2.67000008
   16.40666580  105.71700287    4.26000023    2.69000006
   16.40972137  107.45099640    4.44999981    2.67000008
   16.41305542  115.13099670    4.55999994    2.66000009
   16.41888809  115.13099670    4.57999992    2.67000008
   16.42305565  125.05699921    4.55999994    2.66000009
   16.42638779  109.12799835    4.57999992    2.67000008
   16.42972183  112.05300140    4.63999987    2.66000009
   16.43277740  103.56400299    4.69999981    2.66000009
   16.43610954  106.96199799    4.73999977    2.66000009
   16.43944359   90.81420135    4.80000019    2.66000009
   16.44249916   99.42169952    4.80999994    2.66000009
   16.44583321  101.89099884    4.76000023    2.64000010
   16.44888878  101.39700317    4.69999981    2.67000008
   16.45222282  110.13200378    4.61999989    2.67000008
   16.45555687  105.03800201    4.51000023    2.66000009
   16.45611191  123.14099884    4.46999979    2.67000008
   16.47666740  123.14099884    4.38999987    2.67000008
   16.48083305  102.71399689    4.36999989    2.66000009
   16.48416710  117.03199768    4.23999977    2.69000006
   16.48750114  104.86599731    4.21999979    2.67000008
   16.48944473  118.80699921    4.19999981    2.67000008
   16.49111176  114.07700348    4.19999981    2.67000008
   16.49416733  117.92099762    4.19999981    2.69000006
   16.49749947  117.55500031    4.26999998    2.67000008
   16.50083351  105.06700134    4.36999989    2.66000009
   16.50388908  112.55699921    4.38999987    2.67000008
   16.50722313  107.95200348    4.36999989    2.67000008
   16.51027870  105.02500153    4.38999987    2.69000006
   16.51361084  120.96099854    4.42999983    2.67000008
   16.51944351  120.96099854    4.26999998    2.67000008
   16.52361107  107.43900299    4.13999987    2.67000008
   16.52694511  120.09600067    4.09999990    2.67000008
   16.53027725  118.83799744    4.11999989    2.67000008
   16.53333282  113.99600220    4.13999987    2.67000008
   16.53666687  106.00299835    4.17999983    2.67000008
   16.53972244  114.58200073    4.13999987    2.67000008
   16.54305458  104.75199890    4.13999987    2.69000006
   16.54638863  115.81099701    4.09999990    2.67000008
   16.54944420  115.51000214    4.05999994    2.67000008
   16.55277634  117.96299744    4.05999994    2.67000008
   16.55611038  124.75700378    4.09999990    2.67000008
   16.55638885  107.65200043    4.09999990    2.67000008
   16.56250000  107.65200043    4.05999994    2.67000008
   16.56638718  115.83399963    4.07999992    2.67000008
   16.56972313  118.75599670    4.11999989    2.67000008
   16.57305717   96.88490295    4.23999977    2.67000008
   16.57611275  110.32800293    4.26999998    2.67000008
   16.57944489  108.19799805    4.23999977    2.67000008
   16.58277893  113.45800018    4.17999983    2.67000008
   16.58583450   95.96119690    4.11999989    2.69000006
   16.58916664  106.22100067    4.09999990    2.67000008
   16.58972359  102.64800262    4.09999990    2.67000008
   16.59277916  107.21499634    4.05999994    2.67000008
   16.59611130  118.88700104    4.13999987    2.67000008
   16.59916687  107.42900085    4.23999977    2.67000008
   16.60527802  107.42900085    4.09999990    2.67000008
   16.60944557  116.76499939    3.99000001    2.67000008
   16.61250114  109.20899963    4.00000000    2.67000008
   16.61583328  106.57700348    4.34999990    2.67000008
   16.61916733  117.89900208    4.80999994    2.66000009
   16.62222290  111.62300110    4.90999985    2.64000010
   16.62305641  102.48999786    4.90999985    2.66000009
   16.62583351  102.67900085    4.90999985    2.64000010
   16.62916756  111.01300049    4.90999985    2.59999990
   16.63222313   94.02749634    4.90999985    2.61999989
   16.63555527  112.42900085    4.90999985    2.57999992
   16.63888931  100.05200195    4.90999985    2.57999992
   16.64222145  105.86399841    4.90999985    2.61999989
   16.64805603  105.86399841    4.82999992    2.66000009
   16.65222168  108.11199951    4.59999990    2.67000008
   16.65555573  104.26699829    4.38999987    2.67000008
   16.65638924  107.63899994    4.34999990    2.67000008
   16.65888786  109.66500092    4.26999998    2.67000008
   16.66222191   97.71410370    4.21999979    2.67000008
   16.66527748  110.13300323    4.15999985    2.67000008
   16.66860962  102.38300323    4.30999994    2.67000008
   16.67194366  111.42299652    4.55999994    2.66000009
   16.67499924  109.26000214    4.59999990    2.67000008
   16.67833328  109.02999878    4.32999992    2.67000008
   16.68166542  102.92600250    4.26000023    2.67000008
   16.68638802  112.26200104    4.26999998    2.67000008
   16.69083214  112.26200104    4.36999989    2.67000008
   16.69499969   92.47119904    4.48999977    2.67000008
   16.69833183   99.08989716    4.53999996    2.66000009
   16.70138931   97.91390228    4.59999990    2.67000008
   16.70472336  101.75700378    4.73999977    2.67000008
   16.70805550  103.73400116    4.76000023    2.66000009
   16.71111107  108.18000031    4.71999979    2.66000009
   16.71444511   96.76219940    4.67999983    2.67000008
   16.71777916  108.56900024    4.67999983    2.67000008
   16.72083473   96.51069641    4.76000023    2.66000009
   16.72333336   96.45520020    4.90999985    2.64000010
   16.72444534   91.78420258    4.90999985    2.66000009
   16.72777748  105.58799744    4.90999985    2.64000010
   16.73388863  105.58799744    4.86999989    2.67000008
   16.73777771  102.90499878    4.90999985    2.66000009
   16.74111176  102.86699677    4.90999985    2.64000010
   16.74444389  102.05999756    4.84999990    2.64000010
   16.74749947  108.06199646    4.80000019    2.64000010
   16.75083351  105.59999847    4.78000021    2.66000009
   16.75416756  108.56400299    4.86999989    2.64000010
   16.75666618  109.62300110    4.90999985    2.64000010
   16.75749969  112.31800079    4.90999985    2.64000010
   16.76083374  102.05400085    4.90999985    2.64000010
   16.76388931  101.31900024    4.90999985    2.61999989
   16.76722145   98.80120087    4.90999985    2.61999989
   16.77055550  102.24600220    4.90999985    2.61999989
   16.77666664  102.24600220    4.90999985    2.55999994
   16.78083229   89.85949707    4.90999985    2.46000004
   16.78388786   97.76180267    4.90999985    2.46000004
   16.78722191   91.97260284    4.90999985    2.42000008
   16.78999901   91.18430328    4.90999985    2.42000008
   16.79083252  103.31300354    4.90999985    2.36999989
   16.79416656   96.90160370    4.90999985    2.46000004
   16.79722214   99.33619690    4.90999985    2.39000010
   16.80055428  105.30000305    4.90999985    2.46000004
   16.80388832  109.03700256    4.90999985    2.61999989
   16.80694389   94.53459930    4.90999985    2.67000008
   16.81027794   99.71739960    4.65999985    2.67000008
   16.81361008  102.93800354    4.57999992    2.67000008
   16.81944466  102.93800354    4.46999979    2.67000008
   16.82361221   98.83360291    4.44999981    2.66000009
   16.82694626   95.92359924    4.51000023    2.67000008
   16.83000183   88.67669678    4.65999985    2.67000008
   16.83333397   99.35040283    4.80999994    2.67000008
   16.83638954  104.35199738    4.90999985    2.64000010
   16.83972359  105.22000122    4.90999985    2.53999996
   16.84305573   90.87889862    4.90999985    2.34999990
   16.84611130   96.93879700    4.90999985    2.40000010
   16.84944534  111.41400146    4.90999985    2.23000002
   16.85277748  112.51000214    4.90999985    2.30999994
   16.85583305   93.63670349    4.90999985    2.32999992
   16.85666656  106.62699890    4.90999985    2.28999996
   16.86222267  106.62699890    4.90999985    2.28999996
   16.86638832  103.97799683    4.90999985    2.21000004
   16.86972237   89.66149902    4.90999985    2.19000006
   16.87277794  107.90200043    4.90999985    2.28999996
   16.87611198   92.90619659    4.90999985    2.07999992
   16.87944412  101.30400085    4.90999985    2.32999992
   16.88249969   81.22769928    4.90999985    2.34999990
   16.88583374   97.79709625    4.90999985    2.44000006
   16.88916588  103.74700165    4.90999985    2.42000008
   16.88999939  105.92800140    4.90999985    2.40000010
   16.89249992  101.32900238    4.90999985    2.42000008
   16.89583397  102.25199890    4.90999985    2.46000004
   16.89916611   93.82279968    4.90999985    2.46000004
   16.90527725   93.82279968    4.90999985    2.44000006
   16.90916634  107.86100006    4.90999985    2.44000006
   16.91250038   97.22429657    4.90999985    2.51999998
   16.91583252  103.16999817    4.90999985    2.53999996
   16.91888809   76.56719971    4.90999985    2.55999994
   16.92222214   99.59259796    4.90999985    2.55999994
   16.92333221  101.94799805    4.90999985    2.55999994
   16.92583275  102.95899963    4.90999985    2.55999994
   16.92916679   97.21360016    4.90999985    2.55999994
   16.93249893   84.97949982    4.90999985    2.53999996
   16.93555450   89.15570068    4.90999985    2.50000000
   16.93888855   92.03649902    4.90999985    2.53999996
   16.94194412   96.26090240    4.90999985    2.53999996
   16.94805527   96.26090240    4.90999985    2.53999996
   16.95222282   94.01069641    4.90999985    2.57999992
   16.95527840   99.89980316    4.90999985    2.59999990
   16.95666695   93.16799927    4.90999985    2.59999990
   16.95888901   88.56569672    4.90999985    2.59999990
   16.96222305   96.81870270    4.90999985    2.57999992
   16.96527863   88.35780334    4.90999985    2.61999989
   16.96861076   90.51730347    4.90999985    2.57999992
   16.97194481   96.49389648    4.90999985    2.53999996
   16.97527885   98.58119965    4.90999985    2.57999992
   16.97833443  104.90899658    4.90999985    2.61999989
   16.98166656   93.06809998    4.90999985    2.53999996
   16.98472214  102.62400055    4.90999985    2.53999996
   16.99083328  102.62400055    4.90999985    2.53999996
   16.99500084   98.43039703    4.90999985    2.51999998
   16.99805641  105.80599976    4.90999985    2.51999998
   17.00138855  104.27899933    4.90999985    2.48000002
   17.00472260   90.04429626    4.90999985    2.48000002
   17.00777817   91.50969696    4.90999985    2.50000000
   17.01111031  100.68399811    4.90999985    2.46000004
   17.01444435   98.70249939    4.90999985    2.42000008
   17.01749992   97.52200317    4.90999985    2.34999990
   17.02083397  107.13200378    4.90999985    2.26999998
   17.02333260  106.17400360    4.90999985    2.25000000
   17.02444458  112.77899933    4.90999985    2.23000002
   17.02777672  113.62699890    4.90999985    2.26999998
   17.03361130  113.62699890    4.90999985    2.39000010
   17.03777695  111.18099976    4.90999985    2.30999994
   17.04111099  106.72499847    4.90999985    2.32999992
   17.04416656  105.66000366    4.90999985    2.34999990
   17.04749870  100.56400299    4.90999985    2.36999989
   17.05083275  105.74600220    4.90999985    2.40000010
   17.05388832  101.45400238    4.90999985    2.39000010
   17.05666542  101.03500366    4.90999985    2.32999992
   17.05749893   98.02469635    4.90999985    2.30999994
   17.06083298  107.39399719    4.90999985    2.34999990
   17.06416512   90.89420319    4.90999985    2.28999996
   17.06722260  105.18900299    4.90999985    2.28999996
   17.07055664   95.36229706    4.90999985    2.32999992
   17.07666779   95.36229706    4.90999985    2.32999992
   17.08055687  103.63200378    4.90999985    2.25000000
   17.08388901  108.77899933    4.90999985    2.21000004
   17.08722305  102.95300293    4.90999985    2.40000010
   17.09000015  103.94400024    4.90999985    2.46000004
   17.09055710  102.33899689    4.90999985    2.42000008
   17.09388924   87.27140045    4.90999985    2.48000002
   17.09722328   91.41030121    4.90999985    2.46000004
   17.10027885   98.60369873    4.90999985    2.44000006
   17.10361099   91.09719849    4.90999985    2.42000008
   17.10666656  102.29299927    4.90999985    2.46000004
   17.11000061   88.59860229    4.90999985    2.48000002
   17.11333466   92.17569733    4.90999985    2.46000004
   17.11944389   92.17569733    4.90999985    2.48000002
   17.12361145  100.24099731    4.90999985    2.51999998
   17.12666702   89.55079651    4.90999985    2.50000000
   17.13000107  102.97499847    4.90999985    2.50000000
   17.13305473  101.17900085    4.90999985    2.51999998
   17.13638878   77.10549927    4.90999985    2.51999998
   17.13972282   89.55290222    4.90999985    2.46000004
   17.14277840   94.04250336    4.90999985    2.36999989
   17.14611053   93.83399963    4.90999985    2.34999990
   17.14944458  109.13300323    4.90999985    2.42000008
   17.15250015  109.90699768    4.90999985    2.48000002
   17.15583229  108.88800049    4.90999985    2.36999989
   17.15666580  100.74700165    4.90999985    2.32999992
   17.16222191  100.74700165    4.90999985    2.34999990
   17.16638756  116.50800323    4.90999985    2.26999998
   17.16944313  100.50599670    4.90999985    2.32999992
   17.17277718   84.28410339    4.90999985    2.36999989
   17.17611122   90.99019623    4.90999985    2.32999992
   17.17916679   87.00180054    4.90999985    2.30999994
   17.18249893   90.66660309    4.90999985    2.23000002
   17.18583298   98.32009888    4.90999985    2.34999990
   17.18888855   90.75140381    4.90999985    2.40000010
   17.18999863   97.04340363    4.90999985    2.44000006
   17.19249916   91.59400177    4.90999985    2.39000010
   17.19583321   97.42070007    4.90999985    2.42000008
   17.19916534   96.75990295    4.90999985    2.36999989
   17.20499992   96.75990295    4.90999985    2.40000010
   17.20916748   92.81020355    4.90999985    2.40000010
   17.21250153   94.28769684    4.90999985    2.40000010
   17.21555710   78.84390259    4.90999985    2.46000004
   17.21888924   82.31469727    4.90999985    2.46000004
   17.22222328   97.81230164    4.90999985    2.32999992
   17.22333336   90.35959625    4.90999985    2.30999994
   17.22555542   92.95950317    4.90999985    2.30999994
   17.22888947   95.15699768    4.90999985    2.25000000
   17.23222351   96.17960358    4.90999985    2.30999994
   17.23527718  102.25599670    4.90999985    2.30999994
   17.23861122   93.83390045    4.90999985    2.30999994
   17.24166679   99.21859741    4.90999985    2.28999996
   17.24805641   99.21859741    4.90999985    2.32999992
   17.25194359   98.71579742    4.90999985    2.48000002
   17.25527763   88.22799683    4.90999985    2.53999996
   17.25666618   85.16449738    4.90999985    2.55999994
   17.25888824   92.50859833    4.90999985    2.50000000
   17.26222229   98.91670227    4.90999985    2.48000002
   17.26555634   87.44080353    4.90999985    2.50000000
   17.26861000   93.05889893    4.90999985    2.53999996
   17.27194405   79.75420380    4.90999985    2.53999996
   17.27499962   96.60489655    4.90999985    2.51999998
   17.27833366   93.05390167    4.90999985    2.51999998
   17.28166580   94.25990295    4.90999985    2.50000000
   17.28472137   93.39890289    4.90999985    2.50000000
   17.29083252   93.39890289    4.90999985    2.50000000
   17.29500008   96.26830292    4.90999985    2.51999998
   17.29805565   89.24379730    4.90999985    2.48000002
   17.30138779   98.00900269    4.90999985    2.48000002
   17.30444336   97.54429626    4.90999985    2.48000002
   17.30777740   94.37689972    4.90999985    2.48000002
   17.31110954   89.71549988    4.90999985    2.51999998
   17.31416512   94.74829865    4.90999985    2.48000002
   17.31750107   84.43270111    4.90999985    2.48000002
   17.32083511   93.24279785    4.90999985    2.46000004
   17.32333374   98.16139984    4.90999985    2.42000008
   17.32416725   94.46949768    4.90999985    2.42000008
   17.32750130   92.41570282    4.90999985    2.46000004
   17.33361244   92.41570282    4.90999985    2.51999998
   17.33777809   86.79129791    4.90999985    2.59999990
   17.34083366   90.88819885    4.90999985    2.55999994
   17.34416771   83.36319733    4.90999985    2.53999996
   17.34749985  104.54699707    4.90999985    2.51999998
   17.35055542   83.55660248    4.90999985    2.53999996
   17.35388947   83.33370209    4.90999985    2.50000000
   17.35666656   80.37909698    4.90999985    2.42000008
   17.35750008   92.51670074    4.90999985    2.42000008
   17.36083412   88.34200287    4.90999985    2.36999989
   17.36416626   87.12020111    4.90999985    2.39000010
   17.36722183  109.91799927    4.90999985    2.32999992
   17.37055588  100.40000153    4.90999985    2.25000000
   17.37638855  100.40000153    4.90999985    2.28999996
   17.38055611  135.33700562    4.90999985    2.17000008
   17.38388824  166.54100037    4.90999985    0.01000000
   17.38694382  171.22500610    4.90999985    1.94000006
   17.38999939  191.06199646    4.90999985    1.94000006
   17.39055634  181.00700378    4.90999985    1.98000002
   17.39388847  112.45200348    4.90999985    2.05999994
   17.39722252  137.10800171    4.90999985    2.15000010
   17.40027809  166.04299927    4.90999985    2.13000011
   17.40361023  170.20399475    4.90999985    2.07999992
   17.40694427  283.72698975    4.90999985    2.00000000
   17.40999985  148.38600159    4.90999985    1.96000004
   17.41333389  128.26300049    4.90999985    2.25000000
   17.41916656  128.26300049    4.90999985    2.36999989
   17.42333221  141.07200623    4.90999985    2.46000004
   17.42666626  107.72599792    4.90999985    2.46000004
   17.43000031  123.20200348    4.90999985    2.46000004
   17.43305397  117.49199677    4.90999985    2.46000004
   17.43638802  100.73600006    4.90999985    2.55999994
   17.43944359   95.54340363    4.90999985    2.57999992
   17.44277763  105.00199890    4.90999985    2.59999990
   17.44610977  109.75599670    4.90999985    2.57999992
   17.44916534  110.71499634    4.90999985    2.61999989
   17.45250130  107.70400238    4.90999985    2.64000010
   17.45583344  100.70300293    4.90999985    2.61999989
   17.45666695  105.11000061    4.90999985    2.59999990
   17.46222305  105.11000061    4.90999985    2.59999990
   17.46638870  105.41799927    4.90999985    2.53999996
   17.46944427   94.90910339    4.90999985    2.50000000
   17.47277832  105.43299866    4.90999985    2.51999998
   17.49027824  116.42099762    4.90999985    2.13000011
   17.49277878  157.75900269    4.90999985    2.13000011
   17.49583435  146.56799316    4.90999985    2.07999992
   17.49916649  117.22499847    4.90999985    2.03999996
   17.50527763  117.22499847    4.90999985    2.15000010
   17.50916672   92.56900024    4.90999985    2.23000002
   17.51250076  113.79399872    4.90999985    2.19000006
   17.51583290  123.83599854    4.90999985    2.17000008
   17.51888847  155.22900391    4.90999985    2.15000010
   17.52222252  144.74000549    4.90999985    2.09999990
   17.52361107  210.42999268    4.90999985    2.03999996
   17.52583313  138.07000732    4.90999985    2.00000000
   17.52916718  138.18899536    4.90999985    2.01999998
   17.53249931  117.40200043    4.90999985    2.07999992
   17.53555489  171.18600464    4.90999985    2.07999992
   17.53888893  263.52499390    4.90999985    1.91999996
   17.54222107  314.83898926    4.90999985    1.85000002
   17.54416656  237.08900452    4.90999985    1.89999998
   17.54416656  117.40200043    4.90999985    2.07999992
   17.54444313  171.18600464    4.90999985    2.07999992
   17.54444313  263.52499390    4.90999985    1.91999996
   17.54444313  314.83898926    4.90999985    1.85000002
   17.54472160  123.83599854    4.90999985    2.17000008
   17.54472160  155.22900391    4.90999985    2.15000010
   17.54472160  144.74000549    4.90999985    2.09999990
   17.54500008  138.07000732    4.90999985    2.00000000
   17.54500008  138.18899536    4.90999985    2.01999998
   17.54916573  138.18899536    4.90999985    1.69000006
   17.55333328   -1.00000000    4.90999985    1.66999996
   17.55666542   -1.00000000    4.90999985    1.60000002
   17.55972099   -1.00000000    4.90999985    1.60000002
   17.56305504   -1.00000000    4.90999985    1.51999998
   17.56638718  387.19799805    4.90999985    1.58000004
   17.56833458  186.38999939    4.90999985    1.75000000
   17.56833458   -1.00000000    4.90999985    1.66999996
   17.56861115   -1.00000000    4.90999985    1.60000002
   17.56861115   -1.00000000    4.90999985    1.60000002
   17.56861115   -1.00000000    4.90999985    1.51999998
   17.56888962  387.19799805    4.90999985    1.58000004
   17.57083511  240.50399780    4.90999985    2.00000000
   17.57389069  263.92498779    4.90999985    1.91999996
   17.57722282  256.32901001    4.90999985    1.89999998
   17.58055687  431.76998901    4.90999985    1.86000001
   17.58250046   55.48109818    4.90999985    1.83000004
   17.58250046  240.50399780    4.90999985    2.00000000
   17.58277893  263.92498779    4.90999985    1.91999996
   17.58277893  256.32901001    4.90999985    1.89999998
   17.58277893  431.76998901    4.90999985    1.86000001
   17.58472252  146.02200317    4.90999985    1.75000000
   17.58805656  261.29199219    4.90999985    1.91999996
   17.59138870  218.35099792    4.90999985    1.88000000
   17.59444427   -1.00000000    4.90999985    1.69000006
   17.59777832   72.94319916    4.90999985    1.64999998
   17.60333443   72.94319916    4.90999985    1.94000006
   17.60750008   -1.00000000    4.90999985    1.61000001
   17.61055565  279.93301392    4.90999985    1.69000006
   17.61388969  244.61999512    4.90999985    1.88000000
   17.61638832   89.58260345    4.90999985    1.80999994
   17.61777878   85.84719849    4.90999985    1.76999998
   17.62083435   -1.00000000    4.90999985    1.78999996
   17.62416649   -1.00000000    4.90999985    1.64999998
   17.62722206   -1.00000000    4.90999985    1.55999994
   17.63055611   -1.00000000    4.90999985    1.69000006
   17.63388824   -1.00000000    4.90999985    1.64999998
   17.63694382   -1.00000000    4.90999985    1.76999998
   17.64027786   -1.00000000    4.90999985    1.73000002
   17.64611053   -1.00000000    4.90999985    1.80999994
   17.65027809   -1.00000000    4.90999985    1.86000001
   17.65361023   -1.00000000    4.90999985    1.76999998
   17.65666580   -1.00000000    4.90999985    1.64999998
   17.65999985   22.19169998    4.90999985    1.76999998
   17.66333389   -1.00000000    4.90999985    1.78999996
   17.66638756   -1.00000000    4.90999985    1.73000002
   17.66972160   -1.00000000   -1.00000000   -1.00000000
   17.67277718   -1.00000000    4.90999985    1.55999994
   17.67611122   -1.00000000    4.90999985    1.25000000
   17.67944336   -1.00000000    4.90999985    1.23000002
   17.68249893   -1.00000000    4.90999985    1.09000003
   17.69305420   -1.00000000    4.90999985    1.23000002
   17.69638824   -1.00000000    4.90999985    1.48000002
   17.69944382   -1.00000000    4.90999985    1.39999998
   17.70277786   -1.00000000    4.90999985    1.48000002
   17.70583344   -1.00000000    4.90999985    1.51999998
   17.71138954   -1.00000000    4.90999985    1.55999994
   17.71472359   -1.00000000    4.90999985    1.64999998
   17.71833420  266.11401367    4.90999985    1.73000002
   17.72138977  212.29200745    4.90999985    1.94000006
   17.72472191  163.38900757    4.90999985    1.94000006
   17.72777748  241.85400391    4.90999985    1.94000006
   17.73194504  241.85400391    4.90999985    1.88000000
   17.73611069  145.97500610    4.90999985    1.94000006
   17.73944473  137.11199951    4.90999985    2.05999994
   17.74250031  128.61900330    4.90999985    2.09999990
   17.74583435  121.76399994    4.90999985    2.01999998
   17.74916649  111.49900055    4.90999985    2.07999992
   17.74972153  118.84300232    4.90999985    2.05999994
   17.75277710  110.04799652    4.90999985    2.13000011
   17.75611115   94.64459991    4.90999985    2.25000000
   17.75916672   96.89119720    4.90999985    2.23000002
   17.76250076  113.29699707    4.90999985    2.19000006
   17.76555634  104.03900146    4.90999985    2.25000000
   17.76888847  107.51399994    4.90999985    2.25000000
   17.77499962  107.51399994    4.90999985    2.25000000
   17.77888870  112.00099945    4.90999985    2.25000000
   17.78222275  107.91600037    4.90999985    2.21000004
   17.78305435  106.44000244    4.90999985    2.17000008
   17.78583336  123.44499969    4.90999985    2.19000006
   17.78916550  119.72599792    4.90999985    2.15000010
   17.79222107  134.28999329    4.90999985    2.21000004
   17.79555511  143.71000671    4.90999985    2.11999989
   17.79861069  140.44299316    4.90999985    1.98000002
   17.80194283  164.19400024    4.90999985    2.01999998
   17.80527687  156.16200256    4.90999985    1.98000002
   17.80833244  291.52398682    4.90999985    1.91999996
   17.81166649  212.57600403    4.90999985    1.78999996
   17.81777954  212.57600403    4.90999985    1.98000002
   17.82194519  104.02899933    4.90999985    2.07999992
   17.82500076  129.41799927    4.90999985    2.01999998
   17.82833481  161.02000427    4.90999985    1.89999998
   17.83166695  240.75199890    4.90999985    1.86000001
   17.83472252  150.48699951    4.90999985    1.91999996
   17.83805656  195.99200439    4.90999985    1.89999998
   17.84111214   -1.00000000   -1.00000000   -1.00000000
   17.84444427   -1.00000000    4.90999985    1.73000002
   17.84777832   -1.00000000    4.90999985    1.71000004
   17.85138893   -1.00000000    4.90999985    1.58000004
   17.85444450   -1.00000000    4.90999985    1.50000000
   17.86055565   -1.00000000    4.90999985    1.46000004
   17.86472321   -1.00000000    4.90999985    1.38000000
   17.86805534   -1.00000000    4.90999985    1.46000004
   17.87111092   -1.00000000    4.90999985    1.16999996
   17.87444496   -1.00000000    4.90999985    1.19000006
   17.87750053   -1.00000000    4.90999985    1.07000005
   17.88083267   -1.00000000    4.90999985    1.07000005
   17.88444519   -1.00000000    4.90999985    0.94000000
   17.88750076   -1.00000000    4.90999985    0.98000002
   17.89083290   -1.00000000    4.90999985    0.88000000
   17.89388847   -1.00000000    4.90999985    0.92000002
   17.89722252   -1.00000000    4.90999985    0.86000001
   17.90749931   -1.00000000    4.90999985    0.52999997
   17.91055489   -1.00000000    4.90999985    0.41999999
   17.91388893   -1.00000000    4.90999985    0.28000000
   17.91749954   -1.00000000    4.90999985    0.28000000
   17.92055511   -1.00000000    4.90999985    0.28000000
   17.92388916   -1.00000000    4.90999985    0.31999999
   17.92694473   -1.00000000    4.90999985    0.40000001
   17.93027687   -1.00000000    4.90999985    0.34000000
   17.93361092   -1.00000000    4.90999985    0.31999999
   17.93666649   -1.00000000    4.90999985    0.30000001
   17.93999863   -1.00000000    4.90999985    0.28000000
   17.95027924   -1.00000000    4.90999985    0.30000001
   17.95361137   -1.00000000    4.90999985    0.25000000
   17.95666695   -1.00000000    4.90999985    0.28000000
   17.96000099   -1.00000000    4.90999985    0.25000000
   17.96333504   -1.00000000    4.90999985    0.25999999
   17.96638870   -1.00000000    4.90999985    0.28000000
   17.96972275   -1.00000000    4.90999985    0.28000000
   17.97277832   -1.00000000    4.90999985    0.34000000
   17.97611237   -1.00000000    4.90999985    0.44000000
   17.97944450   -1.00000000    4.90999985    0.55000001
   17.98250008   -1.00000000    4.90999985    0.63000000
   17.99305534   -1.00000000    4.90999985    1.00000000
   17.99638939   -1.00000000    4.90999985    1.11000001
   17.99972153   -1.00000000    4.90999985    1.26999998
   18.00277710   -1.00000000    4.90999985    1.28999996
   18.00611115   -1.00000000    4.90999985    1.48000002
   18.00916672   -1.00000000    4.90999985    1.48000002
   18.01250076   -1.00000000    4.90999985    0.05000000
   18.01583290   -1.00000000    4.90999985    0.05000000
   18.01944351   -1.00000000    4.90999985    1.51999998
   18.02249908   -1.00000000    4.90999985    1.55999994
   18.02583313   -1.00000000    4.90999985    1.60000002
   18.03194427   -1.00000000    4.90999985    1.60000002
   18.03610992   -1.00000000    4.90999985    1.63000000
   18.03944397   -1.00000000    4.90999985    1.60000002
   18.04249954   -1.00000000    4.90999985    1.48000002
   18.04583359   -1.00000000    4.90999985    1.58000004
   18.04888916   -1.00000000    4.90999985    1.61000001
   18.05249977   -1.00000000    4.90999985    1.61000001
   18.05555534   -1.00000000    4.90999985    1.55999994
   18.05888748   -1.00000000    4.90999985    1.28999996
   18.06222153   -1.00000000    4.90999985    1.33000004
   18.06527710   -1.00000000    4.90999985    1.14999998
   18.06861115   -1.00000000    4.90999985    0.92000002
   18.07888985   -1.00000000    4.90999985    0.94000000
   18.08222389   -1.00000000    4.90999985    0.94000000
   18.08583450   -1.00000000    4.90999985    0.88000000
   18.08889008   -1.00000000    4.90999985    0.76999998
   18.09222221   -1.00000000    4.90999985    0.52999997
   18.09555626   -1.00000000    4.90999985    0.40000001
   18.09861183   -1.00000000    4.90999985    0.36000001
   18.10194397   -1.00000000    4.90999985    0.25999999
   18.10499954   -1.00000000    4.90999985    0.23000000
   18.10833359   -1.00000000    4.90999985    0.17000000
   18.11166763   -1.00000000    4.90999985    0.15000001
   18.12166595   -1.00000000    4.90999985    0.19000000
   18.12500000   -1.00000000    4.90999985    0.17000000
   18.12805557   -1.00000000    4.90999985    0.15000001
   18.13138962   -1.00000000    4.90999985    0.13000000
   18.13472176   -1.00000000    4.90999985    0.15000001
   18.13777733   -1.00000000    4.90999985    0.15000001
   18.14111137   -1.00000000    4.90999985    0.13000000
   18.14444351   -1.00000000    4.90999985    0.13000000
   18.14749908   -1.00000000    4.90999985    0.13000000
   18.15111160   -1.00000000    4.90999985    0.17000000
   18.15416718   -1.00000000    4.90999985    0.17000000
   18.16444397   -1.00000000    4.90999985    0.15000001
   18.16777802   -1.00000000    4.90999985    0.13000000
   18.17111015   -1.00000000    4.90999985    0.13000000
   18.17416573   -1.00000000    4.90999985    0.11000000
   18.17749977   -1.00000000    4.90999985    0.13000000
   18.18083191   -1.00000000    4.90999985    0.09000000
   18.18444443   -1.00000000    4.90999985    0.11000000
   18.18750000   -1.00000000    4.90999985    0.15000001
   18.19083214   -1.00000000    4.90999985    0.15000001
   18.19416618   -1.00000000    4.90999985    0.19000000
   18.19722176   -1.00000000    4.90999985    0.23000000
   18.20750046   -1.00000000    4.90999985    0.30000001
   18.21055603   -1.00000000    4.90999985    0.25000000
   18.21389008   -1.00000000    4.90999985    0.23000000
   18.21750069   -1.00000000    4.90999985    0.28000000
   18.22055626   -1.00000000    4.90999985    0.34000000
   18.22389030   -1.00000000    4.90999985    0.31999999
   18.22722244   -1.00000000    4.90999985    0.38000000
   18.23027802   -1.00000000    4.90999985    0.36000001
   18.23361206   -1.00000000    4.90999985    0.36000001
   18.23666763   -1.00000000    4.90999985    0.44000000
   18.23999977   -1.00000000    4.90999985    0.55000001
   18.25027847   -1.00000000    4.90999985    0.81999999
   18.25333405   -1.00000000    4.90999985    0.88000000
   18.25666618   -1.00000000    4.90999985    0.80000001
   18.26000023   -1.00000000    4.90999985    1.03999996
   18.26305580   -1.00000000    4.90999985    1.14999998
   18.26638794   -1.00000000    4.90999985    1.25000000
   18.26972198   -1.00000000    4.90999985    1.39999998
   18.27277756   -1.00000000    4.90999985    1.48000002
   18.27611160   -1.00000000    4.90999985    1.50000000
   18.27916718   -1.00000000    4.90999985    1.28999996
   18.28249931   -1.00000000    4.90999985    1.13000000
   18.28916550   -1.00000000    4.90999985    1.25000000
   18.29305458   -1.00000000    4.90999985    1.25000000
   18.29638863   -1.00000000    4.90999985    1.19000006
   18.29972076   -1.00000000    4.90999985    1.11000001
   18.30277634   -1.00000000    4.90999985    1.09000003
   18.30611038   -1.00000000    4.90999985    1.05999994
   18.30944443   -1.00000000    4.90999985    0.86000001
   18.31250000   -1.00000000    4.90999985    0.80000001
   18.31583214   -1.00000000    4.90999985    0.94000000
   18.31944466   -1.00000000    4.90999985    0.94000000
   18.32250023   -1.00000000    4.90999985    0.94000000
   18.32583427   -1.00000000    4.90999985    0.94000000
   18.33583450   -1.00000000    4.90999985    0.81999999
   18.33916664   -1.00000000    4.90999985    0.73000002
   18.34250069   -1.00000000    4.90999985    0.70999998
   18.34555626   -1.00000000    4.90999985    0.50000000
   18.34889030   -1.00000000    4.90999985    0.44000000
   18.35250092   -1.00000000    4.90999985    0.34000000
   18.35555649   -1.00000000    4.90999985    0.36000001
   18.35888863   -1.00000000    4.90999985    0.36000001
   18.36222267   -1.00000000    4.90999985    0.44000000
   18.36527824   -1.00000000    4.90999985    0.40000001
   18.36861038   -1.00000000    4.90999985    0.41999999
   18.37888908   -1.00000000    4.90999985    0.34000000
   18.38194466   -1.00000000    4.90999985    0.30000001
   18.38555527   -1.00000000    4.90999985    0.25999999
   18.38861084   -1.00000000    4.90999985    0.28000000
   18.39194489   -1.00000000    4.90999985    0.44000000
   18.39527702   -1.00000000    4.90999985    0.46000001
   18.39833260   -1.00000000    4.90999985    0.51999998
   18.40166664   -1.00000000    4.90999985    0.61000001
   18.40499878   -1.00000000    4.90999985    0.75000000
   18.40805435   -1.00000000    4.90999985    1.01999998
   18.41138840   -1.00000000    4.90999985    1.03999996
   18.42166519   -1.00000000    4.90999985    0.83999997
   18.42499924   -1.00000000    4.90999985    0.81999999
   18.42805481   -1.00000000    4.90999985    0.83999997
   18.43138885   -1.00000000    4.90999985    0.79000002
   18.43444443   -1.00000000    4.90999985    0.51999998
   18.43777657   -1.00000000    4.90999985    0.44000000
   18.44111061   -1.00000000    4.90999985    0.41999999
   18.44416618   -1.00000000    4.90999985    0.44000000
   18.44749832   -1.00000000    4.90999985    0.46000001
   18.45111275   -1.00000000    4.90999985    0.30000001
   18.45416832   -1.00000000    4.90999985    0.31999999
   18.46444511   -1.00000000    4.90999985    0.38000000
   18.46777916   -1.00000000    4.90999985    0.31999999
   18.47083473   -1.00000000    4.90999985    0.28000000
   18.47416687   -1.00000000    4.90999985    0.23000000
   18.47750092   -1.00000000    4.90999985    0.23000000
   18.48055649   -1.00000000    4.90999985    0.20999999
   18.48416710   -1.00000000    4.90999985    0.17000000
   18.48722267   -1.00000000    4.90999985    0.11000000
   18.49055672   -1.00000000    4.90999985    0.15000001
   18.51555634   -1.00000000    4.90999985    0.41999999
   18.51916695   -1.00000000    4.90999985    0.36000001
   18.52222252   -1.00000000    4.90999985    0.38000000
   18.52555466   -1.00000000    4.90999985    0.46000001
   18.52861023   -1.00000000    4.90999985    0.47999999
   18.53194427   -1.00000000    4.90999985    0.52999997
   18.53527641   -1.00000000    4.90999985    0.41999999
   18.53833199   -1.00000000    4.90999985    0.40000001
   18.54166603   -1.00000000    4.90999985    0.38000000
   18.54500008   -1.00000000    4.90999985    0.46000001
   18.54805565   -1.00000000    4.90999985    0.64999998
   18.55833244   -1.00000000    4.90999985    0.69000000
   18.56166649   -1.00000000    4.90999985    0.89999998
   18.56472206   -1.00000000    4.90999985    0.86000001
   18.56805611   -1.00000000    4.90999985    0.80000001
   18.57139015   -1.00000000    4.90999985    0.76999998
   18.57444572   -1.00000000    4.90999985    0.80000001
   18.57777786   -1.00000000    4.90999985    0.81999999
   18.58083344   -1.00000000    4.90999985    0.83999997
   18.58472252   -1.00000000    4.90999985    0.94000000
   18.58777809   -1.00000000    4.90999985    0.89999998
   18.59111214   -1.00000000    4.90999985    0.81999999
   18.60111237   -1.00000000    4.90999985    0.79000002
   18.60444450   -1.00000000    4.90999985    0.86000001
   18.60777855   -1.00000000    4.90999985    0.89999998
   18.61083412   -1.00000000    4.90999985    0.89999998
   18.61416626   -1.00000000    4.90999985    0.81999999
   18.61777878   -1.00000000    4.90999985    0.86000001
   18.62083435   -1.00000000    4.90999985    0.95999998
   18.62416649   -1.00000000    4.90999985    0.92000002
   18.62722206   -1.00000000    4.90999985    0.95999998
   18.63055611   -1.00000000    4.90999985    1.00000000
   18.63388824   -1.00000000    4.90999985    1.01999998
   18.64416695   -1.00000000    4.90999985    1.09000003
   18.64722252   -1.00000000    4.90999985    1.16999996
   18.65083313   -1.00000000    4.90999985    1.19000006
   18.65388870   -1.00000000    4.90999985    1.03999996
   18.65722275   -1.00000000    4.90999985    0.92000002
   18.66027832   -1.00000000    4.90999985    0.80000001
   18.66361046   -1.00000000    4.90999985    0.70999998
   18.66694450   -1.00000000    4.90999985    0.64999998
   18.67000008   -1.00000000    4.90999985    0.52999997
   18.67333221   -1.00000000    4.90999985    0.51999998
   18.67666626   -1.00000000    4.90999985    0.63000000
   18.68694305   -1.00000000    4.90999985    0.61000001
   18.68999863   -1.00000000    4.90999985    0.63000000
   18.69333267   -1.00000000    4.90999985    0.79000002
   18.69666672   -1.00000000    4.90999985    0.92000002
   18.69972038   -1.00000000    4.90999985    0.92000002
   18.70305634   -1.00000000    4.90999985    0.88000000
   18.70639038   -1.00000000    4.90999985    0.88000000
   18.70944595   -1.00000000    4.90999985    1.38000000
   18.71277809   -1.00000000    4.90999985    1.44000006
   18.71583366   -1.00000000    4.90999985    1.25000000
   18.71944427   -1.00000000    4.90999985    1.09000003
   18.72972298   -1.00000000    4.90999985    1.01999998
   18.73305511   -1.00000000    4.90999985    1.21000004
   18.73611069   -1.00000000    4.90999985    1.25000000
   18.73944473   -1.00000000    4.90999985    1.16999996
   18.74277878   -1.00000000    4.90999985    1.09000003
   18.74583435   -1.00000000    4.90999985    0.80000001
   18.74916649   -1.00000000    4.90999985    0.79000002
   18.75250053   -1.00000000    4.90999985    0.94000000
   18.75583267   -1.00000000    4.90999985    1.11000001
   18.75916672   -1.00000000    4.90999985    1.13000000
   18.76222229   -1.00000000    4.90999985    0.81999999
   18.77249908   -1.00000000    4.90999985    1.05999994
   18.77583313   -1.00000000    4.90999985    1.41999996
   18.77916718   -1.00000000    4.90999985    1.23000002
   18.78222275   -1.00000000    4.90999985    0.70999998
   18.78472137   -1.00000000   -1.00000000   -1.00000000
   18.78583336  228.25700378    4.90999985    1.63000000
   18.78916550  178.22799683    4.90999985    1.91999996
   18.79249954  116.46199799    4.90999985    1.91999996
   18.79555511  104.84899902    4.90999985    2.00000000
   18.79888916  123.74900055    4.90999985    2.11999989
   18.80222130  106.65899658    4.90999985    2.21000004
   18.80527687  102.47299957    4.90999985    2.30999994
   18.81138802  102.47299957    4.90999985    2.28999996
   18.81555557  114.51399994    4.90999985    2.30999994
   18.81805611  106.61900330    4.90999985    2.28999996
   18.81888962  103.88099670    4.90999985    2.28999996
   18.82222366  109.46600342    4.90999985    0.01000000
   18.82555580  115.31700134    4.90999985    2.25000000
   18.82861137  109.69100189    4.90999985    2.19000006
   18.83194542   91.41079712    4.90999985    2.23000002
   18.83527756  116.45300293    4.90999985    2.19000006
   18.83833313  101.82800293    4.90999985    2.23000002
   18.84166718  122.33200073    4.90999985    2.13000011
   18.84472275  208.84700012    4.90999985    1.98000002
   18.84805679  105.11599731    4.90999985    1.78999996
   18.85416794  105.11599731    4.90999985    1.75000000
   18.85833359   -1.00000000    4.90999985    1.69000006
   18.86166763   -1.00000000    4.90999985    1.58000004
   18.86472321   23.57019997    4.90999985    1.71000004
   18.86805534  167.07400513    4.90999985    1.76999998
   18.87138939  165.05999756    4.90999985    1.89999998
   18.87444496  202.76899719    4.90999985    1.86000001
   18.87777710  132.69999695    4.90999985    1.89999998
   18.88083267  113.77100372    4.90999985    2.05999994
   18.88416672  189.89799500    4.90999985    2.07999992
   18.88500023  209.04400635    4.90999985    2.05999994
   18.88777733  209.91700745    4.90999985    1.86000001
   18.89111137  131.12899780    4.90999985    1.85000002
   18.89694405  131.12899780    4.90999985    2.15000010
   18.90111160  238.08500671    4.90999985    2.05999994
   18.90444374  200.86599731    4.90999985    1.78999996
   18.90777779   -1.00000000    4.90999985    1.71000004
   18.91083336  153.56199646    4.90999985    1.76999998
   18.91416550   97.70439911    4.90999985    2.01999998
   18.91722107  116.90000153    4.90999985    2.25000000
   18.91833305   91.14689636    4.90999985    2.23000002
   18.92083359  114.06099701    4.90999985    2.21000004
   18.92416573  166.09599304    4.90999985    2.07999992
   18.92722130  201.14700317    4.90999985    1.76999998
   18.93055534  163.97099304    4.90999985    1.88000000
   18.93388748   23.57019997    4.90999985    1.76999998
   18.93999863   23.57019997    4.90999985    1.39999998
   18.94416618   -1.00000000    4.90999985    1.41999996
   18.94722176   -1.00000000    4.90999985    1.60000002
   18.95055580  357.51901245    4.90999985    1.60000002
   18.95250130   27.91670036    4.90999985    1.66999996
   18.95250130  163.97099304    4.90999985    1.88000000
   18.95277786   23.57019997    4.90999985    1.76999998
   18.95277786   -1.00000000    4.90999985    1.41999996
   18.95277786   -1.00000000    4.90999985    1.60000002
   18.95305634  357.51901245    4.90999985    1.60000002
   18.95305634  116.90000153    4.90999985    2.25000000
   18.95305634  114.06099701    4.90999985    2.21000004
   18.95333481  166.09599304    4.90999985    2.07999992
   18.95333481  201.14700317    4.90999985    1.76999998
   18.95527840  179.58299255    4.90999985    1.78999996
   18.95861244  209.13099670    4.90999985    1.78999996
   18.96166801  157.22099304    4.90999985    1.85000002
   18.96500015  143.68200684    4.90999985    1.89999998
   18.96833420  114.04900360    4.90999985    2.07999992
   18.97333336  114.04900360    4.90999985    1.91999996
   18.97750092  207.31599426    4.90999985    1.94000006
   18.98083305   -1.00000000    4.90999985    1.78999996
   18.98388863   -1.00000000    4.90999985    1.69000006
   18.98750114   -1.00000000    4.90999985    1.66999996
   18.99083328   -1.00000000    4.90999985    1.55999994
   18.99416733   -1.00000000    4.90999985    1.53999996
   18.99722290   -1.00000000    4.90999985    1.50000000
   19.00055504   -1.00000000    4.90999985    1.39999998
   19.00361061   -1.00000000    4.90999985    1.26999998
   19.00694466   -1.00000000    4.90999985    1.16999996
   19.01027870   -1.00000000    4.90999985    1.11000001
   19.02027702   -1.00000000    4.90999985    1.01999998
   19.02333260   -1.00000000    4.90999985    1.05999994
   19.02666664   -1.00000000    4.90999985    1.21000004
   19.03000069   -1.00000000    4.90999985    1.25000000
   19.03305435   -1.00000000    4.90999985    1.26999998
   19.03638840   -1.00000000    4.90999985    1.25000000
   19.03972244   -1.00000000    4.90999985    1.25000000
   19.04277802   -1.00000000    4.90999985    1.38000000
   19.04611015   -1.00000000    4.90999985    1.44000006
   19.04916573   -1.00000000    4.90999985    1.53999996
   19.05249977   -1.00000000    4.90999985    1.60000002
   19.05916595   -1.00000000    4.90999985    1.55999994
   19.06305504   -1.00000000    4.90999985    1.69000006
   19.06638718   -1.00000000    4.90999985    1.64999998
   19.06972313   -1.00000000    4.90999985    1.61000001
   19.07277870   -1.00000000    4.90999985    1.61000001
   19.07611275   -1.00000000    4.90999985    1.39999998
   19.07944489   -1.00000000    4.90999985    1.39999998
   19.08250046   -1.00000000    4.90999985    1.16999996
   19.08583450   -1.00000000    4.90999985    1.11000001
   19.08916664   -1.00000000    4.90999985    1.01999998
   19.09250069   -1.00000000    4.90999985    1.09000003
   19.09583473   -1.00000000    4.90999985    0.98000002
   19.10583305   -1.00000000    4.90999985    0.79000002
   19.10916710   -1.00000000    4.90999985    0.73000002
   19.11250114   -1.00000000    4.90999985    0.69000000
   19.11555672   -1.00000000    4.90999985    0.69000000
   19.11888885   -1.00000000    4.90999985    0.58999997
   19.12222290   -1.00000000    4.90999985    0.79000002
   19.12555504   -1.00000000    4.90999985    1.00000000
   19.12888908   -1.00000000    4.90999985    1.21000004
   19.13194466   -1.00000000    4.90999985    1.33000004
   19.13527679   -1.00000000    4.90999985    1.26999998
   19.13861084   -1.00000000    4.90999985    1.33000004
   19.14888954   -1.00000000    4.90999985    1.14999998
   19.15194321   -1.00000000    4.90999985    1.07000005
   19.15555573   -1.00000000    4.90999985    1.11000001
   19.15888786   -1.00000000    4.90999985    1.11000001
   19.16222191   -1.00000000    4.90999985    1.03999996
   19.16527748   -1.00000000    4.90999985    1.16999996
   19.16860962   -1.00000000    4.90999985    1.25000000
   19.17194366   -1.00000000    4.90999985    1.25000000
   19.17499924   -1.00000000    4.90999985    1.14999998
   19.17833328   -1.00000000    4.90999985    0.73000002
   19.18138885   -1.00000000    4.90999985    0.50000000
   19.18750000   -1.00000000    4.90999985    1.36000001
   19.19166565   -1.00000000    4.90999985    1.28999996
   19.19499969   -1.00000000    4.90999985    0.98000002
   19.19805527   -1.00000000    4.90999985    0.83999997
   19.20138931   -1.00000000    4.90999985    0.58999997
   19.20472336   -1.00000000    4.90999985    0.67000002
   19.20777893   -1.00000000    4.90999985    0.73000002
   19.21111107   -1.00000000    4.90999985    0.76999998
   19.21444511   -1.00000000    4.90999985    1.05999994
   19.21750069   -1.00000000    4.90999985    0.92000002
   19.22083473   -1.00000000    4.90999985    0.40000001
   19.22416687   -1.00000000    4.90999985    1.63000000
   19.23055649   -1.00000000    4.90999985    1.91999996
   19.23444557   93.23220062    4.90999985    2.13000011
   19.23777771  105.01599884    4.90999985    2.21000004
   19.24111176   89.98850250    4.90999985    2.30999994
   19.24416733   90.34519958    4.90999985    2.32999992
   19.24749947   95.79299927    4.90999985    2.36999989
   19.25083351   84.52159882    4.90999985    2.46000004
   19.25305557   95.36820221    4.90999985    2.42000008
   19.25444412   85.80390167    4.90999985    2.40000010
   19.25749969   95.07119751    4.90999985    2.39000010
   19.26083374   87.50309753    4.90999985    2.34999990
   19.26416588   91.77919769    4.90999985    2.34999990
   19.26722145   96.04160309    4.90999985    2.40000010
   19.27333260   96.04160309    4.90999985    2.30999994
   19.27750015   -1.00000000    4.90999985    1.46000004
   19.28055573  205.06900024    4.90999985    0.75000000
   19.28388786   52.39519882    4.90999985    2.07999992
   19.28638840  102.18199921    4.90999985    1.13000000
   19.28750038  111.15699768    4.90999985    1.66999996
   19.29055595  101.55699921    4.90999985    2.36999989
   19.29388809  104.46900177    4.90999985    2.30999994
   19.29722214   90.75839996    4.90999985    2.26999998
   19.30027771  108.21800232    4.90999985    2.25000000
   19.30360985   92.31590271    4.90999985    2.26999998
   19.30694389  106.86799622    4.90999985    2.28999996
   19.30999947   93.37200165    4.90999985    2.34999990
   19.31611061   93.37200165    4.90999985    2.19000006
   19.32027817  111.09300232    4.90999985    2.09999990
   19.32361221  125.08699799    4.90999985    2.03999996
   19.32666779  141.46200562    4.90999985    1.96000004
   19.33000183  185.14599609    4.90999985    1.85000002
   19.33305550   95.14739990    4.90999985    1.75000000
   19.33638954   -1.00000000    4.90999985    1.75000000
   19.33972359   -1.00000000    4.90999985    1.58000004
   19.34277916   -1.00000000    4.90999985    1.36000001
   19.34611130   -1.00000000    4.90999985    1.30999994
   19.34944534   -1.00000000    4.90999985    1.26999998
   19.35250092   -1.00000000    4.90999985    1.25000000
   19.36305618   -1.00000000    4.90999985    1.01999998
   19.36611176   -1.00000000    4.90999985    1.13000000
   19.36944389   -1.00000000    4.90999985    1.16999996
   19.37277794   -1.00000000    4.90999985    0.79000002
   19.37583351   -1.00000000    4.90999985    0.69000000
   19.37916756   -1.00000000    4.90999985    0.75000000
   19.38249969   -1.00000000    4.90999985    0.94000000
   19.38555527   -1.00000000    4.90999985    0.89999998
   19.38916588   -1.00000000    4.90999985    1.00000000
   19.39222145   -1.00000000    4.90999985    0.86000001
   19.39555550   -1.00000000    4.90999985    1.03999996
   19.40583229   -1.00000000    4.90999985    1.14999998
   19.40916634   -1.00000000    4.90999985    1.39999998
   19.41222191   -1.00000000    4.90999985    1.39999998
   19.41555595  213.21200562    4.90999985    1.39999998
   19.41888809  306.88500977    4.90999985    1.53999996
   19.42083359  264.17401123    4.90999985    1.78999996
   19.42194366  230.82200623    4.90999985    1.85000002
   19.42222214   -1.00000000    4.90999985    1.39999998
   19.42222214  213.21200562    4.90999985    1.39999998
   19.42222214  306.88500977    4.90999985    1.53999996
   19.42249870   -1.00000000    4.90999985    0.89999998
   19.42249870   -1.00000000    4.90999985    1.00000000
   19.42277718   -1.00000000    4.90999985    0.86000001
   19.42277718   -1.00000000    4.90999985    1.03999996
   19.42277718   -1.00000000    4.90999985    1.14999998
   19.42305565   -1.00000000    4.90999985    1.39999998
   19.42416573  256.36599731    4.90999985    1.85000002
   19.42722130   23.57019997    4.90999985    1.80999994
   19.43055534  206.53300476    4.90999985    1.73000002
   19.43361092   -1.00000000   -1.00000000   -1.00000000
   19.43694305   -1.00000000    4.90999985    1.58000004
   19.44277763   -1.00000000    4.90999985    1.51999998
   19.44694328   -1.00000000    4.90999985    1.38000000
   19.45027924   -1.00000000    4.90999985    1.25000000
   19.45361137   -1.00000000    4.90999985    1.09000003
   19.45722389   -1.00000000    4.90999985    1.21000004
   19.46027946   -1.00000000    4.90999985    1.19000006
   19.46361160   -1.00000000    4.90999985    1.19000006
   19.46694565   -1.00000000    4.90999985    1.25000000
   19.47000122   -1.00000000    4.90999985    1.51999998
   19.47333336   -1.00000000    4.90999985    1.58000004
   19.47638893   -1.00000000    4.90999985    1.58000004
   19.47972298   -1.00000000    4.90999985    1.01999998
   19.48972321   -1.00000000    4.90999985    0.17000000
   19.49305534   -1.00000000    4.90999985    0.11000000
   19.49611092   -1.00000000    4.90999985    0.09000000
   19.49944496   -1.00000000    4.90999985    0.09000000
   19.50277710   -1.00000000    4.90999985    0.25000000
   19.50583267  161.66400146    4.90999985    1.80999994
   19.52499962  132.70799255    4.90999985    2.40000010
   19.52916718  132.70799255    4.90999985    0.38000000
   19.53333282  123.07900238    4.90999985    1.98000002
   19.53638840  102.52400208    4.90999985    2.55999994
   19.53972244   97.07029724    4.90999985    2.51999998
   19.54277802   90.11810303    4.90999985    2.50000000
   19.54611015  167.37600708    4.90999985    2.34999990
   19.54944420   -1.00000000    4.90999985    0.28000000
   19.55249977   91.38729858    4.90999985    1.28999996
   19.55583191   23.57019997    4.90999985    2.15000010
   19.55944443   -1.00000000    4.90999985    0.92000002
   19.56250000   -1.00000000    4.90999985    0.23000000
   19.56583214   -1.00000000    4.90999985    0.25000000
   19.57194519   -1.00000000    4.90999985    2.40000010
   19.57611275  102.07599640    4.90999985    2.44000006
   19.57916832   97.01170349    4.90999985    2.48000002
   19.58250046   96.72480011    4.90999985    2.46000004
   19.58583450   96.41760254    4.90999985    2.46000004
   19.58889008   92.21430206    4.90999985    2.44000006
   19.59138870  101.22200012    4.90999985    2.42000008
   19.59250069   88.24060059    4.90999985    2.42000008
   19.59583473  101.11499786    4.90999985    2.40000010
   19.59889030   92.38749695    4.90999985    2.44000006
   19.60222244   90.62229919    4.90999985    2.40000010
   19.60555649   94.71610260    4.90999985    2.39000010
   19.60861206   90.13950348    4.90999985    2.34999990
   19.61472321   90.13950348    4.90999985    2.32999992
   19.61888885   98.02120209    4.90999985    2.30999994
   19.62222290   88.30290222    4.90999985    2.28999996
   19.62472153   96.20010376    4.90999985    2.26999998
   19.62583351  108.77200317    4.90999985    2.23000002
   19.62916756   57.55609894    4.90999985    1.73000002
   19.63222313  100.26799774    4.90999985    1.23000002
   19.63555527   99.18109894    4.90999985    2.05999994
   19.63888931   94.25099945    4.90999985    2.17000008
   19.64194489  128.80499268    4.90999985    2.09999990
   19.64527702  116.18199921    4.90999985    1.94000006
   19.64833260   -1.00000000    4.90999985    1.75000000
   19.65166664   -1.00000000    4.90999985    1.53999996
   19.65749931   -1.00000000    4.90999985    1.46000004
   19.66166687   -1.00000000    4.90999985    1.33000004
   19.66499901   -1.00000000    4.90999985    0.76999998
   19.66805458   -1.00000000    4.90999985    0.50000000
   19.67138863   -1.00000000    4.90999985    0.46000001
   19.67472076   -1.00000000    4.90999985    0.36000001
   19.67777634   -1.00000000    4.90999985    0.23000000
   19.68111038   -1.00000000    4.90999985    0.13000000
   19.68444443   -1.00000000    4.90999985    0.05000000
   19.68750000   -1.00000000    4.90999985    0.07000000
   19.69083214   -1.00000000    4.90999985    0.05000000
   19.69444275   -1.00000000    4.90999985    0.07000000
   19.70444489   -1.00000000    4.90999985    0.09000000
   19.70777893   -1.00000000    4.90999985    0.11000000
   19.71083450   -1.00000000    4.90999985    0.11000000
   19.71416664   -1.00000000    4.90999985    0.19000000
   19.71750069   -1.00000000    4.90999985    0.19000000
   19.72055626   -1.00000000    4.90999985    0.28000000
   19.72389030   -1.00000000    4.90999985    0.95999998
   19.72750092   93.28610229    4.90999985    1.60000002
   19.73083305   -1.00000000    4.90999985    1.71000004
   19.73388863   -1.00000000    4.90999985    1.71000004
   19.73722267   -1.00000000    4.90999985    1.66999996
   19.74333382   -1.00000000    4.90999985    1.58000004
   19.74749947   -1.00000000    4.90999985    0.94000000
   19.75055504   -1.00000000    4.90999985    1.05999994
   19.75388908   -1.00000000    4.90999985    1.61000001
   19.75722313  157.08700562    4.90999985    1.80999994
   19.75944519  162.97799683    4.90999985    2.00000000
   19.76083374  114.29000092    4.90999985    2.00000000
   19.76416588   -1.00000000    4.90999985    1.60000002
   19.76722145   -1.00000000    4.90999985    0.61000001
   19.77055550   -1.00000000    4.90999985    0.41999999
   19.77388954   -1.00000000    4.90999985    0.55000001
   19.77694511   -1.00000000    4.90999985    1.36000001
   19.78027725   -1.00000000    4.90999985    0.56999999
   19.79027748  169.60000610    4.90999985    0.94000000
   19.79277802  241.93499756    4.90999985    1.80999994
   19.79388809  323.62799072    4.90999985    1.88000000
   19.79583359  191.36799622    4.90999985    1.88000000
   19.79611015  114.29000092    4.90999985    2.00000000
   19.79611015   -1.00000000    4.90999985    1.60000002
   19.79611015   -1.00000000    4.90999985    0.61000001
   19.79638863   -1.00000000    4.90999985    0.41999999
   19.79638863   -1.00000000    4.90999985    0.55000001
   19.79638863   -1.00000000    4.90999985    1.36000001
   19.79666710   -1.00000000    4.90999985    0.56999999
   19.79666710  169.60000610    4.90999985    0.94000000
   19.79666710  323.62799072    4.90999985    1.88000000
   19.79861069   -1.00000000    4.90999985    1.85000002
   19.80194283   -1.00000000    4.90999985    1.58000004
   19.80527687  257.23300171    4.90999985    1.76999998
   19.80833244  125.97399902    4.90999985    1.89999998
   19.81166649  253.56399536    4.90999985    1.94000006
   19.81666756  253.56399536    4.90999985    1.86000001
   19.82083511  153.98899841    4.90999985    1.94000006
   19.82416725  129.15400696    4.90999985    2.01999998
   19.82722282  174.17100525    4.90999985    1.91999996
   19.82972336  103.46199799    4.90999985    1.86000001
   19.83083344  122.48899841    4.90999985    1.91999996
   19.83388901  120.30500031    4.90999985    1.89999998
   19.83722305  117.62200165    4.90999985    2.01999998
   19.84055710  151.67799377    4.90999985    1.78999996
   19.84361267   -1.00000000    4.90999985    1.44000006
   19.84694481  162.81100464    4.90999985    0.86000001
   19.85000038   -1.00000000    4.90999985    0.94000000
   19.85333443   -1.00000000    4.90999985    1.23000002
   19.86361122   -1.00000000    4.90999985    0.09000000
   19.86694527   -1.00000000    4.90999985    0.09000000
   19.87000084   -1.00000000    4.90999985    0.13000000
   19.87333298   -1.00000000    4.90999985    0.40000001
   19.87666702   -1.00000000    4.90999985    0.61000001
   19.87972260  132.58399963    4.90999985    1.73000002
   19.88305473   -1.00000000    4.90999985    1.76999998
   19.88638878   -1.00000000    4.90999985    0.75000000
   19.88944435  155.41700745    4.90999985    1.30999994
   19.89277840  116.86799622    4.90999985    2.03999996
   19.89611053  114.73000336    4.90999985    2.15000010
   19.89638901  130.00799561    4.90999985    2.11999989
   19.90250015  130.00799561    4.90999985    2.01999998
   19.90666580  116.07599640    4.90999985    2.11999989
   19.90972137  114.69699860    4.90999985    2.15000010
   19.91305542  132.66600037    4.90999985    2.01999998
   19.91611099  112.00000000    4.90999985    2.03999996
   19.91944313  108.25199890    4.90999985    2.17000008
   19.92277718  107.15499878    4.90999985    2.21000004
   19.92583275   99.84670258    4.90999985    2.23000002
   19.92916679  110.06199646    4.90999985    2.19000006
   19.92972183   96.79759979    4.90999985    2.17000008
   19.93277740   91.89240265    4.90999985    2.17000008
   19.93610954  113.18399811    4.90999985    2.09999990
   19.93916512  119.65899658    4.90999985    2.09999990
   19.94527626  119.65899658    4.90999985    2.01999998
   19.94944382  127.41100311    4.90999985    2.01999998
   19.95250130  131.01499939    4.90999985    1.98000002
   19.95583344  134.51800537    4.90999985    1.91999996
   19.95916748  120.78700256    4.90999985    2.07999992
   19.96222305  150.77400208    4.90999985    2.05999994
   19.96583366   -1.00000000    4.90999985    0.70999998
   19.96888924  212.29699707    4.90999985    0.41999999
   19.97222328  298.25698853    4.90999985    1.94000006
   19.97555542  131.62699890    4.90999985    1.94000006
   19.97861099  119.03700256    4.90999985    2.05999994
   19.98194504  125.65000153    4.90999985    2.15000010
   19.98805618  125.65000153    4.90999985    2.23000002
   19.99222183  109.00700378    4.90999985    2.17000008
   19.99555588  128.06300354    4.90999985    2.07999992
   19.99638939  174.14799500    4.90999985    2.01999998
   19.99916649  188.58500671    4.90999985    1.89999998
   20.00250053  256.01901245    4.90999985    1.83000004
   20.00555611  162.10200500    4.90999985    1.85000002
   20.00888824  134.35899353    4.90999985    1.96000004
   20.01222229  186.71299744    4.90999985    2.09999990
   20.01527786  213.39500427    4.90999985    1.85000002
   20.01861000  150.99899292    4.90999985    1.88000000
   20.02194405  186.55400085    4.90999985    1.89999998
   20.02499962  222.27999878    4.90999985    1.83000004
   20.03083229  222.27999878    4.90999985    1.88000000
   20.03499985  187.17900085    4.90999985    1.94000006
   20.03833199  162.27499390    4.90999985    1.96000004
   20.04166603  144.00799561    4.90999985    1.98000002
   20.04472160  148.14100647    4.90999985    2.21000004
   20.04805565  124.86399841    4.90999985    2.00000000
   20.05138779  106.59899902    4.90999985    2.36999989
   20.05444336   -1.00000000    4.90999985    1.38000000
   20.05777740   -1.00000000    4.90999985    1.28999996
   20.06110954  500.04598999    4.90999985    0.23000000
   20.06305504  110.65499878    4.90999985    1.11000001
   20.06305504  148.14100647    4.90999985    2.21000004
   20.06333351  124.86399841    4.90999985    2.00000000
   20.06333351  106.59899902    4.90999985    2.36999989
   20.06333351   -1.00000000    4.90999985    1.38000000
   20.06361008   -1.00000000    4.90999985    1.28999996
   20.06361008  500.04598999    4.90999985    0.23000000
   20.06361008  187.17900085    4.90999985    1.94000006
   20.06388855  162.27499390    4.90999985    1.96000004
   20.06388855  144.00799561    4.90999985    1.98000002
   20.06583214   99.43509674    4.90999985    2.26999998
   20.06916809  110.94699860    4.90999985    2.28999996
   20.07222366  108.88899994    4.90999985    2.30999994
   20.07555580  116.14099884    4.90999985    2.21000004
   20.07861137  141.86700439    4.90999985    2.01999998
   20.08388901  141.86700439    4.90999985    1.89999998
   20.08805656   -1.00000000    4.90999985    1.85000002
   20.09111214   -1.00000000    4.90999985    1.64999998
   20.09444427   -1.00000000    4.90999985    1.64999998
   20.09805679   -1.00000000    4.90999985    1.86000001
   20.10138893   -1.00000000    4.90999985    1.98000002
   20.10444450   -1.00000000    4.90999985    2.00000000
   20.10777855   -1.00000000    4.90999985    2.00000000
   20.11083412   -1.00000000    4.90999985    2.05999994
   20.11416626   -1.00000000    4.90999985    2.09999990
   20.11750031   -1.00000000    4.90999985    2.01999998
   20.12055588   -1.00000000    4.90999985    2.11999989
   20.13055611   -1.00000000    4.90999985    2.11999989
   20.13388824   -1.00000000    4.90999985    2.13000011
