    HOUR (UT)   FLARE FACTOR    SKY TESTER    SUN TESTER
   11.19138908   -1.00000000   -1.00000000   -1.00000000
   11.22749996   89.55220032    4.90999985    2.57999992
   11.23194408   84.90319824    4.90999985    2.59999990
   11.23527813   84.27459717    4.90999985    2.57999992
   11.23861122   89.27709961    4.90999985    2.59999990
   11.24166679   85.75140381    4.90999985    2.59999990
   11.24499989   83.91590118    4.90999985    2.57999992
   11.24805546   73.68399811    4.90999985    2.59999990
   11.25138855   83.58280182    4.90999985    2.59999990
   11.25444412   84.29599762    4.90999985    2.59999990
   11.25777817   85.30970001    4.90999985    2.59999990
   11.26083374   86.20210266    4.90999985    2.59999990
   11.26138878   87.40720367    4.90999985    2.59999990
   11.26444435   90.94629669    4.90999985    2.59999990
   11.26777744   85.50109863    4.90999985    2.61999989
   11.27083302   83.55100250    4.90999985    2.61999989
   11.27416611   85.37509918    4.90999985    2.59999990
   11.27750015   84.68309784    4.90999985    2.59999990
   11.28055573   87.31030273    4.90999985    2.59999990
   11.28388977   88.24109650    4.90999985    2.59999990
   11.28694534   86.46309662    4.90999985    2.59999990
   11.29027843   88.36000061    4.90999985    2.59999990
   11.29333401   92.88739777    4.90999985    2.59999990
   11.29416752   85.73609924    4.90999985    2.59999990
   11.29722309   88.59799957    4.90999985    2.59999990
   11.30027771   86.33190155    4.90999985    2.61999989
   11.30361176   86.41159821    4.90999985    2.61999989
   11.30666733   87.93859863    4.90999985    2.61999989
   11.31000042   83.97940063    4.90999985    2.59999990
   11.31333351   84.36380005    4.90999985    2.61999989
   11.31638908   85.70300293    4.90999985    2.61999989
   11.31972218   88.56300354    4.90999985    2.61999989
   11.32277775   89.21920013    4.90999985    2.61999989
   11.32611084   87.25800323    4.90999985    2.61999989
   11.32750034   87.93190002    4.90999985    2.61999989
   11.32972240   93.51319885    4.90999985    2.61999989
   11.33277798   91.69899750    4.90999985    2.61999989
   11.33611107   84.49620056    4.90999985    2.61999989
   11.33916664   87.93070221    4.90999985    2.61999989
   11.34249973   84.65750122    4.90999985    2.59999990
   11.34583282   85.88580322    4.90999985    2.61999989
   11.34888840   83.30909729    4.90999985    2.61999989
   11.35222244   87.38829803    4.90999985    2.61999989
   11.35527802   83.22129822    4.90999985    2.61999989
   11.35861111   85.68679810    4.90999985    2.61999989
   11.36083412   94.99169922    4.90999985    2.61999989
   11.36222267   87.11389923    4.90999985    2.61999989
   11.36527824   86.41770172    4.90999985    2.61999989
   11.36861134   87.21710205    4.90999985    2.61999989
   11.37166691   92.95700073    4.90999985    2.64000010
   11.37500000   88.51689911    4.90999985    2.61999989
   11.37833309   92.87129974    4.90999985    2.64000010
   11.38138866   89.15000153    4.90999985    2.61999989
   11.38472176   94.61360168    4.90999985    2.64000010
   11.38777733   90.61660004    4.90999985    2.61999989
   11.39111137   89.99759674    4.90999985    2.61999989
   11.39416695   85.80460358    4.90999985    2.64000010
   11.39472198   97.11879730    4.90999985    2.64000010
   11.39777756   89.73639679    4.90999985    2.64000010
   11.40111065   89.54270172    4.90999985    2.64000010
   11.40416622   89.14279938    4.90999985    2.64000010
   11.40749931   90.29329681    4.90999985    2.64000010
   11.41083336   96.52159882    4.90999985    2.64000010
   11.41388893   91.74479675    4.90999985    2.64000010
   11.41722298   92.78299713    4.90999985    2.64000010
   11.42055607   93.30100250    4.90999985    2.64000010
   11.42388916   91.41030121    4.90999985    2.64000010
   11.42722225   89.41300201    4.90999985    2.64000010
   11.42777824   93.55290222    4.90999985    2.64000010
   11.43055630   94.00099945    4.90999985    2.64000010
   11.43388939   84.27559662    4.90999985    2.66000009
   11.43722248   99.85669708    4.90999985    2.66000009
   11.44027805   96.38449860    4.90999985    2.66000009
   11.44361115   88.44439697    4.90999985    2.64000010
   11.44666672   80.44619751    4.90999985    2.64000010
   11.44999981   83.61109924    4.90999985    2.64000010
   11.45305538   95.02469635    4.90999985    2.64000010
   11.45638847   95.46829987    4.90999985    2.66000009
   11.45972157   93.04460144    4.90999985    2.64000010
   11.46111107   81.88069916    4.90999985    2.66000009
   11.46333313   99.85030365    4.90999985    2.66000009
   11.46666622   97.49150085    4.90999985    2.66000009
   11.46972179   90.92289734    4.90999985    2.66000009
   11.47305489   94.89089966    4.90999985    2.66000009
   11.47611046   95.21430206    4.90999985    2.66000009
   11.47944355   91.19229889    4.90999985    2.66000009
   11.48277760   92.87370300    4.90999985    2.66000009
   11.48583317   99.41030121    4.90999985    2.66000009
   11.48916721   98.24120331    4.90999985    2.66000009
   11.49222279   92.83889771    4.90999985    2.66000009
   11.49444485   97.96559906    4.90999985    2.66000009
   11.49583340   98.32920074    4.90999985    2.66000009
   11.49916649   96.24120331    4.90999985    2.66000009
   11.50222206   95.55960083    4.90999985    2.66000009
   11.50555515   96.31379700    4.90999985    2.66000009
   11.50861073  100.83000183    4.90999985    2.66000009
   11.51194477   96.78869629    4.90999985    2.66000009
   11.51527786  102.15499878    4.90999985    2.67000008
   11.51833344  101.82599640    4.90999985    2.67000008
   11.52166653  105.84700012    4.90999985    2.66000009
   11.52472210  101.60399628    4.90999985    2.66000009
   11.52777767   96.96839905    4.90999985    2.67000008
   11.52833271   93.23789978    4.90999985    2.67000008
   11.53166676   97.81649780    4.90999985    2.67000008
   11.53472233  103.29000092    4.90999985    2.66000009
   11.53805637   91.69480133    4.90999985    2.66000009
   11.54138947   94.07389832    4.90999985    2.67000008
   11.54444504  103.70600128    4.90999985    2.67000008
   11.54777813  115.75499725    4.90999985    2.67000008
   11.55083370  108.91200256    4.90999985    2.67000008
   11.55416679   98.35479736    4.90999985    2.67000008
   11.55722237   96.16049957    4.90999985    2.66000009
   11.56055546   98.39160156    4.90999985    2.67000008
   11.56111145   99.97599792    4.90999985    2.67000008
   11.56388950   99.24700165    4.90999985    2.69000006
   11.56722260   96.89790344    4.90999985    2.67000008
   11.57055569   95.25800323    4.90999985    2.67000008
   11.57361126   91.27600098    4.90999985    2.67000008
   11.57694435   96.32289886    4.90999985    2.69000006
   11.57999992   96.47480011    4.90999985    2.67000008
   11.58333302   93.18250275    4.90999985    2.67000008
   11.58638859   92.76860046    4.90999985    2.69000006
   11.58972168  104.19300079    4.90999985    2.67000008
   11.59305477  116.48500061    4.90999985    2.67000008
   11.59444427  101.43000031    4.90999985    2.67000008
   11.59638882  108.97699738    4.90999985    2.69000006
   11.59972191  113.57199860    4.90999985    2.67000008
   11.60305595  104.61000061    4.90999985    2.69000006
   11.60611153   96.39959717    4.90999985    2.69000006
   11.60944462  102.47899628    4.90999985    2.69000006
   11.61250019  104.32299805    4.90999985    2.67000008
   11.61583328  103.55000305    4.90999985    2.69000006
   11.61888885   92.90820313    4.90999985    2.69000006
   11.62222195  109.39499664    4.90999985    2.69000006
   11.62555599   98.85199738    4.90999985    2.69000006
   11.62777805   93.33670044    4.90999985    2.69000006
   11.62888908   99.66359711    4.90999985    2.69000006
   11.63222218   94.57039642    4.90999985    2.69000006
   11.63555527   86.81069946    4.90999985    2.69000006
   11.63861084  111.12799835    4.90999985    2.69000006
   11.64194393  100.36000061    4.90999985    2.69000006
   11.64499950  105.35900116    4.90999985    2.69000006
   11.64833355  105.08300018    4.90999985    2.69000006
   11.65138817   98.79640198    4.90999985    2.69000006
   11.65472221   96.94599915    4.90999985    2.69000006
   11.65777779   96.62429810    4.90999985    2.69000006
   11.66111088  102.41799927    4.90999985    2.69000006
   11.66138840  105.20700073    4.90999985    2.69000006
   11.66472149  106.45899963    4.90999985    2.69000006
   11.66805553   89.51920319    4.90999985    2.69000006
   11.67111111   99.78690338    4.90999985    2.69000006
   11.67444515  105.81999969    4.90999985    2.71000004
   11.67750072  102.86299896    4.90999985    2.71000004
   11.68083382   98.95919800    4.90999985    2.69000006
   11.68388939   90.27719879    4.90999985    2.69000006
   11.68722248   86.31410217    4.90999985    2.71000004
   11.69055557   86.92269897    4.90999985    2.69000006
   11.69361115  104.15000153    4.90999985    2.71000004
   11.69444466  101.83000183    4.90999985    2.71000004
   11.69750023   90.89170074    4.90999985    2.71000004
   11.70055580   94.67230225    4.90999985    2.69000006
   11.70388889   89.12550354    4.90999985    2.71000004
   11.70694447   87.85089874    4.90999985    2.71000004
   11.71027756   91.11959839    4.90999985    2.71000004
   11.71333313   84.33229828    4.90999985    2.69000006
   11.71666622   91.04879761    4.90999985    2.71000004
   11.71972179   92.27829742    4.90999985    2.71000004
   11.72305489   95.28880310    4.90999985    2.71000004
   11.72638798   96.94180298    4.90999985    2.71000004
   11.72777748   91.18150330    4.90999985    2.71000004
   11.72999954  103.85199738    4.90999985    2.71000004
   11.73305511   94.76840210    4.90999985    2.71000004
   11.73638916   93.44110107    4.90999985    2.71000004
   11.73944473   91.09439850    4.90999985    2.71000004
   11.74277782   87.00420380    4.90999985    2.71000004
   11.74583340   82.90429688    4.90999985    2.71000004
   11.74916649  104.73600006    4.90999985    2.71000004
   11.75222206   88.40519714    4.90999985    2.71000004
   11.75555515   93.50849915    4.90999985    2.71000004
   11.75888920   93.88490295    4.90999985    2.71000004
   11.76111126   75.31179810    4.90999985    2.71000004
   11.76249981   88.44930267    4.90999985    2.71000004
   11.76555538   87.34059906    4.90999985    2.71000004
   11.76888847   95.96080017    4.90999985    2.71000004
   11.77194405   98.49490356    4.90999985    2.71000004
   11.77527714   89.95909882    4.90999985    2.71000004
   11.77833271   83.76190186    4.90999985    2.71000004
   11.78166676   88.00630188    4.90999985    2.73000002
   11.78500080   90.93930054    4.90999985    2.71000004
   11.78805637   90.21299744    4.90999985    2.71000004
   11.79138947   96.11000061    4.90999985    2.71000004
   11.79444504   90.21530151    4.90999985    2.71000004
   11.79500008   91.19879913    4.90999985    2.71000004
   11.79805565   83.33419800    4.90999985    2.71000004
   11.80138874   89.47419739    4.90999985    2.71000004
   11.80444431   97.40419769    4.90999985    2.71000004
   11.80777836   92.40779877    4.90999985    2.71000004
   11.81083393   88.39389801    4.90999985    2.71000004
   11.81416702   92.80789948    4.90999985    2.71000004
   11.81722260   91.43959808    4.90999985    2.71000004
   11.82055569   97.96170044    4.90999985    2.71000004
   11.82388878   91.59259796    4.90999985    2.71000004
   11.82694435   95.77770233    4.90999985    2.73000002
   11.82777786   94.81109619    4.90999985    2.73000002
   11.83083344   92.64489746    4.90999985    2.73000002
   11.83388901   85.70960236    4.90999985    2.73000002
   11.83722210   83.51180267    4.90999985    2.73000002
   11.84027767   82.88590240    4.90999985    2.71000004
   11.84361076   90.01609802    4.90999985    2.71000004
   11.84666634   84.59110260    4.90999985    2.71000004
   11.85000038   91.00720215    4.90999985    2.73000002
   11.85305595   86.25650024    4.90999985    2.73000002
   11.85638905   92.33879852    4.90999985    2.73000002
   11.85972214  102.29699707    4.90999985    2.75000000
   11.86111164   97.47329712    4.90999985    2.75000000
   11.86333370   95.76270294    4.90999985    2.75000000
   11.86638927   94.87680054    4.90999985    2.73000002
   11.86972237  100.08200073    4.90999985    2.73000002
   11.87277794   83.44149780    4.90999985    2.73000002
   11.87611103   92.20919800    4.90999985    2.73000002
   11.87916660   89.58360291    4.90999985    2.73000002
   11.88249969   88.06639862    4.90999985    2.73000002
   11.88583279   88.56289673    4.90999985    2.73000002
   11.88888836   90.92070007    4.90999985    2.73000002
   11.89222240   86.38719940    4.90999985    2.73000002
   11.89444447   92.45619965    4.90999985    2.73000002
   11.89583302   91.88300323    4.90999985    2.75000000
   11.89888859   91.14109802    4.90999985    2.73000002
   11.90222168   91.42759705    4.90999985    2.75000000
   11.90527725  100.20899963    4.90999985    2.75000000
   11.90861034   96.26589966    4.90999985    2.73000002
   11.91166592   96.82749939    4.90999985    2.73000002
   11.91499996   91.71430206    4.90999985    2.75000000
   11.91833401  101.04599762    4.90999985    2.75000000
   11.92138958   82.33789825    4.90999985    2.75000000
   11.92472267   85.00579834    4.90999985    2.75000000
   11.92777824   92.76580048    4.90999985    2.75000000
   11.92833328   95.98870087    4.90999985    2.75000000
   11.93138885   88.28849792    4.90999985    2.75000000
   11.93472195   90.39559937    4.90999985    2.75000000
   11.93777752   92.69309998    4.90999985    2.75000000
   11.94111156   87.87239838    4.90999985    2.73000002
   11.94416714   95.89859772    4.90999985    2.75000000
   11.94750023   90.29920197    4.90999985    2.73000002
   11.95083332   88.45240021    4.90999985    2.75000000
   11.95388889   82.94290161    4.90999985    2.75000000
   11.95722198   93.03350067    4.90999985    2.75000000
   11.96027756   83.92030334    4.90999985    2.75000000
   11.96111107   91.74410248    4.90999985    2.73000002
   11.96416664   86.86650085    4.90999985    2.75000000
   11.96722221   93.38929749    4.90999985    2.75000000
   11.97055531   88.83110046    4.90999985    2.75000000
   11.97361088   88.08979797    4.90999985    2.73000002
   11.97694397   95.40039825    4.90999985    2.75000000
   11.97999954   88.17600250    4.90999985    2.75000000
   11.98333359   82.04799652    4.90999985    2.75000000
   11.98666668   85.83419800    4.90999985    2.75000000
   11.98972225   82.63449860    4.90999985    2.75000000
   11.99305534   90.79250336    4.90999985    2.75000000
   11.99444485   85.68280029    4.90999985    2.75000000
   11.99666691   87.88130188    4.90999985    2.76999998
   11.99972248   82.07389832    4.90999985    2.75000000
   12.00305557   92.64399719    4.90999985    2.75000000
   12.00611115   91.69629669    4.90999985    2.75000000
   12.00944424   86.53369904    4.90999985    2.75000000
   12.01249981   89.76439667    4.90999985    2.75000000
   12.01583290   98.20929718    4.90999985    2.75000000
   12.01916599   88.22000122    4.90999985    2.75000000
   12.02222157   83.76419830    4.90999985    2.75000000
   12.02555561   90.28240204    4.90999985    2.75000000
   12.02777767   89.73629761    4.90999985    2.75000000
   12.02916622   90.87830353    4.90999985    2.75000000
   12.03222179   87.30799866    4.90999985    2.75000000
   12.03555584   81.82440186    4.90999985    2.75000000
   12.03861141   88.56590271    4.90999985    2.75000000
   12.04194450   89.63870239    4.90999985    2.76999998
   12.04527855   88.18689728    4.90999985    2.75000000
   12.04833412   87.61129761    4.90999985    2.76999998
   12.05166721   88.92479706    4.90999985    2.75000000
   12.05472279   85.31900024    4.90999985    2.75000000
   12.05805588   79.15429688    4.90999985    2.75000000
   12.06111145   89.27439880    4.90999985    2.75000000
   12.06166649   87.86849976    4.90999985    2.76999998
   12.06472206   83.79350281    4.90999985    2.76999998
   12.06805515   90.78579712    4.90999985    2.76999998
   12.07111073   84.46279907    4.90999985    2.76999998
   12.07444477   91.94180298    4.90999985    2.75000000
   12.07750034   90.97869873    4.90999985    2.76999998
   12.08083344   85.86589813    4.90999985    2.75000000
   12.08416653   91.12449646    4.90999985    2.76999998
   12.08722210   90.22440338    4.90999985    2.76999998
   12.09055519   92.42590332    4.90999985    2.76999998
   12.09361076   92.08170319    4.90999985    2.76999998
   12.09444427   86.54959869    4.90999985    2.76999998
   12.09749985  101.53800201    4.90999985    2.75000000
   12.10055637   88.31140137    4.90999985    2.75000000
   12.10388947   88.94259644    4.90999985    2.75000000
   12.10694504   86.74050140    4.90999985    2.75000000
   12.11027813   92.36239624    4.90999985    2.78999996
   12.11333370   92.28140259    4.90999985    2.75000000
   12.11666679   93.22380066    4.90999985    2.75000000
   12.11999989   88.28710175    4.90999985    2.76999998
   12.12305546   88.14939880    4.90999985    2.75000000
   12.12638855   93.06849670    4.90999985    2.76999998
   12.12777805   89.73079681    4.90999985    2.76999998
   12.13000011   85.30950165    4.90999985    2.76999998
   12.13305569   85.89610291    4.90999985    2.76999998
   12.13638878   92.66300201    4.90999985    2.76999998
   12.13944435   91.53610229    4.90999985    2.78999996
   12.14277744   89.67780304    4.90999985    2.78999996
   12.14583302   90.91609955    4.90999985    2.76999998
   12.14916611   87.67479706    4.90999985    2.76999998
   12.15249920   90.13919830    4.90999985    2.76999998
   12.15555477   88.18879700    4.90999985    2.76999998
   12.15888882   95.35690308    4.90999985    2.76999998
   12.16111088   88.04660034    4.90999985    2.76999998
   12.16249943   80.02870178    4.90999985    2.76999998
   12.16555500   90.15070343    4.90999985    2.78999996
   12.16888905   85.50900269    4.90999985    2.76999998
   12.17194462   88.49220276    4.90999985    2.76999998
   12.17527771   80.64009857    4.90999985    2.78999996
   12.17861176   81.61150360    4.90999985    2.78999996
   12.18166733   86.35019684    4.90999985    2.78999996
   12.18500042   80.80359650    4.90999985    2.76999998
   12.18805599   84.99669647    4.90999985    2.75000000
   12.19138908   87.10749817    4.90999985    2.78999996
   12.19444466   80.63469696    4.90999985    2.76999998
   12.19499969   87.80870056    4.90999985    2.76999998
   12.19805527   80.46600342    4.90999985    2.78999996
   12.20138836   85.42929840    4.90999985    2.76999998
   12.20444393   86.67150116    4.90999985    2.76999998
   12.20777798   87.02989960    4.90999985    2.78999996
   12.21111107   95.54010010    4.90999985    2.78999996
   12.21416664   95.08390045    4.90999985    2.78999996
   12.21749973   92.93869781    4.90999985    2.76999998
   12.22055531   84.98609924    4.90999985    2.76999998
   12.22388840   92.40260315    4.90999985    2.78999996
   12.22694397   91.51789856    4.90999985    2.78999996
   12.24416733   94.25150299    4.90999985    2.78999996
   12.24694443   87.12539673    4.90999985    2.78999996
   12.25000000   92.73249817    4.90999985    2.76999998
   12.25333309   84.01989746    4.90999985    2.78999996
   12.25666714   91.82980347    4.90999985    2.78999996
   12.25972176   90.66190338    4.90999985    2.78999996
   12.26305580   94.19000244    4.90999985    2.78999996
   12.26611137   91.51249695    4.90999985    2.78999996
   12.26944447   88.70110321    4.90999985    2.78999996
   12.27250004   91.87689972    4.90999985    2.80999994
   12.27583313   89.40380096    4.90999985    2.78999996
   12.27750015   89.18609619    4.90999985    2.78999996
   12.27944374   87.70899963    4.90999985    2.80999994
   12.28277779   89.83959961    4.90999985    2.78999996
   12.28611183   87.97309875    4.90999985    2.78999996
   12.28916740   97.87619781    4.90999985    2.78999996
   12.29250050   87.98239899    4.90999985    2.78999996
   12.29555607   93.59970093    4.90999985    2.78999996
   12.29888916   87.90859985    4.90999985    2.78999996
   12.30194473   89.16809845    4.90999985    2.80999994
   12.30527782   83.99510193    4.90999985    2.78999996
   12.30861092   87.97850037    4.90999985    2.78999996
   12.31083393   88.03780365    4.90999985    2.78999996
   12.31194496   90.56629944    4.90999985    2.80999994
   12.31527805   85.08809662    4.90999985    2.78999996
   12.31861115   83.59269714    4.90999985    2.78999996
   12.32166672   88.63569641    4.90999985    2.80999994
   12.32499981   88.28469849    4.90999985    2.80999994
   12.32805538   83.33339691    4.90999985    2.80999994
   12.33138847   84.58940125    4.90999985    2.80999994
   12.33444405   88.58360291    4.90999985    2.80999994
   12.33777714   89.42160034    4.90999985    2.80999994
   12.34111118   80.62120056    4.90999985    2.78999996
   12.34416676   87.89209747    4.90999985    2.82999992
   12.34472179   81.97090149    4.90999985    2.80999994
   12.34777737   89.69799805    4.90999985    2.80999994
   12.35222244   88.25569916    4.90999985    2.78999996
   12.35527802   89.12190247    4.90999985    2.78999996
   12.35861111   88.77760315    4.90999985    2.80999994
   12.36166668   83.68779755    4.90999985    2.80999994
   12.36500072   73.93849945    4.90999985    2.80999994
   12.36805534   83.02100372    4.90999985    2.80999994
   12.37138939   86.92209625    4.90999985    2.78999996
   12.37472248   86.36260223    4.90999985    2.80999994
   12.37750053   85.46710205    4.90999985    2.80999994
   12.37833309   87.23120117    4.90999985    2.80999994
   12.38138866   86.12079620    4.90999985    2.80999994
   12.38472176   83.11129761    4.90999985    2.80999994
   12.38777733   92.29959869    4.90999985    2.80999994
   12.39111137   84.85649872    4.90999985    2.78999996
   12.39444447   86.93360138    4.90999985    2.78999996
   12.39750004   92.57540131    4.90999985    2.80999994
   12.40083313   89.28980255    4.90999985    2.80999994
   12.40388870   88.40380096    4.90999985    2.80999994
   12.40722179   88.90679932    4.90999985    2.80999994
   12.41027737   88.45870209    4.90999985    2.80999994
   12.41083336   87.78309631    4.90999985    2.80999994
   12.41388893   85.46459961    4.90999985    2.82999992
   12.41694450   86.07319641    4.90999985    2.82999992
   12.42027855   85.43070221    4.90999985    2.80999994
   12.42361164   79.64700317    4.90999985    2.80999994
   12.42666721   87.39350128    4.90999985    2.80999994
   12.43000031   90.76360321    4.90999985    2.80999994
   12.43305588   95.30329895    4.90999985    2.80999994
   12.43638897   90.88539886    4.90999985    2.80999994
   12.43944454   94.35739899    4.90999985    2.80999994
   12.44277763   89.86430359    4.90999985    2.80999994
   12.44416714   85.53639984    4.90999985    2.82999992
   12.44638920   86.72100067    4.90999985    2.80999994
   12.44944477   85.33350372    4.90999985    2.80999994
   12.45277786   86.89759827    4.90999985    2.82999992
   12.45611095   93.38980103    4.90999985    2.80999994
   12.45916653   90.11849976    4.90999985    2.82999992
   12.46249962   87.84059906    4.90999985    2.82999992
   12.46555519   90.09989929    4.90999985    2.82999992
   12.46888828   84.84809875    4.90999985    2.80999994
   12.47194386   84.18129730    4.90999985    2.80999994
   12.47527695   86.96250153    4.90999985    2.80999994
   12.47749996   91.17299652    4.90999985    2.80999994
   12.47888851   82.75930023    4.90999985    2.82999992
   12.48222160   87.60230255    4.90999985    2.82999992
   12.48527813   84.12930298    4.90999985    2.80999994
   12.48861122   85.40560150    4.90999985    2.82999992
   12.49166679   78.28890228    4.90999985    2.82999992
   12.49499989   85.78929901    4.90999985    2.82999992
   12.49805546   81.99600220    4.90999985    2.80999994
   12.50138855   81.28250122    4.90999985    2.80999994
   12.50444412   83.32900238    4.90999985    2.80999994
   12.50777817   82.46749878    4.90999985    2.82999992
   12.51083374   88.09120178    4.90999985    2.82999992
   12.51138878   81.94529724    4.90999985    2.82999992
   12.51444435   82.43460083    4.90999985    2.80999994
   12.51777744   85.14389801    4.90999985    2.82999992
   12.52111053   87.47589874    4.90999985    2.82999992
   12.52416611   87.47850037    4.90999985    2.82999992
   12.52750015   83.39289856    4.90999985    2.82999992
   12.53055573   79.53170013    4.90999985    2.80999994
   12.53388977   79.35669708    4.90999985    2.82999992
   12.53694534   91.74610138    4.90999985    2.82999992
   12.54027843   82.83869934    4.90999985    2.82999992
   12.54361153   79.33560181    4.90999985    2.80999994
   12.54416752   81.70649719    4.90999985    2.80999994
   12.54722309   95.61039734    4.90999985    2.82999992
   12.55055618   85.57160187    4.90999985    2.82999992
   12.55361176   91.00720215    4.90999985    2.80999994
   12.55694485   88.17259979    4.90999985    2.82999992
   12.56000042   83.17189789    4.90999985    2.80999994
   12.56333351   82.64099884    4.90999985    2.82999992
   12.56638908   79.97370148    4.90999985    2.82999992
   12.56972218   84.13549805    4.90999985    2.80999994
   12.57277775   81.57479858    4.90999985    2.82999992
   12.57611084   83.28829956    4.90999985    2.82999992
   12.57750034   85.04389954    4.90999985    2.82999992
   12.57972240   81.82969666    4.90999985    2.82999992
   12.58305550   84.39099884    4.90999985    2.80999994
   12.58611107   82.73919678    4.90999985    2.84999990
   12.58944416   82.90740204    4.90999985    2.82999992
   12.59249973   87.08580017    4.90999985    2.82999992
   12.59583282   86.60330200    4.90999985    2.82999992
   12.59888840   86.66220093    4.90999985    2.84999990
   12.60222244   86.32659912    4.90999985    2.82999992
   12.60527802   87.29499817    4.90999985    2.82999992
   12.60861111   82.01560211    4.90999985    2.82999992
   12.61083412   84.62519836    4.90999985    2.82999992
   12.61222267   83.16809845    4.90999985    2.82999992
   12.61555576   90.68229675    4.90999985    2.82999992
   12.61861134   90.02320099    4.90999985    2.84999990
   12.62194443   85.79759979    4.90999985    2.82999992
   12.62500000   82.72080231    4.90999985    2.84999990
   12.62833309   88.20099640    4.90999985    2.84999990
   12.63138866   80.79750061    4.90999985    2.82999992
   12.63472176   83.12259674    4.90999985    2.84999990
   12.63777733   92.06639862    4.90999985    2.84999990
   12.64111137   90.82679749    4.90999985    2.82999992
   12.64416695   88.97290039    4.90999985    2.84999990
   12.64472198   88.41259766    4.90999985    2.84999990
   12.64805508   87.20059967    4.90999985    2.82999992
   12.65111065   84.79229736    4.90999985    2.82999992
   12.65444374   81.73999786    4.90999985    2.82999992
   12.65749931   83.37110138    4.90999985    2.82999992
   12.66083336   88.65039825    4.90999985    2.82999992
   12.66388893   82.64880371    4.90999985    2.84999990
   12.66722298   83.13680267    4.90999985    2.82999992
   12.67055607   87.64450073    4.90999985    2.84999990
   12.67361164   88.59329987    4.90999985    2.82999992
   12.67694473   83.57820129    4.90999985    2.84999990
   12.67750072   84.13659668    4.90999985    2.82999992
   12.68055630   80.74590302    4.90999985    2.84999990
   12.68388939   81.30850220    4.90999985    2.82999992
   12.68694496   95.54689789    4.90999985    2.84999990
   12.69027805   85.13559723    4.90999985    2.82999992
   12.69333363   86.69190216    4.90999985    2.82999992
   12.69666672   82.24030304    4.90999985    2.82999992
   12.69972229   79.28399658    4.90999985    2.84999990
   12.70305538   92.16619873    4.90999985    2.84999990
   12.70638847   88.22930145    4.90999985    2.84999990
   12.70944405   87.32219696    4.90999985    2.84999990
   12.71083355   88.05180359    4.90999985    2.84999990
   12.71305561   85.53189850    4.90999985    2.84999990
   12.71638870   82.59649658    4.90999985    2.84999990
   12.71944427   87.40989685    4.90999985    2.84999990
   12.72277737   85.24780273    4.90999985    2.84999990
   12.72583294   81.38839722    4.90999985    2.82999992
   12.72916603   85.26439667    4.90999985    2.84999990
   12.73222160   82.88480377    4.90999985    2.86999989
   12.73555565   84.71320343    4.90999985    2.84999990
   12.73888874   87.21109772    4.90999985    2.84999990
   12.74194431   88.39830017    4.90999985    2.84999990
   12.74416733   85.77380371    4.90999985    2.84999990
   12.74555588   83.34059906    4.90999985    2.84999990
   12.74888897   93.08260345    4.90999985    2.84999990
   12.75194454   85.17559814    4.90999985    2.84999990
   12.75527763   94.16030121    4.90999985    2.84999990
   12.75833321   81.64559937    4.90999985    2.82999992
   12.76166630   82.43520355    4.90999985    2.84999990
   12.76472187   80.45459747    4.90999985    2.86999989
   12.76805496   84.07270050    4.90999985    2.82999992
   12.77138901   86.14109802    4.90999985    2.84999990
   12.77444458   85.83000183    4.90999985    2.84999990
   12.77750015   83.05629730    4.90999985    2.84999990
   12.77805519   83.29100037    4.90999985    2.84999990
   12.78138828   86.90609741    4.90999985    2.84999990
   12.78444481   87.59439850    4.90999985    2.84999990
   12.78777790   87.94539642    4.90999985    2.86999989
   12.79083347   79.49770355    4.90999985    2.86999989
   12.79416752   85.49939728    4.90999985    2.84999990
   12.79722309   77.85530090    4.90999985    2.84999990
   12.80055618   89.89980316    4.90999985    2.84999990
   12.80388927   74.01049805    4.90999985    2.86999989
   12.80694485   81.50839996    4.90999985    2.86999989
   12.81027794   83.06400299    4.90999985    2.86999989
   12.81083393   91.99060059    4.90999985    2.84999990
   12.81388950   85.38580322    4.90999985    2.84999990
   12.81722260   93.61329651    4.90999985    2.84999990
   12.82027817   80.08769989    4.90999985    2.84999990
   12.82361126   83.48380280    4.90999985    2.84999990
   12.82666683   87.23590088    4.90999985    2.84999990
   12.82999992   78.65059662    4.90999985    2.84999990
   12.83305550   94.26239777    4.90999985    2.84999990
   12.83638859   75.91410065    4.90999985    2.84999990
   12.83972168   87.49710083    4.90999985    2.86999989
   12.84277725   85.68080139    4.90999985    2.86999989
   12.84416676   90.48809814    4.90999985    2.84999990
   12.84638882   91.15270233    4.90999985    2.84999990
   12.84972191   87.56950378    4.90999985    2.84999990
   12.85277843   85.83820343    4.90999985    2.84999990
   12.85611153   82.55930328    4.90999985    2.84999990
   12.85916710   86.87090302    4.90999985    2.86999989
   12.86250019   91.02059937    4.90999985    2.84999990
   12.86555576   89.14080048    4.90999985    2.84999990
   12.86888885   88.94589996    4.90999985    2.86999989
   12.87222195   90.83399963    4.90999985    2.86999989
   12.87527752   90.13230133    4.90999985    2.86999989
   12.87750053   87.50820160    4.90999985    2.84999990
   12.87888908   85.48049927    4.90999985    2.86999989
   12.88222218   90.55480194    4.90999985    2.86999989
   12.88527775   86.27330017    4.90999985    2.84999990
   12.88861084   87.21130371    4.90999985    2.86999989
   12.89166641   93.66300201    4.90999985    2.86999989
   12.89499950   97.77919769    4.90999985    2.82999992
   12.89833355   84.14060211    4.90999985    2.86999989
   12.90138817   91.89479828    4.90999985    2.84999990
   12.90472221   80.40080261    4.90999985    2.84999990
   12.90777779   81.30010223    4.90999985    2.86999989
   12.91111088   73.32170105    4.90999985    2.84999990
   12.91138840   81.19059753    4.90999985    2.84999990
   12.91472149   85.17759705    4.90999985    2.86999989
   12.91777802   89.28639984    4.90999985    2.84999990
   12.92111111   90.10990143    4.90999985    2.86999989
   12.92416668   89.51110077    4.90999985    2.84999990
   12.92750072   84.16210175    4.90999985    2.84999990
   12.93083382   84.95909882    4.90999985    2.86999989
   12.93388939   81.52010345    4.90999985    2.86999989
   12.93722248   82.69020081    4.90999985    2.86999989
   12.94027805   84.04350281    4.90999985    2.84999990
   12.94361115   87.59580231    4.90999985    2.86999989
   12.94444466   90.33509827    4.90999985    2.86999989
   12.94722271   82.17009735    4.90999985    2.86999989
   12.95055580   84.54419708    4.90999985    2.86999989
   12.95361137   85.73960114    4.90999985    2.84999990
   12.95694447   79.97399902    4.90999985    2.86999989
   12.96000004   88.21659851    4.90999985    2.86999989
   12.96333313   82.32990265    4.90999985    2.86999989
   12.96638870   86.04419708    4.90999985    2.84999990
   12.96972179   88.22910309    4.90999985    2.86999989
   12.97305489   89.70149994    4.90999985    2.86999989
   12.97611046   85.15170288    4.90999985    2.86999989
   12.97777748   73.81259918    4.90999985    2.86999989
   12.97972202   89.00830078    4.90999985    2.86999989
   12.98305511   83.90480042    4.90999985    2.86999989
   12.98611164   87.94349670    4.90999985    2.86999989
   12.98944473   90.94229889    4.90999985    2.86999989
   12.99250031   88.84539795    4.90999985    2.84999990
   12.99583340   93.94409943    4.90999985    2.86999989
   12.99888897   89.69159698    4.90999985    2.86999989
   13.00222206   96.77670288    4.90999985    2.84999990
   13.00555515   91.23320007    4.90999985    2.86999989
   13.00861073   87.69779968    4.90999985    2.86999989
   13.01111126   81.00550079    4.90999985    2.86999989
   13.01222229   97.71219635    4.90999985    2.86999989
   13.01555538   82.52690125    4.90999985    2.89000010
   13.01861095   86.62689972    4.90999985    2.86999989
   13.02194405   85.11039734    4.90999985    2.86999989
   13.02499962   88.44789886    4.90999985    2.86999989
   13.02833271   93.64150238    4.90999985    2.86999989
   13.03138828   84.65350342    4.90999985    2.86999989
   13.03472233   88.93470001    4.90999985    2.86999989
   13.03805637   80.27600098    4.90999985    2.86999989
   13.04111195   85.89900208    4.90999985    2.86999989
   13.04444504   82.57299805    4.90999985    2.86999989
   13.04472256   80.94069672    4.90999985    2.86999989
   13.04805565   79.66329956    4.90999985    2.89000010
   13.05111122   82.30960083    4.90999985    2.86999989
   13.05444431   91.57029724    4.90999985    2.86999989
   13.05749989   83.36530304    4.90999985    2.86999989
   13.06083393   85.57389832    4.90999985    2.86999989
   13.06416702   79.04019928    4.90999985    2.86999989
   13.06722260   78.23539734    4.90999985    2.89000010
   13.07055569   85.55310059    4.90999985    2.86999989
   13.07361126   85.38169861    4.90999985    2.86999989
   13.07694435   84.20379639    4.90999985    2.86999989
   13.07777786   81.52919769    4.90999985    2.86999989
   13.08055592   77.57499695    4.90999985    2.86999989
   13.08388901   82.89689636    4.90999985    2.86999989
   13.08694458   89.41690063    4.90999985    2.86999989
   13.09027767   84.16960144    4.90999985    2.86999989
   13.09333324   79.48600006    4.90999985    2.86999989
   13.09666634   87.64289856    4.90999985    2.86999989
   13.10000038   92.96099854    4.90999985    2.86999989
   13.10305595   96.50279999    4.90999985    2.86999989
   13.10638905   87.11280060    4.90999985    2.86999989
   13.10944462   87.07250214    4.90999985    2.86999989
   13.11111164   85.05960083    4.90999985    2.86999989
   13.11305618   83.02690125    4.90999985    2.86999989
   13.11638927   94.34420013    4.90999985    2.86999989
   13.11944485   80.70369720    4.90999985    2.89000010
   13.12277794   80.29589844    4.90999985    2.86999989
   13.12583351   81.80419922    4.90999985    2.86999989
   13.12916660   77.39309692    4.90999985    2.86999989
   13.13249969   76.54930115    4.90999985    2.86999989
   13.13555527   82.31349945    4.90999985    2.86999989
   13.13888836   85.21499634    4.90999985    2.89000010
   13.14194393   81.67040253    4.90999985    2.86999989
   13.14444447   86.85749817    4.90999985    2.86999989
   13.14555550   84.09570313    4.90999985    2.86999989
   13.14888859   87.88169861    4.90999985    2.86999989
   13.15194416   84.04969788    4.90999985    2.89000010
   13.15527725   84.47720337    4.90999985    2.86999989
   13.15833282   90.95510101    4.90999985    2.86999989
   13.16166592   83.56739807    4.90999985    2.89000010
   13.16499996   80.06510162    4.90999985    2.86999989
   13.16805553   79.66320038    4.90999985    2.86999989
   13.17138958   80.69090271    4.90999985    2.89000010
   13.17444515   80.49359894    4.90999985    2.89000010
   13.17777824   83.50119781    4.90999985    2.86999989
   13.17805576   82.52369690    4.90999985    2.89000010
   13.18138885   83.72750092    4.90999985    2.86999989
   13.18444443   87.19860077    4.90999985    2.89000010
   13.18777752   84.19619751    4.90999985    2.86999989
   13.19083309   76.49510193    4.90999985    2.86999989
   13.19416714   80.87840271    4.90999985    2.89000010
   13.19750023   82.26760101    4.90999985    2.86999989
   13.20055580   80.22219849    4.90999985    2.86999989
   13.20388889   79.46859741    4.90999985    2.89000010
   13.20694447   80.89620209    4.90999985    2.89000010
   13.21027756   75.98100281    4.90999985    2.89000010
   13.21111107   80.07340240    4.90999985    2.89000010
   13.21388912   76.54679871    4.90999985    2.89000010
   13.21722221   79.94419861    4.90999985    2.86999989
   13.22027779   75.26069641    4.90999985    2.89000010
   13.22361088   78.43199921    4.90999985    2.86999989
   13.22694397   78.18640137    4.90999985    2.89000010
   13.22999954   85.91230011    4.90999985    2.89000010
   13.23333359   79.60559845    4.90999985    2.89000010
   13.34305477   -1.00000000   -1.00000000   -1.00000000
   13.44444466   -1.00000000   -1.00000000   -1.00000000
   13.54666710   -1.00000000   -1.00000000   -1.00000000
   13.62888908   72.44640350    4.90999985    2.89000010
   13.63222218   81.77760315    4.90999985    2.89000010
   13.63527775   82.84259796    4.90999985    2.91000009
   13.63861084   88.53610229    4.90999985    2.91000009
   13.64194393   83.49269867    4.90999985    2.91000009
   13.64499950   89.97789764    4.90999985    2.91000009
   13.64916611   89.97789764    4.90999985    2.91000009
   13.65333271   86.49340057    4.90999985    2.91000009
   13.65666676   87.14920044    4.90999985    2.89000010
   13.65972137   80.07869720    4.90999985    2.89000010
   13.66222191   89.41680145    4.90999985    2.91000009
   13.66333294   79.80799866    4.90999985    2.89000010
   13.66666698   78.17620087    4.90999985    2.89000010
   13.66972256   84.07350159    4.90999985    2.89000010
   13.67305565   79.85449982    4.90999985    2.89000010
   13.67611122   79.41979980    4.90999985    2.89000010
   13.67944431   81.28260040    4.90999985    2.91000009
   13.68249989   80.87079620    4.90999985    2.91000009
   13.68583298   76.52839661    4.90999985    2.91000009
   13.69222260   76.52839661    4.90999985    2.89000010
   13.69611073   78.96130371    4.90999985    2.89000010
   13.69944477   83.09639740    4.90999985    2.93000007
   13.70277786   84.60379791    4.90999985    2.89000010
   13.70583344   83.35669708    4.90999985    2.89000010
   13.70916653   87.49559784    4.90999985    2.91000009
   13.71222210   83.88670349    4.90999985    2.89000010
   13.71555519   83.07969666    4.90999985    2.91000009
   13.71861076   86.19580078    4.90999985    2.91000009
   13.72194386   83.43180084    4.90999985    2.91000009
   13.72499943   79.59760284    4.90999985    2.89000010
   13.72833252   80.91040039    4.90999985    2.91000009
   13.72888851   76.61650085    4.90999985    2.91000009
   13.73500061   76.61650085    4.90999985    2.91000009
   13.73916721   81.24449921    4.90999985    2.91000009
   13.74222279   83.11470032    4.90999985    2.89000010
   13.74555588   76.60399628    4.90999985    2.89000010
   13.74861145   77.17279816    4.90999985    2.91000009
   13.75194454   77.86840057    4.90999985    2.91000009
   13.75500011   77.35089874    4.90999985    2.91000009
   13.75833321   76.34500122    4.90999985    2.91000009
   13.76166630   83.01860046    4.90999985    2.91000009
   13.76222229   83.71839905    4.90999985    2.89000010
   13.76527786   77.18990326    4.90999985    2.91000009
   13.76861095   79.34110260    4.90999985    2.91000009
   13.77166653   75.24610138    4.90999985    2.91000009
   13.77777767   75.24610138    4.90999985    2.91000009
   13.78194427   79.57790375    4.90999985    2.91000009
   13.78500080   85.65509796    4.90999985    2.91000009
   13.78833389   75.72370148    4.90999985    2.91000009
   13.79166698   76.68900299    4.90999985    2.91000009
   13.79472256   82.03690338    4.90999985    2.91000009
   13.79555607   85.82640076    4.90999985    2.91000009
   13.79833412   76.76650238    4.90999985    2.91000009
   13.80166721   82.22139740    4.90999985    2.91000009
   13.80472279   79.40740204    4.90999985    2.91000009
   13.80805588   79.40019989    4.90999985    2.91000009
   13.81138897   76.70290375    4.90999985    2.91000009
   13.81472206   82.05840302    4.90999985    2.91000009
   13.82055569   82.05840302    4.90999985    2.89000010
   13.82472229   83.86679840    4.90999985    2.93000007
   13.82805538   82.06359863    4.90999985    2.89000010
   13.82888889   80.77449799    4.90999985    2.89000010
   13.83166695   90.40129852    4.90999985    2.91000009
   13.83500004   82.28700256    4.90999985    2.91000009
   13.83805561   83.96240234    4.90999985    2.89000010
   13.84138870   79.72859955    4.90999985    2.91000009
   13.84444427   94.04720306    4.90999985    2.93000007
   13.84777737   88.19680023    4.90999985    2.91000009
   13.85083389   84.43879700    4.90999985    2.93000007
   13.85416698   81.02380371    4.90999985    2.93000007
   13.85750008   79.29730225    4.90999985    2.91000009
   13.86361122   79.29730225    4.90999985    2.89000010
   13.86750031   81.24810028    4.90999985    2.91000009
   13.87083340   79.56960297    4.90999985    2.91000009
   13.87416649   73.72419739    4.90999985    2.91000009
   13.87722206   78.16130066    4.90999985    2.91000009
   13.88055611   79.18990326    4.90999985    2.91000009
   13.88361073   77.30449677    4.90999985    2.91000009
   13.88694477   76.55039978    4.90999985    2.91000009
   13.89000034   78.30860138    4.90999985    2.91000009
   13.89333344   77.39109802    4.90999985    2.91000009
   13.89555550   86.73310089    4.90999985    2.91000009
   13.89694405   80.08380127    4.90999985    2.91000009
   13.90027714   81.06220245    4.90999985    2.91000009
   13.90638828   81.06220245    4.90999985    2.91000009
   13.91055489   75.21269989    4.90999985    2.91000009
   13.91361046   76.22239685    4.90999985    2.91000009
   13.91694450   76.88619995    4.90999985    2.91000009
   13.92000008   75.54799652    4.90999985    2.91000009
   13.92333412   81.14299774    4.90999985    2.93000007
   13.92638874   77.24069977    4.90999985    2.91000009
   13.92888927   72.59619904    4.90999985    2.91000009
   13.93000031   71.63500214    4.90999985    2.89000010
   13.93333340   73.92759705    4.90999985    2.91000009
   13.93638897   79.57330322    4.90999985    2.91000009
   13.93972206   77.34320068    4.90999985    2.89000010
   13.94277763   79.25150299    4.90999985    2.91000009
   13.94916630   79.25150299    4.90999985    2.91000009
   13.95333290   87.17859650    4.90999985    2.89000010
   13.95638847   80.91639709    4.90999985    2.91000009
   13.95972157   78.96589661    4.90999985    2.93000007
   13.96222210   78.63500214    4.90999985    2.91000009
   13.96333313   77.08489990    4.90999985    2.91000009
   13.96666622   77.17120361    4.90999985    2.91000009
   13.96972179   85.77940369    4.90999985    2.91000009
   13.97305489   84.04180145    4.90999985    2.91000009
   13.97611046   81.17949677    4.90999985    2.91000009
   13.97944355   74.50219727    4.90999985    2.91000009
   13.98249912   77.56189728    4.90999985    2.93000007
   13.98583317   80.29689789    4.90999985    2.89000010
   13.99194431   80.29689789    4.90999985    2.91000009
   13.99611092   81.56199646    4.90999985    2.91000009
   13.99944496   76.65969849    4.90999985    2.91000009
   14.00249958   84.52420044    4.90999985    2.91000009
   14.00583363   77.83869934    4.90999985    2.89000010
   14.00888920   73.87940216    4.90999985    2.91000009
   14.01222229   79.36550140    4.90999985    2.91000009
   14.01555538   80.47820282    4.90999985    2.93000007
   14.01861095   77.95700073    4.90999985    2.91000009
   14.02250004   78.04010010    4.90999985    2.91000009
   14.02583313   77.13310242    4.90999985    2.91000009
   14.02916622   76.95909882    4.90999985    2.93000007
   14.02944374   77.53050232    4.90999985    2.93000007
   14.03500080   77.53050232    4.90999985    2.91000009
   14.03888893   78.17340088    4.90999985    2.91000009
   14.04222298   80.76029968    4.90999985    2.91000009
   14.04555607   75.39849854    4.90999985    2.91000009
   14.04861164   83.63089752    4.90999985    2.91000009
   14.05194473   77.69589996    4.90999985    2.91000009
   14.05500031   79.37490082    4.90999985    2.91000009
   14.05833340   76.73349762    4.90999985    2.91000009
   14.06166649   75.61070251    4.90999985    2.91000009
   14.06250000   79.66010284    4.90999985    2.93000007
   14.06500053   75.23889923    4.90999985    2.91000009
   14.06833363   76.82050323    4.90999985    2.91000009
   14.07138920   76.49340057    4.90999985    2.91000009
   14.07777786   76.49340057    4.90999985    2.93000007
   14.08194447   82.15429688    4.90999985    2.91000009
   14.08500004   76.85479736    4.90999985    2.93000007
   14.08833313   86.62359619    4.90999985    2.91000009
   14.09138870   79.37999725    4.90999985    2.91000009
   14.09472179   78.90409851    4.90999985    2.91000009
   14.09583282   80.72609711    4.90999985    2.91000009
   14.09833336   79.54630280    4.90999985    2.91000009
   14.10166740   84.32659912    4.90999985    2.91000009
   14.10472298   76.09629822    4.90999985    2.91000009
   14.10805607   80.11869812    4.90999985    2.93000007
   14.11111164   81.32479858    4.90999985    2.91000009
   14.11444473   80.38179779    4.90999985    2.89000010
   14.12055588   80.38179779    4.90999985    2.93000007
   14.12472248   79.19650269    4.90999985    2.91000009
   14.12777805   81.33239746    4.90999985    2.91000009
   14.12916660   82.89279938    4.90999985    2.91000009
   14.13138866   76.41249847    4.90999985    2.91000009
   14.13472176   80.78440094    4.90999985    2.91000009
   14.13777733   76.49549866    4.90999985    2.91000009
   14.14111137   80.72100067    4.90999985    2.91000009
   14.14416695   74.17610168    4.90999985    2.93000007
   14.14750004   73.77069855    4.90999985    2.91000009
   14.15083313   75.36949921    4.90999985    2.91000009
   14.15388870   74.58950043    4.90999985    2.93000007
   14.15722179   76.30000305    4.90999985    2.91000009
   14.16333294   76.30000305    4.90999985    2.91000009
   14.16750050   75.66329956    4.90999985    2.93000007
   14.17083359   74.19860077    4.90999985    2.93000007
   14.17388916   77.33020020    4.90999985    2.91000009
   14.17722225   75.66719818    4.90999985    2.91000009
   14.18027782   75.85939789    4.90999985    2.91000009
   14.18361092   74.68599701    4.90999985    2.91000009
   14.18694496   79.01249695    4.90999985    2.91000009
   14.19000053   76.53900146    4.90999985    2.91000009
   14.19333363   77.56269836    4.90999985    2.91000009
   14.19583321   77.27549744    4.90999985    2.91000009
   14.19694424   77.77500153    4.90999985    2.91000009
   14.20027733   78.98110199    4.90999985    2.91000009
   14.20638847   78.98110199    4.90999985    2.91000009
   14.21027756   87.86150360    4.90999985    2.93000007
   14.21361065   84.01830292    4.90999985    2.91000009
   14.21666622   84.29290009    4.90999985    2.91000009
   14.21999931   84.60119629    4.90999985    2.93000007
   14.22333336   90.49819946    4.90999985    2.93000007
   14.22638798   81.14119720    4.90999985    2.91000009
   14.22916603   77.20159912    4.90999985    2.91000009
   14.22999954   77.97399902    4.90999985    2.93000007
   14.23333359   73.83830261    4.90999985    2.91000009
   14.23638916   79.58999634    4.90999985    2.91000009
   14.23972225   80.00579834    4.90999985    2.93000007
   14.24277782   77.75559998    4.90999985    2.91000009
   14.24916649   77.75559998    4.90999985    2.91000009
   14.25333309   77.14949799    4.90999985    2.91000009
   14.25638866   81.00299835    4.90999985    2.93000007
   14.25972176   77.37310028    4.90999985    2.91000009
   14.26249981   76.42870331    4.90999985    2.91000009
   14.26333332   76.73359680    4.90999985    2.91000009
   14.26666641   77.61579895    4.90999985    2.93000007
   14.26972198   79.34120178    4.90999985    2.91000009
   14.27305508   79.42949677    4.90999985    2.91000009
   14.27611065   85.11609650    4.90999985    2.91000009
   14.27944374   82.60359955    4.90999985    2.91000009
   14.28277779   78.90820313    4.90999985    2.91000009
   14.28583336   85.60299683    4.90999985    2.91000009
   14.29194450   85.60299683    4.90999985    2.91000009
   14.29611111   74.76429749    4.90999985    2.91000009
   14.29916668   81.27980042    4.90999985    2.91000009
   14.30249977   79.68150330    4.90999985    2.89000010
   14.30583382   81.43470001    4.90999985    2.93000007
   14.30888939   83.03330231    4.90999985    2.91000009
   14.31222248   82.78800201    4.90999985    2.91000009
   14.31527805   83.51629639    4.90999985    2.91000009
   14.31861115   76.45120239    4.90999985    2.93000007
   14.32194424   76.71739960    4.90999985    2.91000009
   14.32499981   80.09179688    4.90999985    2.91000009
   14.32833290   81.15489960    4.90999985    2.93000007
   14.32916641   75.55979919    4.90999985    2.93000007
   14.33472157   75.55979919    4.90999985    2.91000009
   14.33888817   79.36380005    4.90999985    2.91000009
   14.34222221   88.45610046    4.90999985    2.91000009
   14.34527779   78.96250153    4.90999985    2.93000007
   14.34861088   83.83999634    4.90999985    2.91000009
   14.35166740   79.83840179    4.90999985    2.91000009
   14.35500050   80.23549652    4.90999985    2.91000009
   14.35805607   75.59069824    4.90999985    2.91000009
   14.36138916   78.58149719    4.90999985    2.93000007
   14.36250019   76.61689758    4.90999985    2.93000007
   14.36500072   76.68470001    4.90999985    2.91000009
   14.36833382   79.62860107    4.90999985    2.93000007
   14.37138939   74.24490356    4.90999985    2.93000007
   14.37777805   74.24490356    4.90999985    2.93000007
   14.38166714   74.56340027    4.90999985    2.91000009
   14.38500023   80.96240234    4.90999985    2.91000009
   14.38833332   77.00430298    4.90999985    2.91000009
   14.39138889   80.29799652    4.90999985    2.93000007
   14.39472198   77.56009674    4.90999985    2.91000009
   14.39583302   81.02760315    4.90999985    2.91000009
   14.39805508   74.76020050    4.90999985    2.91000009
   14.40138817   76.57710266    4.90999985    2.91000009
   14.40444374   79.89360046    4.90999985    2.91000009
   14.40777779   76.81729889    4.90999985    2.91000009
   14.41111088   80.93109894    4.90999985    2.91000009
   14.41416645   73.28430176    4.90999985    2.93000007
   14.42055607   73.28430176    4.90999985    2.91000009
   14.42472267   75.36930084    4.90999985    2.91000009
   14.42777824   77.74949646    4.90999985    2.93000007
   14.42916679   78.95610046    4.90999985    2.91000009
   14.43138885   82.23719788    4.90999985    2.91000009
   14.43472195   79.77359772    4.90999985    2.91000009
   14.43777752   80.68609619    4.90999985    2.91000009
   14.44111156   79.84290314    4.90999985    2.91000009
   14.44444466   79.58660126    4.90999985    2.91000009
   14.44750023   76.70050049    4.90999985    2.91000009
   14.45083332   75.93849945    4.90999985    2.94000006
   14.45388889   76.80059814    4.90999985    2.93000007
   14.45722198   72.10340118    4.90999985    2.93000007
   14.46333313   72.10340118    4.90999985    2.93000007
   14.46749973   81.11509705    4.90999985    2.93000007
   14.47083282   76.39409637    4.90999985    2.91000009
   14.47388840   79.37000275    4.90999985    2.91000009
   14.47722149   74.28050232    4.90999985    2.91000009
   14.48027706   78.38259888    4.90999985    2.89000010
   14.48361111   78.86209869    4.90999985    2.91000009
   14.48666668   80.33930206    4.90999985    2.91000009
   14.49000072   76.82350159    4.90999985    2.91000009
   14.49305534   82.83779907    4.90999985    2.91000009
   14.49583340   77.53029633    4.90999985    2.93000007
   14.49666691   78.73609924    4.90999985    2.91000009
   14.50000000   78.96379852    4.90999985    2.91000009
   14.50611115   78.96379852    4.90999985    2.93000007
   14.51027775   79.53230286    4.90999985    2.91000009
   14.51361084   81.34629822    4.90999985    2.93000007
   14.51666641   76.68070221    4.90999985    2.93000007
   14.51999950   76.37570190    4.90999985    2.91000009
   14.52305508   79.05719757    4.90999985    2.93000007
   14.52638817   82.62609863    4.90999985    2.93000007
   14.52916622   78.72080231    4.90999985    2.93000007
   14.52999973   80.82929993    4.90999985    2.93000007
   14.53333378   76.66130066    4.90999985    2.93000007
   14.53638935   83.58390045    4.90999985    2.93000007
   14.53972244   80.65329742    4.90999985    2.91000009
   14.54305553   79.11949921    4.90999985    2.93000007
   14.54916668   79.11949921    4.90999985    2.91000009
   14.55305576   82.80200195    4.90999985    2.93000007
   14.55638885   78.42070007    4.90999985    2.91000009
   14.55972195   80.87539673    4.90999985    2.91000009
   14.56250000   78.32440186    4.90999985    2.91000009
   14.56305599   84.26969910    4.90999985    2.93000007
   14.56638908   87.26290131    4.90999985    2.91000009
   14.56944466   74.71279907    4.90999985    2.91000009
   14.57277775   77.58709717    4.90999985    2.91000009
   14.57611084   76.69190216    4.90999985    2.91000009
   14.57916641   81.79940033    4.90999985    2.91000009
   14.58249950   78.78990173    4.90999985    2.91000009
   14.58555508   80.52269745    4.90999985    2.91000009
   14.59194374   80.52269745    4.90999985    2.91000009
   14.59611034   77.81320190    4.90999985    2.93000007
   14.59916592   77.71810150    4.90999985    2.93000007
   14.60249996   80.51499939    4.90999985    2.91000009
   14.60555553   75.40889740    4.90999985    2.91000009
   14.60888958   81.16040039    4.90999985    2.91000009
   14.61222267   77.89820099    4.90999985    2.91000009
   14.61527824   78.01000214    4.90999985    2.93000007
   14.61861134   81.84069824    4.90999985    2.93000007
   14.62166691   75.16739655    4.90999985    2.91000009
   14.62500000   74.70790100    4.90999985    2.91000009
   14.62805557   80.85169983    4.90999985    2.91000009
   14.62916660   79.91609955    4.90999985    2.93000007
   14.64999962   79.91609955    4.90999985    2.91000009
   14.65388870   78.37889862    4.90999985    2.89000010
   14.65722179   74.25389862    4.90999985    2.91000009
   14.66055489   76.63770294    4.90999985    2.91000009
   14.66249943   76.50199890    4.90999985    2.89000010
   14.66416645   80.10209656    4.90999985    2.91000009
   14.66722298   79.86380005    4.90999985    2.91000009
   14.67055607   82.84559631    4.90999985    2.91000009
   14.67361164   81.06099701    4.90999985    2.91000009
   14.67694473   77.32939911    4.90999985    2.91000009
   14.68000031   79.71849823    4.90999985    2.91000009
   14.68333340   79.34850311    4.90999985    2.91000009
   14.68638897   74.41320038    4.90999985    2.91000009
   14.69250011   74.41320038    4.90999985    2.93000007
   14.69666672   74.61820221    4.90999985    2.91000009
   14.69999981   75.62460327    4.90999985    2.91000009
   14.70305538   78.36340332    4.90999985    2.91000009
   14.70638847   74.35189819    4.90999985    2.91000009
   14.70972157   74.00170135    4.90999985    2.91000009
   14.71277714   80.26570129    4.90999985    2.93000007
   14.71611118   77.61199951    4.90999985    2.91000009
   14.71916580   78.53959656    4.90999985    2.91000009
   14.72249985   79.17299652    4.90999985    2.91000009
   14.72555542   77.74690247    4.90999985    2.93000007
   14.72888851   75.58329773    4.90999985    2.93000007
   14.72944355   84.08540344    4.90999985    2.93000007
   14.73555565   84.08540344    4.90999985    2.91000009
   14.73972225   76.72949982    4.90999985    2.93000007
   14.74277782   76.95410156    4.90999985    2.91000009
   14.74611092   79.66089630    4.90999985    2.93000007
   14.74916649   78.40959930    4.90999985    2.91000009
   14.75249958   76.86679840    4.90999985    2.91000009
   14.75555515   75.59429932    4.90999985    2.91000009
   14.75888920   86.61039734    4.90999985    2.91000009
   14.76194477   75.83080292    4.90999985    2.91000009
   14.76277733   77.76080322    4.90999985    2.91000009
   14.76555538   77.39949799    4.90999985    2.91000009
   14.76888847   74.32420349    4.90999985    2.93000007
   14.77222157   80.68669891    4.90999985    2.93000007
   14.77833271   80.68669891    4.90999985    2.91000009
   14.78249931   77.56849670    4.90999985    2.91000009
   14.78555584   77.27330017    4.90999985    2.91000009
   14.78888893   78.53959656    4.90999985    2.91000009
   14.79194450   76.77459717    4.90999985    2.93000007
   14.79527855   78.43789673    4.90999985    2.91000009
   14.79611111   74.79920197    4.90999985    2.91000009
   14.79888916   79.66300201    4.90999985    2.91000009
   14.80222225   77.03450012    4.90999985    2.91000009
   14.80555534   76.52660370    4.90999985    2.93000007
   14.80861092   76.78579712    4.90999985    2.94000006
   14.81194496   75.35310364    4.90999985    2.93000007
   14.81500053   79.22129822    4.90999985    2.91000009
   14.82111073   79.22129822    4.90999985    2.91000009
   14.82527733   74.54669952    4.90999985    2.93000007
   14.82861137   76.88009644    4.90999985    2.91000009
   14.82944393   80.52059937    4.90999985    2.93000007
   14.83222198   81.26409912    4.90999985    2.93000007
   14.83527756   76.40750122    4.90999985    2.93000007
   14.83861065   74.49890137    4.90999985    2.91000009
   14.84166622   75.02899933    4.90999985    2.91000009
   14.84499931   80.67449951    4.90999985    2.93000007
   14.84805489   86.80539703    4.90999985    2.93000007
   14.85138893   82.41410065    4.90999985    2.93000007
   14.85444450   79.82340240    4.90999985    2.93000007
   14.85777855   84.75289917    4.90999985    2.93000007
   14.86388969   84.75289917    4.90999985    2.93000007
   14.86805534   83.62059784    4.90999985    2.91000009
   14.87138939   79.03440094    4.90999985    2.93000007
   14.87444496   86.86430359    4.90999985    2.93000007
   14.87777805   80.23459625    4.90999985    2.93000007
   14.88111115   80.58059692    4.90999985    2.93000007
   14.88416672   81.23709869    4.90999985    2.91000009
   14.88749981   77.83039856    4.90999985    2.91000009
   14.89055538   81.04550171    4.90999985    2.91000009
   14.89388847   79.73069763    4.90999985    2.91000009
   14.89611053   78.12909698    4.90999985    2.93000007
   14.89750004   79.04409790    4.90999985    2.93000007
   14.90055561   74.90499878    4.90999985    2.91000009
   14.90694427   74.90499878    4.90999985    2.93000007
   14.91083336   79.35150146    4.90999985    2.91000009
   14.91416645   83.43209839    4.90999985    2.93000007
   14.91750050   83.47940063    4.90999985    2.91000009
   14.92055607   77.57800293    4.90999985    2.91000009
   14.92388916   75.67279816    4.90999985    2.93000007
   14.92694473   77.95439911    4.90999985    2.91000009
   14.92944431   75.71099854    4.90999985    2.93000007
   14.93083382   73.99479675    4.90999985    2.93000007
   14.93388939   78.50939941    4.90999985    2.91000009
   14.93722248   80.58020020    4.90999985    2.93000007
   14.94027805   73.66100311    4.90999985    2.93000007
   14.94361115   76.53420258    4.90999985    2.93000007
   14.94972229   76.53420258    4.90999985    2.93000007
   14.95388889   77.60119629    4.90999985    2.91000009
   14.95694447   85.16850281    4.90999985    2.91000009
   14.96027756   79.61409760    4.90999985    2.93000007
   14.96277714   76.42269897    4.90999985    2.91000009
   14.96388912   83.11299896    4.90999985    2.93000007
   14.96694374   75.12779999    4.90999985    2.93000007
   14.97027779   79.16950226    4.90999985    2.93000007
   14.97333336   79.61319733    4.90999985    2.91000009
   14.97666645   79.04290009    4.90999985    2.93000007
   14.97972202   75.26399994    4.90999985    2.93000007
   14.98305511   77.00579834    4.90999985    2.93000007
   14.98611164   77.46179962    4.90999985    2.93000007
   14.99250031   77.46179962    4.90999985    2.93000007
   14.99666691   74.29399872    4.90999985    2.93000007
   15.00000000   84.98069763    4.90999985    2.91000009
   15.00305557   76.30740356    4.90999985    2.91000009
   15.00638866   78.91600037    4.90999985    2.93000007
   15.00944424   78.07319641    4.90999985    2.93000007
   15.01277733   75.89839935    4.90999985    2.93000007
   15.01583290   76.30670166    4.90999985    2.91000009
   15.01916599   79.97969818    4.90999985    2.93000007
   15.02222157   75.89710236    4.90999985    2.93000007
   15.02555561   82.41400146    4.90999985    2.93000007
   15.02888870   75.10040283    4.90999985    2.91000009
   15.02944374   76.83300018    4.90999985    2.93000007
   15.03527832   76.83300018    4.90999985    2.93000007
   15.03944492   78.45749664    4.90999985    2.93000007
   15.04277802   74.04029846    4.90999985    2.91000009
   15.04583359   76.51999664    4.90999985    2.91000009
   15.04916668   76.65899658    4.90999985    2.93000007
   15.05222225   76.35160065    4.90999985    2.91000009
   15.05555534   76.09999847    4.90999985    2.93000007
   15.05888939   79.45870209    4.90999985    2.93000007
   15.06194496   79.96029663    4.90999985    2.93000007
   15.06277752   77.18740082    4.90999985    2.93000007
   15.06555557   79.42299652    4.90999985    2.91000009
   15.06861115   80.58630371    4.90999985    2.93000007
   15.07194424   83.47270203    4.90999985    2.91000009
   15.07833290   83.47270203    4.90999985    2.93000007
   15.08222198   79.17939758    4.90999985    2.93000007
   15.08555508   75.95310211    4.90999985    2.93000007
   15.08888817   76.97489929    4.90999985    2.93000007
   15.09194374   76.71980286    4.90999985    2.93000007
   15.09527779   80.72080231    4.90999985    2.93000007
   15.09611034   83.70200348    4.90999985    2.93000007
   15.09888840   77.37689972    4.90999985    2.93000007
   15.10194492   75.62830353    4.90999985    2.91000009
   15.10527802   77.66470337    4.90999985    2.93000007
   15.10861111   78.71910095    4.90999985    2.93000007
   15.11166668   79.65139771    4.90999985    2.91000009
   15.11500072   86.67649841    4.90999985    2.91000009
   15.12111092   86.67649841    4.90999985    2.91000009
   15.12527752   80.05740356    4.90999985    2.93000007
   15.12833309   79.38490295    4.90999985    2.91000009
   15.12944412   75.93209839    4.90999985    2.91000009
   15.13194466   82.38349915    4.90999985    2.93000007
   15.13500023   76.39050293    4.90999985    2.93000007
   15.13833332   76.31220245    4.90999985    2.91000009
   15.14166641   82.52709961    4.90999985    2.93000007
   15.14472198   78.34739685    4.90999985    2.93000007
   15.14805508   79.88269806    4.90999985    2.93000007
   15.15111065   79.54859924    4.90999985    2.91000009
   15.15444374   77.53450012    4.90999985    2.93000007
   15.15777779   77.70050049    4.90999985    2.93000007
   15.16388893   77.70050049    4.90999985    2.93000007
   15.16805553   81.41220093    4.90999985    2.91000009
   15.17138958   76.47630310    4.90999985    2.93000007
   15.17444515   81.80860138    4.90999985    2.93000007
   15.17777824   74.25920105    4.90999985    2.93000007
   15.18083382   77.92449951    4.90999985    2.93000007
   15.18416691   75.55519867    4.90999985    2.93000007
   15.18722248   75.48100281    4.90999985    2.91000009
   15.19055557   77.92169952    4.90999985    2.93000007
   15.19361115   79.58529663    4.90999985    2.93000007
   15.19611073   79.31169891    4.90999985    2.93000007
   15.19750023   79.59559631    4.90999985    2.93000007
   15.20055580   76.97969818    4.90999985    2.93000007
   15.20666695   76.97969818    4.90999985    2.93000007
   15.21083355   80.14820099    4.90999985    2.93000007
   15.21416664   76.31210327    4.90999985    2.93000007
   15.21722221   77.02069855    4.90999985    2.94000006
   15.22055531   81.98090363    4.90999985    2.91000009
   15.22361088   79.86019897    4.90999985    2.91000009
   15.22694397   80.93550110    4.90999985    2.93000007
   15.22944355   83.49669647    4.90999985    2.93000007
   15.23055553   81.13009644    4.90999985    2.93000007
   15.23361111   77.79859924    4.90999985    2.91000009
   15.23694515   80.95459747    4.90999985    2.93000007
   15.24027824   80.92199707    4.90999985    2.91000009
   15.24333382   77.90750122    4.90999985    2.93000007
   15.24972248   77.90750122    4.90999985    2.93000007
   15.25361156   77.05049896    4.90999985    2.93000007
   15.25694466   75.61209869    4.90999985    2.93000007
   15.26027775   78.31420135    4.90999985    2.93000007
   15.26277733   77.67089844    4.90999985    2.93000007
   15.26388931   79.41770172    4.90999985    2.93000007
   15.26694393   81.99720001    4.90999985    2.94000006
   15.27027798   88.15309906    4.90999985    2.93000007
   15.27361107   85.46440125    4.90999985    2.93000007
   15.27666664   81.97599792    4.90999985    2.93000007
   15.27999973   81.39379883    4.90999985    2.93000007
   15.28305531   86.14230347    4.90999985    2.93000007
   15.28638935   85.68900299    4.90999985    2.91000009
   15.29250050   85.68900299    4.90999985    2.94000006
   15.29666710   76.83000183    4.90999985    2.94000006
   15.29972267   77.31300354    4.90999985    2.93000007
   15.30305576   78.63610077    4.90999985    2.94000006
   15.30611134   77.49330139    4.90999985    2.93000007
   15.30944443   79.45220184    4.90999985    2.91000009
   15.31277752   84.06569672    4.90999985    2.93000007
   15.31583309   77.62090302    4.90999985    2.93000007
   15.31916618   80.15100098    4.90999985    2.93000007
   15.32222176   77.76609802    4.90999985    2.93000007
   15.32555580   75.66829681    4.90999985    2.94000006
   15.32861137   77.70510101    4.90999985    2.93000007
   15.32944393   76.69000244    4.90999985    2.93000007
   15.33527756   76.69000244    4.90999985    2.94000006
   15.33944416   79.64430237    4.90999985    2.91000009
   15.34277725   86.73739624    4.90999985    2.93000007
   15.34583282   83.29570007    4.90999985    2.93000007
   15.34916592   76.01989746    4.90999985    2.94000006
   15.35222244   77.19570160    4.90999985    2.94000006
   15.35555553   85.76439667    4.90999985    2.93000007
   15.35861111   75.74040222    4.90999985    2.93000007
   15.36194515   77.15670013    4.90999985    2.93000007
   15.36277771   77.60099792    4.90999985    2.93000007
   15.36555576   78.18039703    4.90999985    2.93000007
   15.36888885   81.96800232    4.90999985    2.93000007
   15.37194443   72.70149994    4.90999985    2.94000006
   15.37805557   72.70149994    4.90999985    2.93000007
   15.38222218   79.96440125    4.90999985    2.93000007
   15.38555527   76.70549774    4.90999985    2.93000007
   15.38861084   76.29470062    4.90999985    2.93000007
   15.39194393   76.60759735    4.90999985    2.91000009
   15.39499950   80.26969910    4.90999985    2.93000007
   15.39611053   78.74040222    4.90999985    2.93000007
   15.39861107   82.22650146    4.90999985    2.93000007
   15.40194416   81.86650085    4.90999985    2.93000007
   15.40499973   75.72370148    4.90999985    2.94000006
   15.40833282   81.02149963    4.90999985    2.93000007
   15.41138840   77.10769653    4.90999985    2.94000006
   15.41472149   82.49169922    4.90999985    2.93000007
   15.42111111   82.49169922    4.90999985    2.93000007
   15.42500019   78.75930023    4.90999985    2.94000006
   15.42833328   77.19149780    4.90999985    2.94000006
   15.42944431   87.09639740    4.90999985    2.93000007
   15.43194485   75.81060028    4.90999985    2.93000007
   15.43527794   75.69609833    4.90999985    2.93000007
   15.43833351   80.12819672    4.90999985    2.94000006
   15.44166660   78.98380280    4.90999985    2.93000007
   15.44472218   77.28759766    4.90999985    2.93000007
   15.44805527   79.44170380    4.90999985    2.93000007
   15.45111084   78.68979645    4.90999985    2.93000007
   15.45444393   78.19190216    4.90999985    2.93000007
   15.45749950   81.48100281    4.90999985    2.93000007
   15.46388912   81.48100281    4.90999985    2.93000007
   15.46805477   86.16470337    4.90999985    2.93000007
   15.47111034   77.76940155    4.90999985    2.93000007
   15.47444439   79.62629700    4.90999985    2.94000006
   15.47749996   82.55599976    4.90999985    2.93000007
   15.48083305   81.02770233    4.90999985    2.93000007
   15.48416710   77.03420258    4.90999985    2.94000006
   15.48722267   82.21440125    4.90999985    2.93000007
   15.49055576   79.90029907    4.90999985    2.93000007
   15.49361134   82.12349701    4.90999985    2.94000006
   15.49611092   77.52230072    4.90999985    2.93000007
   15.49722290   79.02700043    4.90999985    2.93000007
   15.50055599   77.70850372    4.90999985    2.93000007
   15.50666714   77.70850372    4.90999985    2.93000007
   15.51083374   79.29360199    4.90999985    2.94000006
   15.51388931   81.94280243    4.90999985    2.93000007
   15.51722240   81.73639679    4.90999985    2.94000006
   15.52055550   86.35330200    4.90999985    2.94000006
   15.52361107   82.02890015    4.90999985    2.93000007
   15.52694416   79.68470001    4.90999985    2.93000007
   15.52944374   79.35990143    4.90999985    2.93000007
   15.53055573   77.02349854    4.90999985    2.93000007
   15.53388977   82.08950043    4.90999985    2.94000006
   15.53694534   80.39070129    4.90999985    2.94000006
   15.54027843   78.43689728    4.90999985    2.93000007
   15.54333401   79.37920380    4.90999985    2.93000007
   15.54944515   79.37920380    4.90999985    2.94000006
   15.55361176   80.17369843    4.90999985    2.93000007
   15.55694485   79.42819977    4.90999985    2.94000006
   15.56000042   79.60990143    4.90999985    2.94000006
   15.56277752   76.03730011    4.90999985    2.93000007
   15.56361103   77.20950317    4.90999985    2.93000007
   15.56694412   76.41290283    4.90999985    2.94000006
   15.56999969   84.60649872    4.90999985    2.94000006
   15.57333374   76.19560242    4.90999985    2.93000007
   15.57638836   79.99790192    4.90999985    2.93000007
   15.57972240   86.52639771    4.90999985    2.94000006
   15.58305550   86.48400116    4.90999985    2.93000007
   15.58611107   78.33439636    4.90999985    2.93000007
   15.59249973   78.33439636    4.90999985    2.93000007
   15.59638882   82.74749756    4.90999985    2.93000007
   15.59972191   81.53679657    4.90999985    2.94000006
   15.60277843   79.02469635    4.90999985    2.93000007
   15.60611153   76.97440338    4.90999985    2.94000006
   15.60944462   81.48280334    4.90999985    2.94000006
   15.61250019   78.65309906    4.90999985    2.94000006
   15.61583328   76.67949677    4.90999985    2.93000007
   15.61888885   74.18620300    4.90999985    2.94000006
   15.62222195   77.31980133    4.90999985    2.93000007
   15.62555599   87.66290283    4.90999985    2.93000007
   15.62861156   77.54570007    4.90999985    2.94000006
   15.62944412   75.86910248    4.90999985    2.93000007
   15.63527775   75.86910248    4.90999985    2.93000007
   15.63944435   81.25599670    4.90999985    2.94000006
   15.64249992   75.82820129    4.90999985    2.93000007
   15.64583302   79.29820251    4.90999985    2.93000007
   15.66333294   81.72519684    4.90999985    2.93000007
   15.66555500   76.67849731    4.90999985    2.94000006
   15.66861153   73.22689819    4.90999985    2.93000007
   15.67194462   73.99420166    4.90999985    2.94000006
   15.67833328   73.99420166    4.90999985    2.94000006
   15.68222237   74.11039734    4.90999985    2.94000006
   15.68555546   74.69349670    4.90999985    2.94000006
   15.68888855   74.45459747    4.90999985    2.94000006
   15.69194412   74.25479889    4.90999985    2.93000007
   15.69527817   74.65720367    4.90999985    2.93000007
   15.69666672   78.21029663    4.90999985    2.94000006
   15.69888878   74.03410339    4.90999985    2.94000006
   15.70194435   76.60359955    4.90999985    2.93000007
   15.70527744   79.68280029    4.90999985    2.93000007
   15.70833302   78.25189972    4.90999985    2.93000007
   15.71166611   80.04620361    4.90999985    2.94000006
   15.71472168   82.85710144    4.90999985    2.93000007
   15.72111034   82.85710144    4.90999985    2.94000006
   15.72527695   81.56330109    4.90999985    2.94000006
   15.72833252   80.46269989    4.90999985    2.93000007
   15.72999954   79.49680328    4.90999985    2.93000007
   15.73222160   76.08119965    4.90999985    2.94000006
   15.73527813   77.87190247    4.90999985    2.93000007
   15.73861122   78.37249756    4.90999985    2.93000007
   15.74166679   84.34819794    4.90999985    2.93000007
   15.74499989   83.46330261    4.90999985    2.94000006
   15.74805546   77.99960327    4.90999985    2.93000007
   15.75138855   82.45939636    4.90999985    2.93000007
   15.75472260   80.74919891    4.90999985    2.94000006
   15.75777817   73.56439972    4.90999985    2.93000007
   15.76388931   73.56439972    4.90999985    2.93000007
   15.76805496   78.28700256    4.90999985    2.93000007
   15.77138901   79.71939850    4.90999985    2.93000007
   15.77444458   76.18460083    4.90999985    2.93000007
   15.77777767   78.70230103    4.90999985    2.93000007
   15.78083324   80.63809967    4.90999985    2.94000006
   15.78416729   85.72370148    4.90999985    2.93000007
   15.78722286   81.23930359    4.90999985    2.94000006
   15.79055595   76.93990326    4.90999985    2.94000006
   15.79388905   78.64640045    4.90999985    2.94000006
   15.79666710   77.01239777    4.90999985    2.94000006
   15.79750061   77.99819946    4.90999985    2.93000007
   15.80055618   77.84960175    4.90999985    2.93000007
   15.80666733   77.84960175    4.90999985    2.94000006
   15.81083393   78.36019897    4.90999985    2.94000006
   15.81416702   77.96949768    4.90999985    2.94000006
   15.81722260   80.03009796    4.90999985    2.94000006
   15.82055569   81.65630341    4.90999985    2.94000006
   15.82388878   88.23000336    4.90999985    2.94000006
   15.82694435   80.94480133    4.90999985    2.94000006
   15.82999992   75.55249786    4.90999985    2.94000006
   15.83083344   79.45580292    4.90999985    2.94000006
   15.83388901   78.35199738    4.90999985    2.93000007
   15.83722210   81.13870239    4.90999985    2.94000006
   15.84027767   84.85620117    4.90999985    2.94000006
   15.84361076   79.78150177    4.90999985    2.93000007
   15.84972191   79.78150177    4.90999985    2.94000006
   15.85388947   81.23670197    4.90999985    2.94000006
   15.85694504   79.73739624    4.90999985    2.94000006
   15.86027813   83.03970337    4.90999985    2.94000006
   15.86333370   77.69499969    4.90999985    2.94000006
   15.86388969   81.25170135    4.90999985    2.94000006
   15.86694431   82.45159912    4.90999985    2.94000006
   15.87027836   76.77600098    4.90999985    2.94000006
   15.87333393   73.09870148    4.90999985    2.93000007
   15.87666702   76.33640289    4.90999985    2.94000006
   15.88000011   77.02480316    4.90999985    2.93000007
   15.88305569   77.68070221    4.90999985    2.93000007
   15.88638878   76.67970276    4.90999985    2.94000006
   15.89249992   76.67970276    4.90999985    2.93000007
   15.89666653   73.53330231    4.90999985    2.93000007
   15.89722252   78.83170319    4.90999985    2.93000007
   15.90027714   75.82740021    4.90999985    2.94000006
   15.90361118   74.86209869    4.90999985    2.94000006
   15.90666676   76.53450012    4.90999985    2.94000006
   15.90999985   75.14499664    4.90999985    2.93000007
   15.91305542   76.37779999    4.90999985    2.94000006
   15.91638851   78.36530304    4.90999985    2.93000007
   15.91972256   79.77030182    4.90999985    2.93000007
   15.92277813   74.06340027    4.90999985    2.93000007
   15.92611122   75.06600189    4.90999985    2.93000007
   15.92916679   78.88960266    4.90999985    2.94000006
   15.93000031   86.63480377    4.90999985    2.94000006
   15.93527794   86.63480377    4.90999985    2.94000006
   15.93944454   74.70040131    4.90999985    2.93000007
   15.94277763   79.58129883    4.90999985    2.93000007
   15.94583321   77.16259766    4.90999985    2.93000007
   15.94916630   75.23090363    4.90999985    2.94000006
   15.95222187   79.43969727    4.90999985    2.93000007
   15.95555496   77.60949707    4.90999985    2.93000007
   15.95861053   82.41519928    4.90999985    2.94000006
   15.96194458   84.01419830    4.90999985    2.94000006
   15.96333313   81.80560303    4.90999985    2.94000006
   15.96555519   80.43659973    4.90999985    2.94000006
   15.96861076   79.00740051    4.90999985    2.94000006
   15.97194386   80.64749908    4.90999985    2.94000006
   15.97805500   80.64749908    4.90999985    2.94000006
   15.98222160   75.55460358    4.90999985    2.94000006
   15.98555565   83.28530121    4.90999985    2.93000007
   15.98861122   83.98909760    4.90999985    2.93000007
   15.99194431   83.66200256    4.90999985    2.94000006
   15.99499989   78.44840240    4.90999985    2.93000007
   15.99666691   75.36150360    4.90999985    2.93000007
   15.99888897   76.87090302    4.90999985    2.94000006
   16.00194359   75.94480133    4.90999985    2.94000006
   16.00527763   74.96230316    4.90999985    2.93000007
   16.00833321   78.51360321    4.90999985    2.93000007
   16.01166725   73.78929901    4.90999985    2.94000006
   16.01499939   79.98760223    4.90999985    2.93000007
   16.02111053   79.98760223    4.90999985    2.93000007
   16.02527809   82.96389771    4.90999985    2.94000006
   16.02833366   79.05539703    4.90999985    2.94000006
   16.03000069   76.70069885    4.90999985    2.94000006
   16.03194427   77.77140045    4.90999985    2.94000006
   16.03499985   76.59539795    4.90999985    2.94000006
   16.03833199   77.08339691    4.90999985    2.94000006
   16.04138756   80.28060150    4.90999985    2.93000007
   16.04472160   79.59269714    4.90999985    2.94000006
   16.04805565   78.76869965    4.90999985    2.93000007
   16.05111122   77.46749878    4.90999985    2.93000007
   16.05444336   80.51399994    4.90999985    2.93000007
   16.05749893   82.51660156    4.90999985    2.93000007
   16.06388855   82.51660156    4.90999985    2.94000006
   16.06805611   73.79070282    4.90999985    2.93000007
   16.07111168   80.09929657    4.90999985    2.94000006
   16.07444572   80.65139771    4.90999985    2.94000006
   16.07777786   81.70240021    4.90999985    2.94000006
   16.08083344   82.59880066    4.90999985    2.94000006
   16.08416748   79.83660126    4.90999985    2.94000006
   16.08722305   76.75930023    4.90999985    2.93000007
   16.09055710   75.74160004    4.90999985    2.93000007
   16.09361267   76.54389954    4.90999985    2.93000007
   16.09666824   74.65509796    4.90999985    2.93000007
   16.09749985   77.57039642    4.90999985    2.93000007
   16.10055542   79.14949799    4.90999985    2.94000006
   16.10666656   79.14949799    4.90999985    2.93000007
   16.11083412   77.30249786    4.90999985    2.94000006
   16.11416626   76.27230072    4.90999985    2.94000006
   16.11722183   78.55349731    4.90999985    2.94000006
   16.12055588   73.82630157    4.90999985    2.93000007
   16.12361145   78.01640320    4.90999985    2.94000006
   16.12694550   76.49230194    4.90999985    2.94000006
   16.13000107   77.78829956    4.90999985    2.94000006
   16.13055611   76.42330170    4.90999985    2.94000006
   16.13361168   76.70120239    4.90999985    2.94000006
   16.13694382   78.19259644    4.90999985    2.94000006
   16.14027786   77.78140259    4.90999985    2.94000006
   16.14333344   80.03209686    4.90999985    2.94000006
   16.14972115   80.03209686    4.90999985    2.93000007
   16.15361023   81.08920288    4.90999985    2.93000007
   16.15694427   81.69180298    4.90999985    2.94000006
   16.15999985   83.66750336    4.90999985    2.94000006
   16.16333389   76.81400299    4.90999985    2.93000007
   16.16388893   77.92759705    4.90999985    2.93000007
   16.16694450   85.23069763    4.90999985    2.94000006
   16.17027664   77.06559753    4.90999985    2.94000006
   16.17361069   75.22940063    4.90999985    2.94000006
   16.17666626   81.29920197    4.90999985    2.94000006
   16.18000031   76.41670227    4.90999985    2.94000006
   16.18305397   79.23490143    4.90999985    2.94000006
   16.18638802   76.68240356    4.90999985    2.94000006
   16.19249916   76.68240356    4.90999985    2.94000006
   16.19666672   77.22460175    4.90999985    2.93000007
   16.19722176   77.01699829    4.90999985    2.93000007
   16.20027924   76.98130035    4.90999985    2.93000007
   16.20361137   74.21510315    0.09000000    0.55000001
   16.20666695   76.19120026    0.05000000    0.41999999
   16.21000099   81.46399689    0.05000000    0.09000000
   16.21305656   75.38140106    0.05000000    0.09000000
   16.21638870   75.14779663    0.05000000    0.09000000
   16.21944427   75.45780182    0.05000000    0.09000000
   16.22277832   74.72160339    0.05000000    0.09000000
   16.22611237   76.27629852    0.05000000    0.09000000
   16.22916794   77.29109955    0.05000000    0.09000000
   16.23055649   78.62059784    0.05000000    0.09000000
   16.23527718   78.62059784    0.05000000    0.09000000
   16.23944473   75.19069672    0.05000000    0.09000000
   16.24250031   73.00610352    0.05000000    0.09000000
   16.24583435   78.85659790    0.05000000    0.09000000
   16.24916649   82.93219757    0.05000000    0.09000000
   16.25222206   78.57550049    0.05000000    0.09000000
   16.25555611   77.60240173    0.05000000    0.09000000
   16.25861168   75.03109741    0.05000000    0.09000000
   16.26194382   79.21130371    0.05000000    0.09000000
   16.26388931   74.16670227    0.05000000    0.09000000
   16.26555634   79.63529968    0.05000000    0.09000000
   16.26888847   78.04000092    0.05000000    0.09000000
   16.27194405   79.28790283    0.05000000    0.09000000
   16.27805519   79.28790283    0.05000000    0.09000000
   16.28222275   77.49479675    0.05000000    0.09000000
   16.28555489   76.22789764    0.05000000    0.09000000
   16.28861046   79.42269897    0.05000000    0.09000000
   16.29194450   78.97579956    0.05000000    0.09000000
   16.29500008   81.00189972    0.05000000    0.09000000
   16.29722214   80.26329803    0.05000000    0.09000000
   16.29861069   84.10790253    0.05000000    0.09000000
   16.30194283   79.90959930    0.05000000    0.09000000
   16.30499840   76.51899719    0.05000000    0.09000000
   16.30833244   77.24790192    0.05000000    0.09000000
   16.31138802   74.11990356    0.05000000    0.09000000
   16.31472206   75.41040039    0.05000000    0.09000000
   16.32111168   75.41040039    0.05000000    0.09000000
   16.32500076   83.75180054    0.05000000    0.09000000
   16.32833481   75.25689697    0.05000000    0.09000000
   16.33055687   75.36209869    0.05000000    0.09000000
   16.33194542   78.89450073    0.05000000    0.09000000
   16.33527756   78.44760132    0.05000000    0.09000000
   16.33833313   76.86239624    0.05000000    0.09000000
   16.34166718   81.47599792    0.05000000    0.09000000
   16.34472275   77.23359680    0.05000000    0.09000000
   16.34805679   75.64710236    0.05000000    0.09000000
   16.35138893   76.23349762    0.05000000    0.09000000
   16.35444450   77.45739746    0.05000000    0.09000000
   16.35777855   78.49210358    0.05000000    0.09000000
   16.36388969   78.49210358    0.05000000    0.09000000
   16.36805534   79.80130005    0.05000000    0.09000000
   16.37111092   76.33380127    0.05000000    0.09000000
   16.37444496   77.46299744    0.05000000    0.09000000
   16.37750053   77.49530029    0.05000000    0.09000000
   16.38083267   76.94869995    0.05000000    0.09000000
   16.38388824   84.24600220    0.05000000    0.09000000
   16.38722229   80.14160156    0.05000000    0.09000000
   16.39055634   82.44840240    0.05000000    0.09000000
   16.39361191   85.51190186    0.05000000    0.09000000
   16.39694405   84.84380341    0.05000000    0.09000000
   16.39749908   75.09690094    0.05000000    0.09000000
   16.40055466   74.06670380    0.05000000    0.09000000
   16.40666580   74.06670380    0.05000000    0.09000000
   16.41083336   79.50710297    0.05000000    0.09000000
   16.41388893   75.19090271    0.05000000    0.09000000
   16.41722107   78.07599640    0.05000000    0.09000000
   16.42055511   75.99210358    0.05000000    0.09000000
   16.42361069   77.38050079    0.05000000    0.09000000
   16.42694473   82.27120209    0.05000000    0.09000000
   16.43000031   86.57089996    0.05000000    0.09000000
   16.43083191   77.96630096    0.05000000    0.09000000
   16.43361092   75.22460175    0.05000000    0.09000000
   16.43694305   74.83850098    0.05000000    0.09000000
   16.43999863   85.54080200    0.05000000    0.09000000
   16.44333267   77.24610138    0.05000000    0.09000000
   16.44944382   77.24610138    0.05000000    0.09000000
   16.45361137   75.28350067    0.05000000    0.09000000
   16.45694542   79.48320007    0.05000000    0.09000000
   16.46000099   82.85060120    0.05000000    0.09000000
   16.46333504   77.37249756    0.05000000    0.09000000
   16.46416664   75.61849976    0.05000000    0.09000000
   16.46694565   77.31610107    0.05000000    0.09000000
   16.47027779   74.42500305    0.05000000    0.09000000
   16.47333336   85.13860321    0.05000000    0.09000000
   16.47666740   74.47160339    0.05000000    0.09000000
   16.47972298   76.22989655    0.05000000    0.09000000
   16.48305511   82.40070343    0.05000000    0.09000000
   16.48638916   75.78440094    0.05000000    0.09000000
   16.49250031   75.78440094    0.05000000    0.09000000
   16.49638939   77.31400299    0.05000000    0.09000000
   16.49749947   81.01540375    0.05000000    0.09000000
   16.50000000   75.09790039    0.05000000    0.09000000
   16.50333405   81.25420380    0.05000000    0.09000000
   16.50638962   79.36849976    0.05000000    0.09000000
   16.50972176   82.91719818    0.05000000    0.09000000
   16.51277733   77.57620239    0.05000000    0.09000000
   16.51611137   74.36399841    0.05000000    0.09000000
   16.51944351   77.88929749    0.05000000    0.09000000
   16.52249908   76.98220062    0.05000000    0.09000000
   16.52583313   78.08840179    0.05000000    0.09000000
   16.52888870   75.00360107    0.05000000    0.09000000
   16.53083229   74.54199982    0.05000000    0.09000000
   16.53527641   74.54199982    0.05000000    0.09000000
   16.53944397   76.74960327    0.05000000    0.09000000
   16.54249954   75.34739685    0.05000000    0.09000000
   16.54583359   76.95269775    0.05000000    0.09000000
   16.54888916   74.68009949    0.05000000    0.09000000
   16.55249977   75.55789948    0.05000000    0.09000000
   16.55583191   84.33619690    0.05000000    0.09000000
   16.55888748   79.49420166    0.05000000    0.09000000
   16.56222153   79.87249756    0.05000000    0.09000000
   16.56416512   76.64199829    0.05000000    0.09000000
   16.56583214   78.55840302    0.05000000    0.09000000
   16.56916809   74.05819702    0.05000000    0.09000000
   16.57222366   76.65579987    0.05000000    0.09000000
   16.57805634   76.65579987    0.05000000    0.09000000
   16.58222389   81.30480194    0.05000000    0.09000000
   16.58555603   80.30039978    0.05000000    0.09000000
   16.58861160   77.11799622    0.05000000    0.09000000
   16.59194565   81.28869629    0.05000000    0.09000000
   16.59500122   77.74019623    0.05000000    0.09000000
   16.59749985   79.48429871    0.05000000    0.09000000
   16.59861183   78.92060089    0.05000000    0.09000000
   16.60194397   78.67410278    0.05000000    0.09000000
   16.60499954   78.57170105    0.05000000    0.09000000
   16.60833359   75.89019775    0.05000000    0.09000000
   16.61166763   81.13569641    0.05000000    0.09000000
   16.61472321   82.06670380    0.05000000    0.09000000
   16.62083435   82.06670380    0.05000000    0.09000000
   16.62500000   83.76750183    0.05000000    0.09000000
   16.62833405   80.95529938    0.05000000    0.09000000
   16.63083267   76.78089905    0.05000000    0.09000000
   16.63166618   75.72109985    0.05000000    0.09000000
   16.63500023   82.40820313    0.05000000    0.09000000
   16.63805580   78.86319733    0.05000000    0.09000000
   16.64138794   81.98040009    0.05000000    0.09000000
   16.64472198   80.05750275    0.05000000    0.09000000
   16.64777756   73.88140106    0.05000000    0.09000000
   16.65111160   81.28330231    0.05000000    0.09000000
   16.65416718   76.14109802    0.05000000    0.09000000
   16.65749931   77.24479675    0.05000000    0.09000000
   16.66388893   77.24479675    0.05000000    0.09000000
   16.68222237   83.09680176    0.05000000    0.09000000
   16.68527603   75.69090271    0.05000000    0.09000000
   16.68861008   78.62870026    0.05000000    0.09000000
   16.69166565   75.24849701    0.05000000    0.09000000
   16.69499969   79.16390228    0.05000000    0.09000000
   16.69833183   80.31659698    0.05000000    0.09000000
   16.70138931   80.00450134    0.05000000    0.09000000
   16.70694542   80.00450134    0.05000000    0.09000000
   16.71111107   73.30909729    0.05000000    0.09000000
   16.71416664   77.77040100    0.05000000    0.09000000
   16.71527863   80.70880127    0.05000000    0.09000000
   16.71777916   83.08850098    0.05000000    0.09000000
   16.72111130   77.15049744    0.05000000    0.09000000
   16.72444534   80.92070007    0.05000000    0.09000000
   16.72750092   79.25319672    0.05000000    0.09000000
   16.73083305   79.42749786    0.05000000    0.09000000
   16.73388863   74.81870270    0.05000000    0.09000000
   16.73722267   82.10820007    0.05000000    0.09000000
   16.74027824   76.24700165    0.05000000    0.09000000
   16.74361229   77.75029755    0.05000000    0.09000000
   16.74972153   77.75029755    0.05000000    0.09000000
   16.75388908   77.61419678    0.05000000    0.09000000
   16.75694466   74.86250305    0.05000000    0.09000000
   16.76027870   79.09359741    0.05000000    0.09000000
   16.76361084   77.08959961    0.05000000    0.09000000
   16.76666641   73.34809875    0.05000000    0.09000000
   16.77027702   75.50099945    0.05000000    0.09000000
   16.77333260   76.19450378    0.05000000    0.09000000
   16.77666664   75.01180267    0.05000000    0.09000000
   16.78000069   75.33950043    0.05000000    0.09000000
   16.78194427   80.05889893    0.05000000    0.09000000
   16.78333282   79.20659637    0.05000000    0.09000000
   16.78666687   77.68479919    0.05000000    0.09000000
   16.79249954   77.68479919    0.05000000    0.09000000
   16.79666710   74.47090149    0.05000000    0.09000000
   16.79999924   76.24949646    0.05000000    0.09000000
   16.80305481   80.79550171    0.05000000    0.09000000
   16.80638885   75.10739899    0.05000000    0.09000000
   16.80944443   74.59089661    0.05000000    0.09000000
   16.81277657   72.08799744    0.05000000    0.09000000
   16.81527710   79.08840179    0.05000000    0.09000000
   16.81611061   75.36160278    0.05000000    0.09000000
   16.81944466   77.00559998    0.05000000    0.09000000
   16.82277870   75.61360168    0.05000000    0.09000000
   16.82583427   76.73909760    0.05000000    0.09000000
   16.82916832   74.58029938    0.05000000    0.09000000
   16.83555603   74.58029938    0.05000000    0.09000000
   16.83944511   75.77300262    0.05000000    0.09000000
   16.84277916   78.53050232    0.05000000    0.09000000
   16.84583473   75.04060364    0.05000000    0.09000000
   16.84861183   80.07610321    0.05000000    0.09000000
   16.84972191   78.58360291    0.05000000    0.09000000
   16.85277748   77.16999817    0.05000000    0.09000000
   16.85611153   73.53959656    0.05000000    0.09000000
   16.85916710   75.80719757    0.05000000    0.09000000
   16.86250114   73.40589905    0.05000000    0.09000000
   16.86555672   75.23889923    0.05000000    0.09000000
   16.86888885   76.56359863    0.05000000    0.09000000
   16.87222290   81.07679749    0.05000000    0.09000000
   16.87833405   81.07679749    0.05000000    0.09000000
   16.88249969   77.90720367    0.05000000    0.09000000
   16.88555527   80.46089935    0.05000000    0.09000000
   16.88888931   73.72160339    0.05000000    0.09000000
   16.89194489   76.71179962    0.05000000    0.09000000
   16.89527702   77.31690216    0.05000000    0.09000000
   16.89861107   77.45739746    0.05000000    0.09000000
   16.90166664   77.11509705    0.05000000    0.09000000
   16.90499878   79.81250000    0.05000000    0.09000000
   16.90805435   72.29019928    0.05000000    0.09000000
   16.91138840   75.23639679    0.05000000    0.09000000
   16.91444397   76.42649841    0.05000000    0.09000000
   16.91527748   72.92350006    0.05000000    0.09000000
   16.92111015   72.92350006    0.05000000    0.09000000
   16.92527771   79.19480133    0.05000000    0.09000000
   16.92833328   80.52890015    0.05000000    0.09000000
   16.93166542   75.72499847    0.05000000    0.09000000
   16.93499947   80.44439697    0.05000000    0.09000000
   16.93805504   80.38870239    0.05000000    0.09000000
   16.94138718   81.29840088    0.05000000    0.09000000
   16.94444275   83.65299988    0.05000000    0.09000000
   16.94777679   82.87999725    0.05000000    0.09000000
   16.94861031   82.10340118    0.05000000    0.09000000
   16.95166779   75.81359863    0.05000000    0.09000000
   16.95472336   77.87200165    0.05000000    0.09000000
   16.95805550   76.58650208    0.05000000    0.09000000
   16.96389008   76.58650208    0.05000000    0.09000000
   16.96805573   75.64779663    0.05000000    0.09000000
   16.97138977   77.08239746    0.05000000    0.09000000
   16.97444534   78.22180176    0.05000000    0.09000000
   16.97777748   78.19370270    0.05000000    0.09000000
   16.98083305   78.69589996    0.05000000    0.09000000
   16.98194504   81.19270325    0.05000000    0.09000000
   16.98472214   78.24410248    0.05000000    0.09000000
   16.98777771   79.50140381    0.05000000    0.09000000
   16.99111176   81.36930084    0.05000000    0.09000000
   16.99416733   74.54340363    0.05000000    0.09000000
   16.99749947   83.47720337    0.05000000    0.09000000
   17.00055504   75.05460358    0.05000000    0.09000000
   17.00694466   75.05460358    0.05000000    0.09000000
   17.01083374   77.65740204    0.05000000    0.09000000
   17.01416588   77.80169678    0.05000000    0.09000000
   17.01527786   79.45629883    0.05000000    0.09000000
   17.01777840   79.08280182    0.05000000    0.09000000
   17.02083397   77.89420319    0.05000000    0.09000000
   17.02416611   76.52989960    0.05000000    0.09000000
   17.02722168   76.30239868    0.05000000    0.09000000
   17.03055573   79.77580261    0.05000000    0.09000000
   17.03361130   80.52529907    0.05000000    0.09000000
   17.03694344   77.26730347    0.05000000    0.09000000
   17.04027748   72.58489990    0.05000000    0.09000000
   17.04333305   78.87110138    0.05000000    0.09000000
   17.04972076   78.87110138    0.05000000    0.09000000
   17.05388832   75.80549622    0.05000000    0.09000000
   17.05694389   75.21869659    0.05000000    0.09000000
   17.06027794   73.97599792    0.05000000    0.09000000
   17.06333351   75.87220001    0.05000000    0.09000000
   17.06666756   75.42819977    0.05000000    0.09000000
   17.07000160   76.74680328    0.05000000    0.09000000
   17.07305717   75.25219727    0.05000000    0.09000000
   17.07638931   77.51499939    0.05000000    0.09000000
   17.07944489   81.32740021    0.05000000    0.09000000
   17.08194542   81.19550323    0.05000000    0.09000000
   17.08333397   74.86959839    0.05000000    0.09000000
   17.08638954   73.97530365    0.05000000    0.09000000
   17.09250069   73.97530365    0.05000000    0.09000000
   17.09666824   72.80359650    0.05000000    0.09000000
   17.10000038   75.42960358    0.05000000    0.09000000
   17.10305595   75.69909668    0.05000000    0.09000000
   17.10639000   76.67289734    0.05000000    0.09000000
   17.10944557   75.02950287    0.05000000    0.09000000
   17.11277771   77.26490021    0.05000000    0.09000000
   17.11527824   76.43319702    0.05000000    0.09000000
   17.11638832   74.33609772    0.05000000    0.09000000
   17.11944389   75.33699799    0.05000000    0.09000000
   17.12277794   77.21520233    0.05000000    0.09000000
   17.12583351   71.46330261    0.05000000    0.09000000
   17.12916756   77.26950073    0.05000000    0.09000000
   17.13527679   77.26950073    0.05000000    0.09000000
   17.13944435   75.99770355    0.05000000    0.09000000
   17.14277840   75.86769867    0.05000000    0.09000000
   17.14583397   79.66560364    0.05000000    0.09000000
   17.14861107   79.40779877    0.05000000    0.09000000
   17.14972115   76.45670319    0.05000000    0.09000000
   17.15277672   76.88459778    0.05000000    0.09000000
   17.15611076   76.03829956    0.05000000    0.09000000
   17.15916634   77.38770294    0.05000000    0.09000000
   17.16250038   77.62020111    0.05000000    0.09000000
   17.16555595   77.91100311    0.05000000    0.09000000
   17.16888809   80.35079956    0.05000000    0.09000000
   17.17222214   79.20549774    0.05000000    0.09000000
   17.17833328   79.20549774    0.05000000    0.09000000
   17.18222237   79.59089661    0.05000000    0.09000000
   17.18555450   83.56400299    0.05000000    0.09000000
   17.18888855   77.90049744    0.05000000    0.09000000
   17.19194412   78.35410309    0.05000000    0.09000000
   17.19527626   77.40080261    0.05000000    0.09000000
   17.19833183   75.75170135    0.05000000    0.09000000
   17.20166779   76.46910095    0.05000000    0.09000000
   17.20499992   74.99490356    0.05000000    0.09000000
   17.20805550   79.59750366    0.05000000    0.09000000
   17.21138954   77.46459961    0.05000000    0.09000000
   17.21444511   78.48259735    0.05000000    0.09000000
   17.21527863   75.66979980    0.05000000    0.09000000
   17.22111130   75.66979980    0.05000000    0.09000000
   17.22527885   76.93350220    0.05000000    0.09000000
   17.22833443   81.79570007    0.05000000    0.09000000
   17.23166656   78.92310333    0.05000000    0.09000000
   17.23472214   75.71499634    0.05000000    0.09000000
   17.23805618   75.64530182    0.05000000    0.09000000
   17.24111176   75.78119659    0.05000000    0.09000000
   17.24444389   75.93769836    0.05000000    0.09000000
   17.24777794   74.55380249    0.05000000    0.09000000
   17.24861145   74.38130188    0.05000000    0.09000000
   17.25138855   80.00669861    0.05000000    0.09000000
   17.25444412   79.41429901    0.05000000    0.09000000
   17.25777817   83.73000336    0.05000000    0.09000000
   17.26388931   83.73000336    0.05000000    0.09000000
   17.26805496   75.50849915    0.05000000    0.09000000
   17.27111053   74.80290222    0.05000000    0.09000000
   17.27444458   75.51450348    0.05000000    0.09000000
   17.27777672   77.60659790    0.05000000    0.09000000
   17.28083229   77.62220001    0.05000000    0.09000000
   17.28194427   79.71540070    0.05000000    0.09000000
   17.28444481   76.08010101    0.05000000    0.09000000
   17.28750038   75.20059967    0.05000000    0.09000000
   17.29083252   76.37840271    0.05000000    0.09000000
   17.29388809   76.02429962    0.05000000    0.09000000
   17.29722214   74.99230194    0.05000000    0.09000000
   17.30055428   80.08020020    0.05000000    0.09000000
   17.30666542   80.08020020    0.05000000    0.09000000
   17.31083298   81.80519867    0.05000000    0.09000000
   17.31416512   77.09190369    0.05000000    0.09000000
   17.31527710   76.51360321    0.05000000    0.09000000
   17.31777954   75.21540070    0.05000000    0.09000000
   17.32083511   76.15730286    0.05000000    0.09000000
   17.32416725   75.66100311    0.05000000    0.09000000
   17.32722282   75.52670288    0.05000000    0.09000000
   17.33055687   73.41899872    0.05000000    0.09000000
   17.33388901   74.23120117    0.05000000    0.09000000
   17.33694458   79.05580139    0.05000000    0.09000000
   17.34027863   77.04049683    0.05000000    0.09000000
   17.34333420   78.06809998    0.05000000    0.09000000
   17.34972191   78.06809998    0.05000000    0.09000000
   17.35361099   74.03230286    0.05000000    0.09000000
   17.35694504   74.02149963    0.05000000    0.09000000
   17.36027908   73.83139801    0.05000000    0.09000000
   17.36333466   77.12950134    0.05000000    0.09000000
   17.36666679   77.76290131    0.05000000    0.09000000
   17.36972237   76.05490112    0.05000000    0.09000000
   17.37305641   74.61679840    0.05000000    0.09000000
   17.37611198   78.38619995    0.05000000    0.09000000
   17.37944412   73.07270050    0.05000000    0.09000000
   17.38194466   74.64399719    0.05000000    0.09000000
   17.38305473   75.96309662    0.05000000    0.09000000
   17.38611031   74.59510040    0.05000000    0.09000000
   17.39249992   74.59510040    0.05000000    0.09000000
   17.39694405   77.14320374    0.05000000    0.09000000
   17.39999962   76.83950043    0.05000000    0.09000000
   17.40333366   75.71710205    0.05000000    0.09000000
   17.40666580   79.30120087    0.05000000    0.09000000
   17.40972137   76.59980011    0.05000000    0.09000000
   17.41305542   74.59200287    0.05000000    0.09000000
   17.41527748   74.75859833    0.05000000    0.09000000
   17.41666603   82.21510315    0.05000000    0.09000000
   17.41972160   75.73880005    0.05000000    0.09000000
   17.42305565   78.90129852    0.05000000    0.09000000
   17.42611122   77.14260101    0.05000000    0.09000000
   17.42944336   77.58290100    0.05000000    0.09000000
   17.43527603   77.58290100    0.05000000    0.09000000
   17.43944359   79.44889832    0.05000000    0.09000000
   17.44249916   82.02510071    0.05000000    0.09000000
   17.44583321   74.84149933    0.05000000    0.09000000
   17.44861031   74.25050354    0.05000000    0.09000000
   17.44944382   76.93939972    0.05000000    0.09000000
   17.45250130   77.37550354    0.05000000    0.09000000
   17.45583344   76.04799652    0.05000000    0.09000000
   17.45916748   77.55999756    0.05000000    0.09000000
   17.46222305   78.75240326    0.05000000    0.09000000
   17.46555710   79.62740326    0.05000000    0.09000000
   17.46861076   77.42459869    0.05000000    0.09000000
   17.47194481   75.42970276    0.05000000    0.09000000
   17.47805595   75.42970276    0.05000000    0.09000000
   17.48222351   77.28690338    0.05000000    0.09000000
   17.48555565   74.44200134    0.05000000    0.09000000
   17.48861122   78.67230225    0.05000000    0.09000000
   17.49194527   76.79910278    0.05000000    0.09000000
   17.49500084   73.93569946    0.05000000    0.09000000
   17.49833298   75.85399628    0.05000000    0.09000000
   17.50166702   78.78479767    0.05000000    0.09000000
   17.50472260   75.00060272    0.05000000    0.09000000
   17.50805473   74.37079620    0.05000000    0.09000000
   17.51111031   76.89520264    0.05000000    0.09000000
   17.51444435   75.06839752    0.05000000    0.09000000
   17.51527786   77.82939911    0.05000000    0.09000000
   17.52083397   77.82939911    0.05000000    0.09000000
   17.52499962   75.05349731    0.05000000    0.09000000
   17.52833366   76.71070099    0.05000000    0.09000000
   17.53138924   77.72309875    0.05000000    0.09000000
   17.53472137   74.32890320    0.05000000    0.09000000
   17.53805542   75.61239624    0.05000000    0.09000000
   17.54111099   78.24120331    0.05000000    0.09000000
   17.54444313   78.97699738    0.05000000    0.09000000
   17.54749870   80.10890198    0.05000000    0.09000000
   17.54861069   82.40370178    0.05000000    0.09000000
   17.55138779   79.07530212    0.05000000    0.09000000
   17.55444336   77.60260010    0.05000000    0.09000000
   17.55777740   75.48899841    0.05000000    0.09000000
   17.56388855   75.48899841    0.05000000    0.09000000
   17.56805611   78.82800293    0.05000000    0.09000000
   17.57111168   76.49130249    0.05000000    0.09000000
   17.57444572   76.72219849    0.05000000    0.09000000
   17.57777786   76.83889771    0.05000000    0.09000000
   17.58083344   79.10900116    0.05000000    0.09000000
   17.58194542   77.03489685    0.05000000    0.09000000
   17.58444595   79.59590149    0.05000000    0.09000000
   17.58750153   79.84989929    0.05000000    0.09000000
   17.59083366   77.25559998    0.05000000    0.09000000
   17.59388924   76.55960083    0.05000000    0.09000000
   17.59722328   78.24859619    0.05000000    0.09000000
   17.60055542   76.47039795    0.05000000    0.09000000
   17.60666656   76.47039795    0.05000000    0.09000000
   17.61083412   75.84700012    0.05000000    0.09000000
   17.61388969   72.57740021    0.05000000    0.09000000
   17.61527824   76.29399872    0.05000000    0.09000000
   17.61777878   78.49179840    0.05000000    0.09000000
   17.62083435   79.79170227    0.05000000    0.09000000
   17.62416649   77.71299744    0.05000000    0.09000000
   17.62722206   75.54399872    0.05000000    0.09000000
   17.63055611   84.05670166    0.05000000    0.09000000
   17.63388824   77.57289886    0.05000000    0.09000000
   17.63694382   78.60639954    0.05000000    0.09000000
   17.64027786   76.64710236    0.05000000    0.09000000
   17.64333344   79.68520355    0.05000000    0.09000000
   17.64944458   79.68520355    0.05000000    0.09000000
   17.65361023   75.84010315    0.05000000    0.09000000
   17.65694427   77.50229645    0.05000000    0.09000000
   17.65999985   79.92140198    0.05000000    0.09000000
   17.66333389   76.81189728    0.05000000    0.09000000
   17.66638756   76.20220184    0.05000000    0.09000000
   17.66972160   77.74410248    0.05000000    0.09000000
   17.67277718   75.49890137    0.05000000    0.09000000
   17.67611122   76.02120209    0.05000000    0.09000000
   17.67944336   79.88020325    0.05000000    0.09000000
   17.68194389   78.52259827    0.05000000    0.09000000
   17.70277786   78.52259827    0.05000000    0.09000000
   17.70666695   75.07630157    0.05000000    0.09000000
   17.71000099   77.13569641    0.05000000    0.09000000
   17.71305656   76.64219666    0.05000000    0.09000000
   17.71527863   78.82309723    0.05000000    0.09000000
   17.71694565   78.90699768    0.05000000    0.09000000
   17.72027779   78.74299622    0.05000000    0.09000000
   17.72333336   78.08260345    0.05000000    0.09000000
   17.72666740   82.73239899    0.05000000    0.09000000
   17.72972298   79.31500244    0.05000000    0.09000000
   17.73305511   78.10279846    0.05000000    0.09000000
   17.73638916   83.08059692    0.05000000    0.09000000
   17.73944473   80.74839783    0.05000000    0.09000000
   17.74527740   80.74839783    0.05000000    0.09000000
   17.74944496   78.17469788    0.05000000    0.09000000
   17.75277710   79.68659973    0.05000000    0.09000000
   17.75583267   77.23660278    0.05000000    0.09000000
   17.75916672   76.93160248    0.05000000    0.09000000
   17.76250076   77.85710144    0.05000000    0.09000000
   17.76555634   75.48729706    0.05000000    0.09000000
   17.76888847   77.15200043    0.05000000    0.09000000
   17.77194405   75.06860352    0.05000000    0.09000000
   17.77527809   74.22689819    0.05000000    0.09000000
   17.77833366   77.19499969    0.05000000    0.09000000
   17.78166580   76.23100281    0.05000000    0.09000000
   17.78222275   76.96810150    0.05000000    0.09000000
   17.78833199   76.96810150    0.05000000    0.09000000
   17.79222107   76.70010376    0.05000000    0.09000000
   17.79555511   79.06050110    0.05000000    0.09000000
   17.79888916   80.76170349    0.05000000    0.09000000
   17.80194283   76.74700165    0.05000000    0.09000000
   17.80527687   81.13390350    0.05000000    0.09000000
   17.80833244   74.93530273    0.05000000    0.09000000
   17.81166649   75.81150055    0.05000000    0.09000000
   17.81472206   73.84210205    0.05000000    0.09000000
   17.81555557   80.24430084    0.05000000    0.09000000
   17.81861115   80.59899902    0.05000000    0.09000000
   17.82166672   74.40910339    0.05000000    0.09000000
   17.82500076   75.82330322    0.05000000    0.09000000
   17.83111191   75.82330322    0.05000000    0.09000000
   17.83527756   77.57250214    0.05000000    0.09000000
   17.83833313   81.66010284    0.05000000    0.09000000
   17.84166718   79.40869904    0.05000000    0.09000000
   17.84500122   78.88300323    0.05000000    0.09000000
   17.84805679   78.90260315    0.05000000    0.09000000
   17.84889030   77.04460144    0.05000000    0.09000000
   17.85194397   77.26670074    0.05000000    0.09000000
   17.85499954   74.92949677    0.05000000    0.09000000
   17.85833359   77.46520233    0.05000000    0.09000000
   17.86138916   75.14749908    0.05000000    0.09000000
   17.86472321   75.70410156    0.05000000    0.09000000
   17.86805534   78.51339722    0.05000000    0.09000000
   17.87388992   78.51339722    0.05000000    0.09000000
   17.87805557   73.96600342    0.05000000    0.09000000
   17.88138962   75.29709625    0.05000000    0.09000000
   17.88222313   73.66770172    0.05000000    0.09000000
   17.88500023   74.65560150    0.05000000    0.09000000
   17.88805580   80.92400360    0.05000000    0.09000000
   17.89138794   82.52880096    0.05000000    0.09000000
   17.89444351   81.65979767    0.05000000    0.09000000
   17.89777756   75.70960236    0.05000000    0.09000000
   17.90083313   80.62200165    0.05000000    0.09000000
   17.90416718   76.37429810    0.05000000    0.09000000
   17.90749931   80.44439697    0.05000000    0.09000000
   17.91055489   77.10160065    0.05000000    0.09000000
   17.91666603   77.10160065    0.05000000    0.09000000
   17.92083359   75.13259888    0.05000000    0.09000000
   17.92416573   74.74520111    0.05000000    0.09000000
   17.92722130   75.00080109    0.05000000    0.09000000
   17.93055534   76.42289734    0.05000000    0.09000000
   17.93388748   74.57540131    0.05000000    0.09000000
   17.93694305   75.01560211    0.05000000    0.09000000
   17.94027710   82.92900085    0.05000000    0.09000000
   17.94333267   82.55660248    0.05000000    0.09000000
   17.94666672   76.43699646    0.05000000    0.09000000
   17.94888878   78.66300201    0.05000000    0.09000000
   17.95027924   76.06320190    0.05000000    0.09000000
   17.95333481   76.95069885    0.05000000    0.09000000
   17.95972252   76.95069885    0.05000000    0.09000000
   17.96389008   77.05039978    0.05000000    0.09000000
   17.96694565   74.92710114    0.05000000    0.09000000
   17.97027779   80.18910217    0.05000000    0.09000000
   17.97333336   80.05020142    0.05000000    0.09000000
   17.97666740   79.44660187    0.05000000    0.09000000
   17.97972298   74.10910034    0.05000000    0.09000000
   17.98222351   76.37709808    0.05000000    0.09000000
   17.98361206   75.64920044    0.05000000    0.09000000
   17.98666763   76.56639862    0.05000000    0.09000000
   17.98999977   81.14260101    0.05000000    0.09000000
   17.99305534   77.50499725    0.05000000    0.09000000
   17.99638939   79.09760284    0.05000000    0.09000000
   18.00250053   79.09760284    0.05000000    0.09000000
   18.00666618   79.24859619    0.05000000    0.09000000
   18.00972176   79.40229797    0.05000000    0.09000000
   18.01305580   74.93640137    0.05000000    0.09000000
   18.01555634   75.31500244    0.05000000    0.09000000
   18.01666641   75.77970123    0.05000000    0.09000000
   18.01972198   74.96710205    0.05000000    0.09000000
   18.02305603   77.29470062    0.05000000    0.09000000
   18.02611160   73.88990021    0.05000000    0.09000000
   18.02944374   73.64980316    0.05000000    0.09000000
   18.03249931   77.10859680    0.05000000    0.09000000
   18.03583336   77.56680298    0.05000000    0.09000000
   18.03916550   77.91660309    0.05000000    0.09000000
   18.04527664   77.91660309    0.05000000    0.09000000
   18.04944420   74.06430054    0.05000000    0.09000000
   18.05277634   76.55329895    0.05000000    0.09000000
   18.05583191   75.74770355    0.05000000    0.09000000
   18.05916595   75.08190155    0.05000000    0.09000000
   18.06222153   77.79170227    0.05000000    0.09000000
   18.06555557   76.90129852    0.05000000    0.09000000
   18.06861115   77.91780090    0.05000000    0.09000000
   18.07194519   75.44270325    0.05000000    0.09000000
   18.07527924   73.62470245    0.05000000    0.09000000
   18.07833481   75.88189697    0.05000000    0.09000000
   18.08166695   73.74420166    0.05000000    0.09000000
   18.08222389   74.55619812    0.05000000    0.09000000
   18.08805656   74.55619812    0.05000000    0.09000000
   18.09222221   73.76499939    0.05000000    0.09000000
   18.09555626   75.14640045    0.05000000    0.09000000
   18.09861183   76.52770233    0.05000000    0.09000000
   18.10194397   77.01380157    0.05000000    0.09000000
   18.10527802   73.86229706    0.05000000    0.09000000
   18.10833359   76.55999756    0.05000000    0.09000000
   18.11166763   75.24079895    0.05000000    0.09000000
   18.11472321   75.28019714    0.05000000    0.09000000
   18.11555672   74.76629639    0.05000000    0.09000000
   18.11861038   76.13649750    0.05000000    0.09000000
   18.12166595   75.18029785    0.05000000    0.09000000
   18.12500000   74.53700256    0.05000000    0.09000000
   18.13111115   74.53700256    0.05000000    0.09000000
   18.13527679   77.27269745    0.05000000    0.09000000
   18.13833237   75.53630066    0.05000000    0.09000000
   18.14166641   76.55770111    0.05000000    0.09000000
   18.14472198   75.90119934    0.05000000    0.09000000
   18.14805603   78.05319977    0.05000000    0.09000000
   18.14888954   75.20880127    0.05000000    0.09000000
   18.15166664   75.91369629    0.05000000    0.09000000
   18.15472221   77.41929626    0.05000000    0.09000000
   18.15805435   76.10340118    0.05000000    0.09000000
   18.16110992   78.16809845    0.05000000    0.09000000
   18.16444397   77.53389740    0.05000000    0.09000000
   18.16777802   76.27089691    0.05000000    0.09000000
   18.17388916   76.27089691    0.05000000    0.09000000
   18.17805481   77.93720245    0.05000000    0.09000000
   18.18111038   73.99919891    0.05000000    0.09000000
   18.18222237   77.06379700    0.05000000    0.09000000
   18.18499947   77.26719666    0.05000000    0.09000000
   18.18805504   73.04740143    0.05000000    0.09000000
   18.19138718   75.24700165    0.05000000    0.09000000
   18.19444275   73.28669739    0.05000000    0.09000000
   18.19777679   76.53009796    0.05000000    0.09000000
   18.20111275   74.35369873    0.05000000    0.09000000
   18.20416832   79.28209686    0.05000000    0.09000000
   18.20750046   72.51609802    0.05000000    0.09000000
   18.21055603   75.64839935    0.05000000    0.09000000
   18.21666718   75.64839935    0.05000000    0.09000000
   18.22083473   75.11070251    0.05000000    0.09000000
   18.22416687   74.94259644    0.05000000    0.09000000
   18.22722244   73.77639771    0.05000000    0.09000000
   18.23055649   73.56009674    0.05000000    0.09000000
   18.23361206   74.97200012    0.05000000    0.09000000
   18.23694420   77.73750305    0.05000000    0.09000000
   18.23999977   75.92310333    0.05000000    0.09000000
   18.24333382   73.74169922    0.05000000    0.09000000
   18.24638939   77.91439819    0.05000000    0.09000000
   18.24888992   75.21320343    0.05000000    0.09000000
   18.25027847   76.57299805    0.05000000    0.09000000
   18.25333405   73.86209869    0.05000000    0.09000000
   18.25944519   73.86209869    0.05000000    0.09000000
   18.26361084   76.47039795    0.05000000    0.09000000
   18.26694489   77.08529663    0.05000000    0.09000000
   18.27000046   78.34059906    0.05000000    0.09000000
   18.27333260   77.53620148    0.05000000    0.09000000
   18.27666664   73.40399933    0.05000000    0.09000000
   18.27972221   75.15809631    0.05000000    0.09000000
   18.28222275   74.84860229    0.05000000    0.09000000
   18.28333282   75.63639832    0.05000000    0.09000000
   18.28638840   75.68620300    0.05000000    0.09000000
   18.28972244   78.03790283    0.05000000    0.09000000
   18.29277802   75.65630341    0.05000000    0.09000000
   18.29611015   79.96050262    0.05000000    0.09000000
   18.30249977   79.96050262    0.05000000    0.09000000
   18.30638885   74.46230316    0.05000000    0.09000000
   18.30972099   74.21939850    0.05000000    0.09000000
   18.31305504   77.74150085    0.05000000    0.09000000
   18.31555557   72.78430176    0.05000000    0.09000000
   18.31666756   73.78510284    0.05000000    0.09000000
   18.31972313   77.03769684    0.05000000    0.09000000
   18.32305717   78.17230225    0.05000000    0.09000000
   18.32638931   76.79879761    0.05000000    0.09000000
   18.32944489   78.76899719    0.05000000    0.09000000
   18.33277893   74.30599976    0.05000000    0.09000000
   18.33583450   77.93730164    0.05000000    0.09000000
   18.33916664   75.52970123    0.05000000    0.09000000
   18.34527779   75.52970123    0.05000000    0.09000000
   18.34944534   77.14129639    0.05000000    0.09000000
   18.35250092   75.48380280    0.05000000    0.09000000
   18.35583305   74.86419678    0.05000000    0.09000000
   18.35916710   76.47200012    0.05000000    0.09000000
   18.36222267   77.15540314    0.05000000    0.09000000
   18.36555672   74.80919647    0.05000000    0.09000000
   18.36861038   74.12950134    0.05000000    0.09000000
   18.37194443   76.36109924    0.05000000    0.09000000
   18.37500000   76.44380188    0.05000000    0.09000000
   18.37833405   75.40859985    0.05000000    0.09000000
   18.38166618   81.24420166    0.05000000    0.09000000
   18.38222313   77.01940155    0.05000000    0.09000000
   18.38805580   77.01940155    0.05000000    0.09000000
   18.39222145   75.33209991    0.05000000    0.09000000
   18.39555550   76.31960297    0.05000000    0.09000000
   18.39861107   77.46690369    0.05000000    0.09000000
   18.40194321   75.28510284    0.05000000    0.09000000
   18.40499878   76.58809662    0.05000000    0.09000000
   18.40833282   76.26589966    0.05000000    0.09000000
   18.41166687   73.94899750    0.05000000    0.09000000
   18.41472244   75.82730103    0.05000000    0.09000000
   18.41555595   77.91629791    0.05000000    0.09000000
   18.41833305   74.48059845    0.05000000    0.09000000
   18.42138863   76.26010132    0.05000000    0.09000000
   18.42472076   76.23349762    0.05000000    0.09000000
   18.43083191   76.23349762    0.05000000    0.09000000
   18.43499947   75.68440247    0.05000000    0.09000000
   18.43833160   75.80249786    0.05000000    0.09000000
   18.44138718   78.47740173    0.05000000    0.09000000
   18.44472122   78.66449738    0.05000000    0.09000000
   18.44805527   75.60279846    0.05000000    0.09000000
   18.44888878   73.69899750    0.05000000    0.09000000
   18.45166779   75.40670013    0.05000000    0.09000000
   18.45472336   73.26730347    0.05000000    0.09000000
   18.45805550   76.34269714    0.05000000    0.09000000
   18.46138954   75.42990112    0.05000000    0.09000000
   18.46444511   76.49330139    0.05000000    0.09000000
   18.46777916   74.40149689    0.05000000    0.09000000
   18.47389030   74.40149689    0.05000000    0.09000000
   18.47777748   80.10780334    0.05000000    0.09000000
   18.48111153   73.49359894    0.05000000    0.09000000
   18.48222351   80.29930115    0.05000000    0.09000000
   18.48472214   76.59449768    0.05000000    0.09000000
   18.48777771   77.55999756    0.05000000    0.09000000
   18.49111176   76.85130310    0.05000000    0.09000000
   18.49444389   75.79740143    0.05000000    0.09000000
   18.49749947   76.52040100    0.05000000    0.09000000
   18.50083351   74.87149811    0.05000000    0.09000000
   18.50388908   74.76290131    0.05000000    0.09000000
   18.50722313   76.73400116    0.05000000    0.09000000
   18.51027870   76.41590118    0.05000000    0.09000000
   18.51666641   76.41590118    0.05000000    0.09000000
   18.52083397   78.15830231    0.05000000    0.09000000
   18.52388954   79.52140045    0.05000000    0.09000000
   18.52722168   78.42279816    0.05000000    0.09000000
   18.53027725   77.92009735    0.05000000    0.09000000
   18.53361130   74.55889893    0.05000000    0.09000000
   18.53694344   72.77200317    0.05000000    0.09000000
   18.53999901   74.91459656    0.05000000    0.09000000
   18.54333305   75.83679962    0.05000000    0.09000000
   18.54638863   73.86650085    0.05000000    0.09000000
   18.54888916   76.58419800    0.05000000    0.09000000
   18.54999924   75.54660034    0.05000000    0.09000000
   18.55305481   75.15119934    0.05000000    0.09000000
   18.55944443   75.15119934    0.05000000    0.09000000
   18.56361008   75.54599762    0.05000000    0.09000000
   18.56666756   75.18370056    0.05000000    0.09000000
   18.57000160   73.80909729    0.05000000    0.09000000
   18.57333374   72.60729980    0.05000000    0.09000000
   18.57638931   72.99400330    0.05000000    0.09000000
   18.57972336   74.24700165    0.05000000    0.09000000
   18.58222389   75.59700012    0.05000000    0.09000000
   18.58333397   74.97959900    0.05000000    0.09000000
   18.58638954   77.23410034    0.05000000    0.09000000
   18.58972359   76.34020233    0.05000000    0.09000000
   18.59305573   75.73799896    0.05000000    0.09000000
   18.59611130   73.57550049    0.05000000    0.09000000
   18.60222244   73.57550049    0.05000000    0.09000000
   18.60639000   75.98889923    0.05000000    0.09000000
   18.60972214   80.67859650    0.05000000    0.09000000
   18.61277771   77.21070099    0.05000000    0.09000000
   18.61555672   76.17569733    0.05000000    0.09000000
   18.61666679   77.27089691    0.05000000    0.09000000
   18.61972237   76.44020081    0.05000000    0.09000000
   18.62305641   76.03179932    0.05000000    0.09000000
   18.62638855   75.63379669    0.05000000    0.09000000
   18.62944412   74.15160370    0.05000000    0.09000000
   18.63277817   74.49780273    0.05000000    0.09000000
   18.63583374   74.34400177    0.05000000    0.09000000
   18.63916588   75.76560211    0.05000000    0.09000000
   18.64527702   75.76560211    0.05000000    0.09000000
   18.64944458   74.89070129    0.05000000    0.09000000
   18.65250015   77.54820251    0.05000000    0.09000000
   18.65583229   76.31479645    0.05000000    0.09000000
   18.65888786   78.85720062    0.05000000    0.09000000
   18.66222191   74.50450134    0.05000000    0.09000000
   18.66527748   79.04889679    0.05000000    0.09000000
   18.66860962   74.08260345    0.05000000    0.09000000
   18.67166519   78.42369843    0.05000000    0.09000000
   18.67499924   73.74349976    0.05000000    0.09000000
   18.67833328   74.93890381    0.05000000    0.09000000
   18.68138885   76.36430359    0.05000000    0.09000000
   18.68222237   75.02140045    0.05000000    0.09000000
   18.68805504   75.02140045    0.05000000    0.09000000
   18.69222069   76.49019623    0.05000000    0.09000000
   18.69527626   78.24859619    0.05000000    0.09000000
   18.69861031   75.34149933    0.05000000    0.09000000
   18.71611214   79.63770294    0.05000000    0.09000000
   18.71833420   75.59729767    0.05000000    0.09000000
   18.72138977   78.68019867    0.05000000    0.09000000
   18.72472191   77.66860199    0.05000000    0.09000000
   18.73111153   77.66860199    0.05000000    0.09000000
   18.73527718   78.90720367    0.05000000    0.09000000
   18.73833275   76.49939728    0.05000000    0.09000000
   18.74166679   79.45690155    0.05000000    0.09000000
   18.74472237   79.67819977    0.05000000    0.09000000
   18.74805641   77.22840118    0.05000000    0.09000000
   18.74944496   76.30390167    0.05000000    0.09000000
   18.75166702   77.46800232    0.05000000    0.09000000
   18.75472260   79.92980194    0.05000000    0.09000000
   18.75805473   76.42559814    0.05000000    0.09000000
   18.76111031   73.90249634    0.05000000    0.09000000
   18.76444435   76.71289825    0.05000000    0.09000000
   18.76777840   76.48519897    0.05000000    0.09000000
   18.77388954   76.48519897    0.05000000    0.09000000
   18.77805519   75.65730286    0.05000000    0.09000000
   18.78111076   75.22039795    0.05000000    0.09000000
   18.78277779   74.32949829    0.05000000    0.09000000
   18.78499985   73.95040131    0.05000000    0.09000000
   18.78805542   77.04930115    0.05000000    0.09000000
   18.79138756   75.78109741    0.05000000    0.09000000
   18.79444313   79.25379944    0.05000000    0.09000000
   18.79777718   78.36920166    0.05000000    0.09000000
   18.80083275   75.99240112    0.05000000    0.09000000
   18.80416679   76.47579956    0.05000000    0.09000000
   18.80722237   76.75399780    0.05000000    0.09000000
   18.81055450   75.24230194    0.05000000    0.09000000
   18.81666756   75.24230194    0.05000000    0.09000000
   18.82083511   83.63490295    0.05000000    0.09000000
   18.82416725   75.43379974    0.05000000    0.09000000
   18.82722282   75.67639923    0.05000000    0.09000000
   18.83055687   76.17970276    0.05000000    0.09000000
   18.83361244   74.40769958    0.05000000    0.09000000
   18.83694458   75.51599884    0.05000000    0.09000000
   18.84027863   75.22599792    0.05000000    0.09000000
   18.84333420   78.01190186    0.05000000    0.09000000
   18.84666824   73.23989868    0.05000000    0.09000000
   18.84944534   76.28890228    0.05000000    0.09000000
   18.85027885   74.20400238    0.05000000    0.09000000
   18.85333443   76.14060211    0.05000000    0.09000000
   18.85972214   76.14060211    0.05000000    0.09000000
   18.86361122   74.84570313    0.05000000    0.09000000
   18.86694527   76.50569916    0.05000000    0.09000000
   18.87000084   78.20469666    0.05000000    0.09000000
   18.87333298   74.21450043    0.05000000    0.09000000
   18.87666702   77.93830109    0.05000000    0.09000000
   18.88000107   76.39820099    0.05000000    0.09000000
   18.88277817   77.62909698    0.05000000    0.09000000
   18.88388824   77.26589966    0.05000000    0.09000000
   18.88694382   75.88390350    0.05000000    0.09000000
   18.89027786   78.60030365    0.05000000    0.09000000
   18.89333344   73.66699982    0.05000000    0.09000000
   18.89666748   78.30010223    0.05000000    0.09000000
   18.90250015   78.30010223    0.05000000    0.09000000
   18.90666580   75.81700134    0.05000000    0.09000000
   18.90972137   78.19439697    0.05000000    0.09000000
   18.91305542   76.85679626    0.05000000    0.09000000
   18.91611099   75.03769684    0.05000000    0.09000000
   18.91666603   75.53410339    0.05000000    0.09000000
   18.91972160   77.95120239    0.05000000    0.09000000
   18.92305565   74.08280182    0.05000000    0.09000000
   18.92638779   76.29450226    0.05000000    0.09000000
   18.92944336   76.06610107    0.05000000    0.09000000
   18.93277740   76.79209900    0.05000000    0.09000000
   18.93583298   76.79869843    0.05000000    0.09000000
   18.93916512   75.12139893    0.05000000    0.09000000
   18.94527626   75.12139893    0.05000000    0.09000000
   18.94944382   77.97949982    0.05000000    0.09000000
   18.95277786   81.94149780    0.05000000    0.09000000
   18.95583344   80.32890320    0.05000000    0.09000000
   18.95916748   75.91359711    0.05000000    0.09000000
   18.96222305   78.26879883    0.05000000    0.09000000
   18.96555710   75.02860260    0.05000000    0.09000000
   18.96861076   77.51930237    0.05000000    0.09000000
   18.97194481   77.08360291    0.05000000    0.09000000
   18.97527885   80.18360138    0.05000000    0.09000000
   18.97833443   75.61160278    0.05000000    0.09000000
   18.98166656   76.40129852    0.05000000    0.09000000
   18.98277855   74.82050323    0.05000000    0.09000000
   18.98805618   74.82050323    0.05000000    0.09000000
   18.99222183   81.12259674    0.05000000    0.09000000
   18.99555588   78.97319794    0.05000000    0.09000000
   18.99861145   78.26789856    0.05000000    0.09000000
   19.00194359   74.86560059    0.05000000    0.09000000
   19.00499916   75.86949921    0.05000000    0.09000000
   19.00833321   78.42929840    0.05000000    0.09000000
   19.01166725   75.66580200    0.05000000    0.09000000
   19.01472282   76.65499878    0.05000000    0.09000000
   19.01611137   75.24340057    0.05000000    0.09000000
   19.01861000   73.63169861    0.05000000    0.09000000
   19.02166557   75.55979919    0.05000000    0.09000000
   19.02499962   75.34870148    0.05000000    0.09000000
   19.03111076   75.34870148    0.05000000    0.09000000
   19.03499985   73.14350128    0.05000000    0.09000000
   19.03833199   75.54730225    0.05000000    0.09000000
   19.04166603   74.89839935    0.05000000    0.09000000
   19.04472160   76.14029694    0.05000000    0.09000000
   19.04805565   77.66649628    0.05000000    0.09000000
   19.04944420   78.33850098    0.05000000    0.09000000
   19.05166626   74.90720367    0.05000000    0.09000000
   19.05472183   79.61100006    0.05000000    0.09000000
   19.05805397   78.43959808    0.05000000    0.09000000
   19.06110954   78.92109680    0.05000000    0.09000000
   19.06444359   79.40219879    0.05000000    0.09000000
   19.06750107   79.05729675    0.05000000    0.09000000
   19.07389069   79.05729675    0.05000000    0.09000000
   19.07805634   79.26640320    0.05000000    0.09000000
   19.08111191   80.51719666    0.05000000    0.09000000
   19.08277893   76.87159729    0.05000000    0.09000000
   19.08500099   77.88150024    0.05000000    0.09000000
   19.08805656   76.46389771    0.05000000    0.09000000
   19.09138870   76.92330170    0.05000000    0.09000000
   19.09472275   76.44519806    0.05000000    0.09000000
   19.09777832   77.70690155    0.05000000    0.09000000
   19.10111237   76.31359863    0.05000000    0.09000000
   19.10416794   76.95010376    0.05000000    0.09000000
   19.10750008   78.30629730    0.05000000    0.09000000
   19.11055565   78.65950012    0.05000000    0.09000000
   19.11666679   78.65950012    0.05000000    0.09000000
   19.12083435   75.92209625    0.05000000    0.09000000
   19.12388992   75.37449646    0.05000000    0.09000000
   19.12722206   76.90019989    0.05000000    0.09000000
   19.13055611   72.93869781    0.05000000    0.09000000
   19.13361168   76.91549683    0.05000000    0.09000000
   19.13694382   72.38289642    0.05000000    0.09000000
   19.13999939   77.36830139    0.05000000    0.09000000
   19.14333344   76.93890381    0.05000000    0.09000000
   19.14638901   74.74109650    0.05000000    0.09000000
   19.14944458   74.45610046    0.05000000    0.09000000
   19.15027809   76.41770172    0.05000000    0.09000000
   19.15333366   75.92819977    0.05000000    0.09000000
   19.15944481   75.92819977    0.05000000    0.09000000
   19.16361046   76.79560089    0.05000000    0.09000000
   19.16694450   75.02929688    0.05000000    0.09000000
   19.17000008   76.71779633    0.05000000    0.09000000
   19.17333221   75.38610077    0.05000000    0.09000000
   19.17638779   77.44709778    0.05000000    0.09000000
   19.17972183   77.79979706    0.05000000    0.09000000
   19.18277740   77.74559784    0.05000000    0.09000000
   19.18333244   76.77459717    0.05000000    0.09000000
   19.18638802   79.70429993    0.05000000    0.09000000
   19.18972206   76.97730255    0.05000000    0.09000000
   19.19277763   77.75289917    0.05000000    0.09000000
   19.19610977   77.43879700    0.05000000    0.09000000
   19.20250130   77.43879700    0.05000000    0.09000000
   19.20639038   74.92130280    0.05000000    0.09000000
   19.20972252   75.93450165    0.05000000    0.09000000
   19.21305656   76.01650238    0.05000000    0.09000000
   19.21611214   76.25509644    0.05000000    0.09000000
   19.21666718   76.87740326    0.05000000    0.09000000
   19.21972275   74.24919891    0.05000000    0.09000000
   19.22305679   76.80629730    0.05000000    0.09000000
   19.22611237   77.09719849    0.05000000    0.09000000
   19.22944450   73.55159760    0.05000000    0.09000000
   19.23277855   76.13339996    0.05000000    0.09000000
   19.23583412   73.20749664    0.05000000    0.09000000
   19.23916626   74.86810303    0.05000000    0.09000000
   19.24527740   74.86810303    0.05000000    0.09000000
   19.24944496   77.19960022    0.05000000    0.09000000
   19.25000000   76.12539673    0.05000000    0.09000000
   19.25305557   75.71099854    0.05000000    0.09000000
   19.25638962   73.13980103    0.05000000    0.09000000
   19.25944519   78.53260040    0.05000000    0.09000000
   19.26277733   77.56009674    0.05000000    0.09000000
   19.26611137   77.51010132    0.05000000    0.09000000
   19.26916695   78.13649750    0.05000000    0.09000000
   19.27249908   75.49349976    0.05000000    0.09000000
   19.27555466   77.62709808    0.05000000    0.09000000
   19.27888870   73.97380066    0.05000000    0.09000000
   19.28194427   73.64340210    0.05000000    0.09000000
   19.28333282   76.89659882    0.05000000    0.09000000
   19.28805542   76.89659882    0.05000000    0.09000000
   19.29222107   74.55400085    0.05000000    0.09000000
   19.29527664   76.12300110    0.05000000    0.09000000
   19.29861069   78.17350006    0.05000000    0.09000000
   19.30194283   78.36830139    0.05000000    0.09000000
   19.30499840   73.56020355    0.05000000    0.09000000
   19.30833244   77.44519806    0.05000000    0.09000000
   19.31138802   77.46350098    0.05000000    0.09000000
   19.31472206   80.25540161    0.05000000    0.09000000
   19.31666756   74.62640381    0.05000000    0.09000000
   19.31833458   75.91729736    0.05000000    0.09000000
   19.32166672   75.29360199    0.05000000    0.09000000
   19.32472229   75.54380035    0.05000000    0.09000000
   19.33083344   75.54380035    0.05000000    0.09000000
   19.33500099   77.61530304    0.05000000    0.09000000
   19.33833313   75.14520264    0.05000000    0.09000000
   19.34138870   79.47789764    0.05000000    0.09000000
   19.34472275   77.37249756    0.05000000    0.09000000
   19.34777832   76.71610260    0.05000000    0.09000000
   19.35000038   76.19349670    0.05000000    0.09000000
   19.35138893   78.98789978    0.05000000    0.09000000
   19.35472298   81.53029633    0.05000000    0.09000000
   19.35777855   78.74340057    0.05000000    0.09000000
   19.36111069   78.84850311    0.05000000    0.09000000
   19.36416626   76.31400299    0.05000000    0.09000000
   19.36750031   76.37560272    0.05000000    0.09000000
   19.37361145   76.37560272    0.05000000    0.09000000
   19.37777710   76.32630157    0.05000000    0.09000000
   19.38111115   81.55580139    0.05000000    0.09000000
   19.38333321   78.21630096    0.05000000    0.09000000
   19.38472176   74.96199799    0.05000000    0.09000000
   19.38805580   77.63189697    0.05000000    0.09000000
   19.39111137   78.99579620    0.05000000    0.09000000
   19.39444351   77.33090210    0.05000000    0.09000000
   19.39749908   75.83709717    0.05000000    0.09000000
   19.40083313   74.14520264    0.05000000    0.09000000
   19.40416718   76.60009766    0.05000000    0.09000000
   19.40722275   76.83760071    0.05000000    0.09000000
   19.41055489   78.79340363    0.05000000    0.09000000
   19.41666603   78.79340363    0.05000000    0.09000000
   19.42083359   78.61499786    0.05000000    0.09000000
   19.42388916   79.00019836    0.05000000    0.09000000
   19.42722130   76.39179993    0.05000000    0.09000000
   19.43027687   74.94730377    0.05000000    0.09000000
   19.43361092   78.72810364    0.05000000    0.09000000
   19.43666649   75.32910156    0.05000000    0.09000000
   19.43999863   78.86070251    0.05000000    0.09000000
   19.44333267   75.06800079    0.05000000    0.09000000
   19.44638824   77.70559692    0.05000000    0.09000000
   19.44972038   76.89990234    0.05000000    0.09000000
   19.45027924   76.23719788    0.05000000    0.09000000
   19.45333481   75.38590240    0.05000000    0.09000000
   19.45944595   75.38590240    0.05000000    0.09000000
   19.46361160   75.57180023    0.05000000    0.09000000
   19.46666718   76.77359772    0.05000000    0.09000000
   19.47000122   81.43450165    0.05000000    0.09000000
   19.47333336   74.43530273    0.05000000    0.09000000
   19.47638893   74.70850372    0.05000000    0.09000000
   19.47972298   74.02369690    0.05000000    0.09000000
   19.48277855   77.56890106    0.05000000    0.09000000
   19.48361206   74.07669830    0.05000000    0.09000000
   19.48638916   80.01069641    0.05000000    0.09000000
   19.48972321   74.06179810    0.05000000    0.09000000
   19.49277878   75.59449768    0.05000000    0.09000000
   19.49611092   78.59480286    0.05000000    0.09000000
   19.50222206   78.59480286    0.05000000    0.09000000
   19.50638962   78.74510193    0.05000000    0.09000000
   19.50972176   77.27269745    0.05000000    0.09000000
   19.51277733   80.14029694    0.05000000    0.09000000
   19.51611137   79.19429779    0.05000000    0.09000000
   19.51694489   76.73040009    0.05000000    0.09000000
   19.51972198   76.85279846    0.05000000    0.09000000
   19.52305603   81.71880341    0.05000000    0.09000000
   19.52611160   78.16179657    0.05000000    0.09000000
   19.52944374   79.21060181    0.05000000    0.09000000
   19.53249931   78.13110352    0.05000000    0.09000000
   19.53583336   74.87999725    0.05000000    0.09000000
   19.53916550   78.36910248    0.05000000    0.09000000
   19.54527664   78.36910248    0.05000000    0.09000000
   19.54916573   79.76879883    0.05000000    0.09000000
   19.55027771   75.34200287    0.05000000    0.09000000
   19.55277634   76.40049744    0.05000000    0.09000000
   19.55611038   78.87460327    0.05000000    0.09000000
   19.55916595   75.82949829    0.05000000    0.09000000
   19.56250000   82.50509644    0.05000000    0.09000000
   19.56555557   78.62020111    0.05000000    0.09000000
   19.56888962   76.50710297    0.05000000    0.09000000
   19.57222366   81.70010376    0.05000000    0.09000000
   19.57527924   78.51650238    0.05000000    0.09000000
   19.57861137   77.96990204    0.05000000    0.09000000
   19.58166695   75.87850189    0.05000000    0.09000000
   19.58361244   75.50779724    0.05000000    0.09000000
   19.58805656   75.50779724    0.05000000    0.09000000
   19.59222221   74.96859741    0.05000000    0.09000000
   19.59527779   77.71690369    0.05000000    0.09000000
   19.59861183   76.39540100    0.05000000    0.09000000
   19.60166740   75.41790009    0.05000000    0.09000000
   19.60499954   76.80259705    0.05000000    0.09000000
   19.60805511   78.28279877    0.05000000    0.09000000
   19.61138916   79.40110016    0.05000000    0.09000000
   19.61472321   74.60520172    0.05000000    0.09000000
   19.61694527   76.17790222    0.05000000    0.09000000
   19.61805534   77.16100311    0.05000000    0.09000000
   19.62138939   79.46389771    0.05000000    0.09000000
   19.62444496   80.31179810    0.05000000    0.09000000
   19.63083267   80.31179810    0.05000000    0.09000000
   19.63500023   78.22170258    0.05000000    0.09000000
   19.63805580   78.40489960    0.05000000    0.09000000
   19.64138794   81.30269623    0.05000000    0.09000000
   19.64472198   78.29170227    0.05000000    0.09000000
   19.64777756   76.55000305    0.05000000    0.09000000
   19.65027809   77.80139923    0.05000000    0.09000000
   19.65138817   78.46569824    0.05000000    0.09000000
   19.65472221   81.21320343    0.05000000    0.09000000
   19.65805435   77.34459686    0.05000000    0.09000000
   19.66110992   76.95539856    0.05000000    0.09000000
   19.66444397   75.00250244    0.05000000    0.09000000
   19.66749954   78.03820038    0.05000000    0.09000000
   19.67361069   78.03820038    0.05000000    0.09000000
   19.67777634   75.19519806    0.05000000    0.09000000
   19.68111038   78.83309937    0.05000000    0.09000000
   19.68361092   77.82009888    0.05000000    0.09000000
   19.68472099   80.93109894    0.05000000    0.09000000
   19.68805504   80.58309937    0.05000000    0.09000000
   19.69138718   77.49310303    0.05000000    0.09000000
   19.69444275   77.63200378    0.05000000    0.09000000
   19.69777679   81.43419647    0.05000000    0.09000000
   19.70083427   75.10119629    0.05000000    0.09000000
   19.70416832   75.82019806    0.05000000    0.09000000
   19.70750046   75.75589752    0.05000000    0.09000000
   19.71055603   75.82949829    0.05000000    0.09000000
   19.71638870   75.82949829    0.05000000    0.09000000
   19.73500061   81.08589935    0.05000000    0.09000000
   19.73805618   76.75090027    0.05000000    0.09000000
   19.74138832   79.05750275    0.05000000    0.09000000
   19.74472237   77.17759705    0.05000000    0.09000000
   19.74777794   79.25430298    0.05000000    0.09000000
   19.75111198   79.17299652    0.05000000    0.09000000
   19.75416756   83.10070038    0.05000000    0.09000000
   19.75972176   83.10070038    0.05000000    0.09000000
   19.76361084   77.09390259    0.05000000    0.09000000
   19.76694489   75.92070007    0.05000000    0.09000000
   19.76805496   78.05599976    0.05000000    0.09000000
   19.77055550   76.75579834    0.05000000    0.09000000
   19.77388954   80.24430084    0.05000000    0.09000000
   19.77722168   77.77890015    0.05000000    0.09000000
   19.78027725   80.32980347    0.05000000    0.09000000
   19.78361130   79.38330078    0.05000000    0.09000000
   19.78694344   78.74140167    0.05000000    0.09000000
   19.78999901   83.11260223    0.05000000    0.09000000
   19.79333305   79.39610291    0.05000000    0.09000000
   19.79638863   82.35050201    0.05000000    0.09000000
   19.80249977   82.35050201    0.05000000    0.09000000
   19.80666542   78.94850159    0.05000000    0.09000000
   19.80972099   78.24579620    0.05000000    0.09000000
   19.81305504   78.08480072    0.05000000    0.09000000
   19.81638718   80.93900299    0.05000000    0.09000000
   19.81944466   76.75409698    0.05000000    0.09000000
   19.82277870   78.38710022    0.05000000    0.09000000
   19.82583427   77.54650116    0.05000000    0.09000000
   19.82916832   77.18080139    0.05000000    0.09000000
   19.83250046   81.17489624    0.05000000    0.09000000
   19.83472252   78.21880341    0.05000000    0.09000000
   19.83583450   76.91089630    0.05000000    0.09000000
   19.83916664   78.02120209    0.05000000    0.09000000
   19.84527779   78.02120209    0.05000000    0.09000000
   19.84944534   79.22309875    0.05000000    0.09000000
   19.85277748   80.69670105    0.05000000    0.09000000
   19.85583305   77.88230133    0.05000000    0.09000000
   19.85916710   78.11119843    0.05000000    0.09000000
   19.86250114   77.38300323    0.05000000    0.09000000
   19.86555672   76.10739899    0.05000000    0.09000000
   19.86805534   80.75319672    0.05000000    0.09000000
   19.86916733   76.26159668    0.05000000    0.09000000
   19.87249947   79.37380219    0.05000000    0.09000000
   19.87583351   74.92780304    0.05000000    0.09000000
   19.87888908   79.02069855    0.05000000    0.09000000
   19.88222313   75.29910278    0.05000000    0.09000000
   19.88805580   75.29910278    0.05000000    0.09000000
   19.89222145   79.44740295    0.05000000    0.09000000
   19.89555550   77.65820313    0.05000000    0.09000000
   19.89861107   81.52819824    0.05000000    0.09000000
   19.90138817   81.25800323    0.05000000    0.09000000
   19.90222168   83.64630127    0.05000000    0.09000000
   19.90555573   80.27709961    0.05000000    0.09000000
   19.90888786   77.58010101    0.05000000    0.09000000
   19.91194344   77.42569733    0.05000000    0.09000000
   19.91527748   78.38249969    0.05000000    0.09000000
   19.91833305   78.07779694    0.05000000    0.09000000
   19.92166519   76.22380066    0.05000000    0.09000000
   19.92499924   78.29239655    0.05000000    0.09000000
   19.93111038   78.29239655    0.05000000    0.09000000
   19.93555450   77.83840179    0.05000000    0.09000000
   19.93888855   78.20490265    0.05000000    0.09000000
   19.94194412   76.90110016    0.05000000    0.09000000
   19.94527626   79.09459686    0.05000000    0.09000000
   19.94861031   74.53800201    0.05000000    0.09000000
   19.95166779   84.40249634    0.05000000    0.09000000
   19.95499992   80.74970245    0.05000000    0.09000000
   19.95833397   79.47609711    0.05000000    0.09000000
   19.96138954   79.81189728    0.05000000    0.09000000
   19.96472359   77.71379852    0.05000000    0.09000000
   19.96805573   86.39340210    0.05000000    0.09000000
   19.96833420   77.33750153    0.05000000    0.09000000
   19.97389030   77.33750153    0.05000000    0.09000000
   19.97805595   82.50080109    0.05000000    0.09000000
   19.98111153   82.50000000    0.05000000    0.09000000
   19.98444557   81.57050323    0.05000000    0.09000000
   19.98777771   77.39150238    0.05000000    0.09000000
   19.99083328   82.61380005    0.05000000    0.09000000
   19.99416733   79.42749786    0.05000000    0.09000000
   19.99722290   78.65760040    0.05000000    0.09000000
   20.00055504   77.55169678    0.05000000    0.09000000
   20.00138855   83.71420288    0.05000000    0.09000000
   20.00444412   82.89880371    0.05000000    0.09000000
   20.00749969   78.36070251    0.05000000    0.09000000
   20.01083374   78.67009735    0.05000000    0.09000000
   20.01666641   78.67009735    0.05000000    0.09000000
   20.02111053   82.06770325    0.05000000    0.09000000
   20.02444458   76.55629730    0.05000000    0.09000000
   20.02777672   77.54599762    0.05000000    0.09000000
   20.03111076   77.72129822    0.05000000    0.09000000
   20.03416634   79.06580353    0.05000000    0.09000000
   20.03472137   80.54869843    0.05000000    0.09000000
   20.03777695   79.18260193    0.05000000    0.09000000
   20.04111099   75.94090271    0.05000000    0.09000000
   20.04416656   79.04070282    0.05000000    0.09000000
   20.04749870   77.58380127    0.05000000    0.09000000
   20.05055428   76.54360199    0.05000000    0.09000000
   20.05388832   80.25550079    0.05000000    0.09000000
   20.05944443   80.25550079    0.05000000    0.09000000
   20.06361008   75.52089691    0.05000000    0.09000000
   20.06694603   78.37210083    0.05000000    0.09000000
   20.06805611   76.37079620    0.05000000    0.09000000
   20.07055664   76.83850098    0.05000000    0.09000000
   20.07389069   78.76000214    0.05000000    0.09000000
   20.07694626   75.87300110    0.05000000    0.09000000
   20.08027840   77.19460297    0.05000000    0.09000000
   20.08333397   78.48819733    0.05000000    0.09000000
   20.08666801   79.00980377    0.05000000    0.09000000
   20.09000015   78.25379944    0.05000000    0.09000000
   20.09305573   75.31330109    0.05000000    0.09000000
   20.09638977   75.87529755    0.05000000    0.09000000
   20.10250092   75.87529755    0.05000000    0.09000000
   20.10639000   76.94159698    0.05000000    0.09000000
   20.10972214   78.24130249    0.05000000    0.09000000
   20.11305618   77.40540314    0.05000000    0.09000000
   20.11611176   81.53700256    0.05000000    0.09000000
   20.11944389   73.40080261    0.05000000    0.09000000
   20.12249947   75.20390320    0.05000000    0.09000000
   20.12583351   77.64369965    0.05000000    0.09000000
   20.12916756   74.83529663    0.05000000    0.09000000
   20.13222313   76.42800140    0.05000000    0.09000000
   20.13472176   74.49310303    0.05000000    0.09000000
   20.13583374   74.96250153    0.05000000    0.09000000
   20.13916588   76.68000031    0.05000000    0.09000000
   20.14527702   76.68000031    0.05000000    0.09000000
   20.14944458   74.87010193    0.05000000    0.09000000
   20.15250015   77.58319855    0.05000000    0.09000000
   20.15583229   74.46530151    0.05000000    0.09000000
   20.15888786   76.27690125    0.05000000    0.09000000
   20.16222191   75.79609680    0.05000000    0.09000000
   20.16555595   78.97969818    0.05000000    0.09000000
   20.16805458   78.24069977    0.05000000    0.09000000
   20.16916656   76.43689728    0.05000000    0.09000000
   20.17249870   76.45269775    0.05000000    0.09000000
   20.17555428   74.11720276    0.05000000    0.09000000
   20.17888832   74.85959625    0.05000000    0.09000000
   20.18194389   73.60859680    0.05000000    0.09000000
   20.18805504   73.60859680    0.05000000    0.09000000
   20.19222069   76.52809906    0.05000000    0.09000000
   20.19555473   76.18769836    0.05000000    0.09000000
   20.19861031   79.88710022    0.05000000    0.09000000
   20.20138931   79.38999939    0.05000000    0.09000000
   20.20222282   79.50509644    0.05000000    0.09000000
   20.20555687   79.35140228    0.05000000    0.09000000
   20.20861244   77.79100037    0.05000000    0.09000000
   20.21194458   77.32460022    0.05000000    0.09000000
   20.21527863   81.43949890    0.05000000    0.09000000
   20.21833420   77.98040009    0.05000000    0.09000000
   20.22166634   82.69170380    0.05000000    0.09000000
   20.22472191   78.81719971    0.05000000    0.09000000
   20.23083305   78.81719971    0.05000000    0.09000000
   20.23500061   79.39880371    0.05000000    0.09000000
   20.23833275   78.55149841    0.05000000    0.09000000
   20.24166679   79.39520264    0.05000000    0.09000000
   20.24472237   78.21489716    0.05000000    0.09000000
   20.24805641   81.68360138    0.05000000    0.09000000
