    HOUR (UT)   FLARE FACTOR    SKY TESTER    SUN TESTER
   11.22777748   -1.00000000   -1.00000000   -1.00000000
   11.26388931   79.09680176    0.00000000    0.00000000
   11.26694393   91.48600006    0.00000000    0.00000000
   11.27027798   83.13469696    0.00000000    0.00000000
   11.27361107   77.86579895    0.00000000    0.00000000
   11.27666664   81.26290131    0.00000000    0.00000000
   11.27999973   86.44940186    0.00000000    0.00000000
   11.28416729   86.44940186    0.00000000    0.00000000
   11.28861141   79.37419891    0.00000000    0.00000000
   11.29194450   84.16320038    0.00000000    0.00000000
   11.29500008   94.69270325    0.00000000    0.00000000
   11.29722309   88.56819916    0.00000000    0.00000000
   11.29861164   83.13390350    0.00000000    0.00000000
   11.30194473   87.56420135    0.00000000    0.00000000
   11.30527782   81.27079773    0.00000000    0.00000000
   11.30833340   85.85479736    0.00000000    0.00000000
   11.31166649   77.12449646    0.00000000    0.00000000
   11.31472206   84.86550140    0.00000000    0.00000000
   11.31805515   86.11150360    0.00000000    0.00000000
   11.32138920   79.17549896    0.00000000    0.00000000
   11.32694435   79.17549896    0.00000000    0.00000000
   11.33111095   87.14800262    0.00000000    0.00000000
   11.33416653   82.96890259    0.00000000    0.00000000
   11.33749962   85.32399750    0.00000000    0.00000000
   11.34083271   79.64679718    0.25000000    0.19000000
   11.34388828   82.94239807    0.25000000    0.19000000
   11.34722233   89.21240234    0.25000000    0.19000000
   11.35055637   89.16889954    0.25000000    0.19000000
   11.35361195   86.92590332    0.25000000    0.19000000
   11.35694504   86.15519714    0.25000000    0.19000000
   11.36000061   80.11060333    0.25000000    0.19000000
   11.36333370   76.45230103    0.25000000    0.19000000
   11.36388969   75.76599884    0.25000000    0.19000000
   11.36972237   75.76599884    0.25000000    0.19000000
   11.37388897   83.29769897    0.25000000    0.19000000
   11.37722206   80.65670013    0.25000000    0.19000000
   11.38027763   74.02169800    0.25000000    0.19000000
   11.38361073   77.19319916    0.25000000    0.19000000
   11.38694477   79.90670013    0.25000000    0.19000000
   11.39000034   81.01540375    0.25000000    0.19000000
   11.39333344   77.16459656    0.25000000    0.19000000
   11.39638901   78.41760254    0.25000000    0.19000000
   11.39722252   77.32309723    0.25000000    0.19000000
   11.40027714   78.79779816    0.25000000    0.19000000
   11.40333271   77.32199860    0.25000000    0.19000000
   11.40666676   78.80000305    0.25000000    0.19000000
   11.41249943   78.80000305    0.25000000    0.19000000
   11.41666698   76.20539856    0.25000000    0.19000000
   11.42000008   75.06439972    0.25000000    0.19000000
   11.42333412   74.94300079    0.25000000    0.19000000
   11.42638874   77.49420166    0.25000000    0.19000000
   11.42972279   81.07350159    0.25000000    0.19000000
   11.43055630   81.83180237    0.25000000    0.19000000
   11.43361092   77.22570038    0.25000000    0.19000000
   11.43666649   77.67259979    0.25000000    0.19000000
   11.44000053   77.52519989    0.25000000    0.19000000
   11.44333363   77.20330048    0.25000000    0.19000000
   11.44638920   75.51080322    0.25000000    0.19000000
   11.44972229   78.91619873    0.25000000    0.19000000
   11.45555496   78.91619873    0.25000000    0.19000000
   11.45972157   76.79669952    0.25000000    0.19000000
   11.46277714   72.79429626    0.25000000    0.19000000
   11.46388912   75.14109802    0.25000000    0.19000000
   11.46666622   76.14299774    0.25000000    0.19000000
   11.46972179   77.24430084    0.25000000    0.19000000
   11.47305489   75.99050140    0.25000000    0.19000000
   11.47638798   72.74610138    0.25000000    0.19000000
   11.47944355   78.65920258    0.25000000    0.19000000
   11.48277760   76.61250305    0.25000000    0.19000000
   11.48583317   78.04399872    0.25000000    0.19000000
   11.48972225   78.06719971    0.25000000    0.19000000
   11.49305534   78.12239838    0.25000000    0.19000000
   11.49833393   78.12239838    0.25000000    0.19000000
   11.50249958   74.91239929    0.25000000    0.19000000
   11.50555515   75.93419647    0.25000000    0.19000000
   11.50888920   75.06390381    0.25000000    0.19000000
   11.51222229   76.93540192    0.25000000    0.19000000
   11.51555538   80.92780304    0.25000000    0.19000000
   11.51861095   75.83910370    0.25000000    0.19000000
   11.52194405   76.83860016    0.25000000    0.19000000
   11.52499962   77.75800323    0.25000000    0.19000000
   11.52833271   75.71600342    0.25000000    0.19000000
   11.53055573   80.97769928    0.25000000    0.19000000
   11.53194427   79.71450043    0.25000000    0.19000000
   11.53500080   79.79550171    0.25000000    0.19000000
   11.54111195   79.79550171    0.25000000    0.19000000
   11.54527855   77.66840363    0.25000000    0.19000000
   11.54861164   76.60389709    0.25000000    0.19000000
   11.55166721   77.44170380    0.25000000    0.19000000
   11.55500031   78.42530060    0.25000000    0.19000000
   11.55833340   77.36759949    0.25000000    0.19000000
   11.56138897   73.76820374    0.25000000    0.19000000
   11.56388950   76.43360138    0.25000000    0.19000000
   11.56527805   74.98149872    0.25000000    0.19000000
   11.56833363   79.68710327    0.25000000    0.19000000
   11.57166672   77.63559723    0.25000000    0.19000000
   11.57499981   79.38849640    0.25000000    0.19000000
   11.57805538   77.64050293    0.25000000    0.19000000
   11.58388901   77.64050293    0.25000000    0.19000000
   11.58805561   79.61090088    0.25000000    0.19000000
   11.59138870   76.61609650    0.25000000    0.19000000
   11.59472179   74.73970032    0.25000000    0.19000000
   11.59722233   75.54049683    0.25000000    0.19000000
   11.59833336   76.33760071    0.25000000    0.19000000
   11.60138893   77.79720306    0.25000000    0.19000000
   11.60472298   76.56700134    0.25000000    0.19000000
   11.60805607   73.87010193    0.25000000    0.19000000
   11.61111164   75.19889832    0.25000000    0.19000000
   11.61444473   76.38539886    0.25000000    0.19000000
   11.61777782   79.01999664    0.25000000    0.19000000
   11.62083340   78.62539673    0.25000000    0.19000000
   11.62694454   78.62539673    0.25000000    0.19000000
   11.63111115   81.12580109    0.25000000    0.19000000
   11.63416672   79.24269867    0.25000000    0.19000000
   11.63749981   83.95880127    0.25000000    0.19000000
   11.64055538   75.31919861    0.25000000    0.19000000
   11.64388847   75.57530212    0.25000000    0.19000000
   11.64722252   77.42459869    0.25000000    0.19000000
   11.65027714   73.97109985    0.25000000    0.19000000
   11.65361118   75.89540100    0.25000000    0.19000000
   11.65694427   75.60369873    0.25000000    0.19000000
   11.65999985   77.18060303    0.25000000    0.19000000
   11.66333294   76.20200348    0.25000000    0.19000000
   11.66388893   74.95179749    0.25000000    0.19000000
   11.66972256   74.95179749    0.25000000    0.19000000
   11.67388916   74.43430328    0.25000000    0.19000000
   11.67722225   78.81120300    0.25000000    0.19000000
   11.68027782   76.58260345    0.25000000    0.19000000
   11.68361092   76.74179840    0.25000000    0.19000000
   11.68666649   76.92839813    0.25000000    0.19000000
   11.69000053   76.54180145    0.25000000    0.19000000
   11.69333363   76.95939636    0.25000000    0.19000000
   11.69638920   76.44809723    0.25000000    0.19000000
   11.69722271   74.87979889    0.25000000    0.19000000
   11.70027733   76.39969635    0.25000000    0.19000000
   11.70333290   77.19080353    0.25000000    0.19000000
   11.70666695   77.26029968    0.25000000    0.19000000
   11.71249962   77.26029968    0.25000000    0.19000000
   11.71666622   75.93209839    0.25000000    0.19000000
   11.71999931   76.90969849    0.25000000    0.19000000
   11.72305489   77.73040009    0.25000000    0.19000000
   11.72638798   77.16079712    0.25000000    0.19000000
   11.72972202   80.37960052    0.25000000    0.19000000
   11.73055553   76.21820068    0.25000000    0.19000000
   11.73333359   77.19149780    0.25000000    0.19000000
   11.73638916   74.78839874    0.25000000    0.19000000
   11.73972225   72.24819946    0.25000000    0.19000000
   11.74305534   74.17649841    0.25000000    0.19000000
   11.74611092   77.84230042    0.25000000    0.19000000
   11.74944496   73.94120026    0.25000000    0.19000000
   11.75527763   73.94120026    0.25000000    0.19000000
   11.75944424   72.50199890    0.25000000    0.19000000
   11.76277733   76.34179688    0.25000000    0.19000000
   11.76388931   74.70690155    0.25000000    0.19000000
   11.76638889   75.99739838    0.25000000    0.19000000
   11.76972198   73.95980072    0.25000000    0.19000000
   11.77277756   79.66339874    0.25000000    0.19000000
   11.77611065   75.56230164    0.25000000    0.19000000
   11.77944374   70.17729950    0.25000000    0.19000000
   11.78249931   74.89779663    0.25000000    0.19000000
   11.78583336   76.19110107    0.25000000    0.19000000
   11.78888893   74.30439758    0.25000000    0.19000000
   11.79222298   75.76799774    0.25000000    0.19000000
   11.79833412   75.76799774    0.25000000    0.19000000
   11.80249977   77.62509918    0.25000000    0.19000000
   11.80555534   77.36519623    0.25000000    0.19000000
   11.80888939   76.73139954    0.25000000    0.19000000
   11.81194496   76.93550110    0.25000000    0.19000000
   11.81527805   76.50559998    0.25000000    0.19000000
   11.81861115   73.34089661    0.25000000    0.19000000
   11.82166672   75.67199707    0.25000000    0.19000000
   11.82499981   73.04979706    0.25000000    0.19000000
   11.82833290   75.82839966    0.25000000    0.19000000
   11.83055592   77.54440308    0.25000000    0.19000000
   11.83194447   75.18470001    0.25000000    0.19000000
   11.83500004   77.21779633    0.25000000    0.19000000
   11.84111118   77.21779633    0.25000000    0.19000000
   11.84527779   75.23169708    0.25000000    0.19000000
   11.84833336   76.97689819    0.25000000    0.19000000
   11.85166740   76.57720184    0.25000000    0.19000000
   11.85500050   76.08920288    0.25000000    0.19000000
   11.85805607   74.68180084    0.25000000    0.19000000
   11.86138916   78.58080292    0.25000000    0.19000000
   11.86388969   75.83789825    0.25000000    0.19000000
   11.86500072   78.30660248    0.25000000    0.19000000
   11.86805534   75.37329865    0.25000000    0.19000000
   11.87138939   75.43689728    0.25000000    0.19000000
   11.87472248   75.29329681    0.25000000    0.19000000
   11.87777805   79.85199738    0.25000000    0.19000000
   11.88388920   79.85199738    0.25000000    0.19000000
   11.88805580   75.44049835    0.25000000    0.19000000
   11.89138889   78.38939667    0.25000000    0.19000000
   11.89444447   75.54859924    0.25000000    0.19000000
   11.89722252   77.17030334    0.25000000    0.19000000
   11.89833355   74.88249969    0.25000000    0.19000000
   11.90138817   77.45490265    0.25000000    0.19000000
   11.90472221   78.79229736    0.25000000    0.19000000
   11.90805531   74.09739685    0.25000000    0.19000000
   11.91111088   77.01499939    0.25000000    0.19000000
   11.91444397   75.18969727    0.25000000    0.19000000
   11.91777802   74.52020264    0.25000000    0.19000000
   11.92083359   72.75640106    0.25000000    0.19000000
   11.92666721   72.75640106    0.25000000    0.19000000
   11.93083382   74.99909973    0.25000000    0.19000000
   11.93416691   72.40010071    0.25000000    0.19000000
   11.93750000   75.95600128    0.25000000    0.19000000
   11.94055557   77.11650085    0.25000000    0.19000000
   11.94416714   76.39779663    0.25000000    0.19000000
   11.94750023   79.98210144    0.25000000    0.19000000
   11.95055580   73.14730072    0.25000000    0.19000000
   11.95388889   76.47100067    0.25000000    0.19000000
   11.95694447   77.46820068    0.25000000    0.19000000
   11.96027756   77.85959625    0.25000000    0.19000000
   11.96361065   76.85240173    0.25000000    0.19000000
   11.96416664   74.35739899    0.25000000    0.19000000
   11.96972179   74.35739899    0.25000000    0.19000000
   11.97361088   75.20459747    0.25000000    0.19000000
   11.97694397   77.96589661    0.25000000    0.19000000
   11.98027706   78.27500153    0.25000000    0.19000000
   11.98333359   85.42980194    0.25000000    0.19000000
   11.98666668   75.46820068    0.25000000    0.19000000
   11.99000072   77.83899689    0.25000000    0.19000000
   11.99305534   76.06230164    0.25000000    0.19000000
   11.99638939   76.80840302    0.25000000    0.19000000
   11.99750042   75.80419922    0.25000000    0.19000000
   12.00000000   78.96279907    0.25000000    0.19000000
   12.00333309   79.65370178    0.25000000    0.19000000
   12.00666714   76.34999847    0.25000000    0.19000000
   12.01249981   76.34999847    0.25000000    0.19000000
   12.01666641   75.25969696    0.25000000    0.19000000
   12.01972198   75.49299622    0.25000000    0.19000000
   12.02305508   74.81390381    0.25000000    0.19000000
   12.02638817   74.49389648    0.25000000    0.19000000
   12.02944374   75.46330261    0.25000000    0.19000000
   12.03083324   78.04329681    0.25000000    0.19000000
   12.03305531   79.42500305    0.25000000    0.19000000
   12.03638935   77.75630188    0.25000000    0.19000000
   12.03972244   76.50129700    0.25000000    0.19000000
   12.04277802   78.41000366    0.25000000    0.19000000
   12.04611111   76.32910156    0.25000000    0.19000000
   12.04916668   79.59049988    0.25000000    0.19000000
   12.05527782   79.59049988    0.25000000    0.19000000
   12.05944443   74.71199799    0.25000000    0.19000000
   12.06277752   73.33419800    0.25000000    0.19000000
   12.06416702   73.19010162    0.25000000    0.19000000
   12.06611156   74.41390228    0.25000000    0.19000000
   12.06944466   73.50240326    0.25000000    0.19000000
   12.07277775   78.07779694    0.25000000    0.19000000
   12.07583332   73.77580261    0.25000000    0.19000000
   12.07916641   82.76760101    0.25000000    0.19000000
   12.08222198   76.11180115    0.25000000    0.19000000
   12.08555508   76.42780304    0.25000000    0.19000000
   12.08888817   72.67980194    0.25000000    0.19000000
   12.09194374   77.31610107    0.25000000    0.19000000
   12.09805489   77.31610107    0.25000000    0.19000000
   12.10222244   71.88760376    0.25000000    0.19000000
   12.10555553   75.23570251    0.25000000    0.19000000
   12.10861111   73.42469788    0.25000000    0.19000000
   12.11194515   74.62629700    0.25000000    0.19000000
   12.11527824   75.75499725    0.25000000    0.19000000
   12.11833382   83.61990356    0.25000000    0.19000000
   12.12166691   78.42680359    0.25000000    0.19000000
   12.12500000   80.97699738    0.25000000    0.19000000
   12.12805557   77.92600250    0.25000000    0.19000000
   12.13083363   74.87960052    0.25000000    0.19000000
   12.13166714   77.93289948    0.25000000    0.19000000
   12.13500023   80.93489838    0.25000000    0.19000000
   12.14111137   80.93489838    0.25000000    0.19000000
   12.14499950   79.85310364    0.25000000    0.19000000
   12.14833355   76.46749878    0.25000000    0.19000000
   12.15166664   79.64070129    0.25000000    0.19000000
   12.15472221   75.81800079    0.25000000    0.19000000
   12.15805531   77.70619965    0.25000000    0.19000000
   12.16138840   77.29229736    0.25000000    0.19000000
   12.16416645   80.83920288    0.25000000    0.19000000
   12.16472149   75.69609833    0.25000000    0.19000000
   12.16805553   70.54340363    0.25000000    0.19000000
   12.17138958   71.80729675    0.25000000    0.19000000
   12.17444515   74.35990143    0.25000000    0.19000000
   12.17777824   75.94830322    0.25000000    0.19000000
   12.18388939   75.94830322    0.25000000    0.19000000
   12.18805599   79.04750061    0.25000000    0.19000000
   12.19111156   73.60980225    0.25000000    0.19000000
   12.19444466   74.83599854    0.25000000    0.19000000
   12.19750023   77.19570160    0.25000000    0.19000000
   12.19805527   76.57319641    0.25000000    0.19000000
   12.20138836   76.35240173    0.25000000    0.19000000
   12.20472240   77.04239655    0.25000000    0.19000000
   12.20777798   78.48040009    0.25000000    0.19000000
   12.21111107   77.50659943    0.25000000    0.19000000
   12.21416664   80.27310181    0.25000000    0.19000000
   12.21749973   80.67790222    0.25000000    0.19000000
   12.22083282   73.04250336    0.25000000    0.19000000
   12.22666645   73.04250336    0.25000000    0.19000000
   12.23083305   78.53869629    0.25000000    0.19000000
   12.23416710   76.15879822    0.25000000    0.19000000
   12.23722267   75.85510254    0.25000000    0.19000000
   12.24055576   79.31250000    0.25000000    0.19000000
   12.24361134   75.14080048    0.25000000    0.19000000
   12.24694443   74.83580017    0.25000000    0.19000000
   12.25027752   74.37920380    0.25000000    0.19000000
   12.25333309   77.77929688    0.25000000    0.19000000
   12.25666714   75.69259644    0.25000000    0.19000000
   12.26000023   79.25800323    0.25000000    0.19000000
   12.26305580   81.55339813    0.25000000    0.19000000
   12.26416683   75.61119843    0.25000000    0.19000000
   12.28472233   75.61119843    0.25000000    0.19000000
   12.28888893   74.55529785    0.25000000    0.19000000
   12.29222298   83.98909760    0.25000000    0.19000000
   12.29527855   -1.00000000    0.25000000    0.19000000
   12.29888916   -1.00000000    0.25000000    0.19000000
   12.30222225   79.51640320    0.25000000    0.19000000
   12.30527782   83.00279999    0.25000000    0.19000000
   12.30861092   78.18640137    0.25000000    0.19000000
   12.31166649   76.02880096    0.25000000    0.19000000
   12.31500053   75.25409698    0.25000000    0.19000000
   12.31833363   78.77149963    0.25000000    0.19000000
   12.32166672   76.50900269    0.25000000    0.19000000
   12.32750034   76.50900269    0.25000000    0.19000000
   12.33166695   78.03060150    0.25000000    0.19000000
   12.33472157   80.73970032    0.25000000    0.19000000
   12.33805561   74.95800018    0.25000000    0.19000000
   12.34138870   84.46759796    0.25000000    0.19000000
   12.34444427   74.48480225    0.25000000    0.19000000
   12.34777737   73.38629913    0.25000000    0.19000000
   12.35083389   75.84670258    0.25000000    0.19000000
   12.35416698   75.17109680    0.25000000    0.19000000
   12.35750008   75.81189728    0.25000000    0.19000000
   12.36055565   76.42420197    0.25000000    0.19000000
   12.36388969   75.45919800    0.25000000    0.19000000
   12.36444473   75.40989685    0.25000000    0.19000000
   12.37027836   75.40989685    0.25000000    0.19000000
   12.37444496   74.68139648    0.25000000    0.19000000
   12.37777805   75.25469971    0.25000000    0.19000000
   12.38083363   77.23020172    0.25000000    0.19000000
   12.38416672   80.15689850    0.25000000    0.19000000
   12.38749981   76.18430328    0.25000000    0.19000000
   12.39055538   77.26260376    0.25000000    0.19000000
   12.39388847   76.42019653    0.25000000    0.19000000
   12.39694405   76.90689850    0.25000000    0.19000000
   12.39777756   79.73320007    0.25000000    0.19000000
   12.40083313   77.12090302    0.25000000    0.19000000
   12.40388870   77.44460297    0.25000000    0.19000000
   12.40722179   75.28019714    0.25000000    0.19000000
   12.41305542   75.28019714    0.25000000    0.19000000
   12.41722298   80.75150299    0.25000000    0.19000000
   12.42055607   79.80190277    0.25000000    0.19000000
   12.42361164   79.98429871    0.25000000    0.19000000
   12.42694473   74.79450226    0.25000000    0.19000000
   12.43027782   75.69180298    0.25000000    0.19000000
   12.43111134   78.73149872    0.25000000    0.19000000
   12.43388939   81.79650116    0.25000000    0.19000000
   12.43694496   80.12850189    0.25000000    0.19000000
   12.44027805   75.16979980    0.25000000    0.19000000
   12.44361115   74.47859955    0.25000000    0.19000000
   12.44666672   77.16069794    0.25000000    0.19000000
   12.44999981   73.77120209    0.25000000    0.19000000
   12.45611095   73.77120209    0.25000000    0.19000000
   12.46027756   72.38909912    0.25000000    0.19000000
   12.46333313   76.64340210    0.25000000    0.19000000
   12.46444416   78.24880219    0.25000000    0.19000000
   12.46722221   80.36190033    0.25000000    0.19000000
   12.47027779   76.02970123    0.25000000    0.19000000
   12.47361088   77.64309692    0.25000000    0.19000000
   12.47694397   75.34690094    0.25000000    0.19000000
   12.47999954   75.81870270    0.25000000    0.19000000
   12.48333359   70.16390228    0.25000000    0.19000000
   12.48638916   82.54119873    0.25000000    0.19000000
   12.48972225   75.45040131    0.25000000    0.19000000
   12.49305534   73.11389923    0.25000000    0.19000000
   12.49888897   73.11389923    0.25000000    0.19000000
   12.50305557   73.11990356    0.25000000    0.19000000
   12.50638866   74.79570007    0.25000000    0.19000000
   12.50944424   75.55570221    0.25000000    0.19000000
   12.51277733   78.10449982    0.25000000    0.19000000
   12.51583290   74.20539856    0.25000000    0.19000000
   12.51916599   75.80529785    0.25000000    0.19000000
   12.52250004   74.52239990    0.25000000    0.19000000
   12.52583313   76.55909729    0.25000000    0.19000000
   12.52888870   74.50520325    0.25000000    0.19000000
   12.53111076   74.46569824    0.25000000    0.19000000
   12.53277779   78.16230011    0.25000000    0.19000000
   12.53583336   74.65270233    0.25000000    0.19000000
   12.54166698   74.65270233    0.25000000    0.19000000
   12.54583359   72.90599823    0.25000000    0.19000000
   12.54916668   78.29160309    0.25000000    0.19000000
   12.55222225   75.54260254    0.25000000    0.19000000
   12.55555534   78.58689880    0.25000000    0.19000000
   12.55861092   72.20520020    0.25000000    0.19000000
   12.56194496   74.44709778    0.25000000    0.19000000
   12.56444454   74.81770325    0.25000000    0.19000000
   12.56583309   75.02600098    0.25000000    0.19000000
   12.56888866   78.77030182    0.25000000    0.19000000
   12.57222176   75.61679840    0.25000000    0.19000000
   12.57527733   77.92630005    0.25000000    0.19000000
   12.57861137   75.56780243    0.25000000    0.19000000
   12.58444405   75.56780243    0.25000000    0.19000000
   12.58861065   75.58090210    0.25000000    0.19000000
   12.59194374   79.49440002    0.25000000    0.19000000
   12.59527779   76.99949646    0.25000000    0.19000000
   12.59777737   80.07949829    0.25000000    0.19000000
   12.59888840   72.32340240    0.25000000    0.19000000
   12.60194492   72.38960266    0.25000000    0.19000000
   12.60527802   75.12660217    0.25000000    0.19000000
   12.60833359   74.70069885    0.25000000    0.19000000
   12.61166668   77.30100250    0.25000000    0.19000000
   12.61500072   72.68440247    0.25000000    0.19000000
   12.61805534   72.77950287    0.25000000    0.19000000
   12.62138939   78.87689972    0.25000000    0.19000000
   12.62750053   78.87689972    0.25000000    0.19000000
   12.63138866   74.80130005    0.25000000    0.19000000
   12.63472176   75.09909821    0.25000000    0.19000000
   12.63805580   72.02339935    0.25000000    0.19000000
   12.64111137   77.71640015    0.25000000    0.19000000
   12.64444447   72.58950043    0.25000000    0.19000000
   12.64777756   75.12259674    0.25000000    0.19000000
   12.65083313   74.02480316    0.25000000    0.19000000
   12.65416622   74.04440308    0.25000000    0.19000000
   12.65722179   73.45169830    0.25000000    0.19000000
   12.66055489   72.45619965    0.25000000    0.19000000
   12.66388893   86.02580261    0.25000000    0.19000000
   12.66444397   75.49610138    0.25000000    0.19000000
   12.67027855   75.49610138    0.25000000    0.19000000
   12.67444515   75.42729950    0.25000000    0.19000000
   12.67750072   74.03269958    0.25000000    0.19000000
   12.68083382   73.35009766    0.25000000    0.19000000
   12.68416691   76.39479828    0.25000000    0.19000000
   12.68722248   71.12689972    0.25000000    0.19000000
   12.69055557   74.42350006    0.25000000    0.19000000
   12.69388866   73.48819733    0.25000000    0.19000000
   12.69694424   75.28869629    0.25000000    0.19000000
   12.69777775   77.74510193    0.25000000    0.19000000
   12.70055580   80.28669739    0.25000000    0.19000000
   12.70361137   74.82289886    0.25000000    0.19000000
   12.70694447   73.24859619    0.25000000    0.19000000
   12.71305561   73.24859619    0.25000000    0.19000000
   12.71722221   75.29129791    0.25000000    0.19000000
   12.72055531   72.15270233    0.25000000    0.19000000
   12.72361088   72.13369751    0.25000000    0.19000000
   12.72694397   73.64730072    0.25000000    0.19000000
   12.73027706   74.67179871    0.25000000    0.19000000
   12.73111057   72.36779785    0.25000000    0.19000000
   12.73388958   75.05650330    0.25000000    0.19000000
   12.73694515   74.21060181    0.25000000    0.19000000
   12.74027824   73.53279877    0.25000000    0.19000000
   12.74361134   75.65540314    0.25000000    0.19000000
   12.74666691   76.40959930    0.25000000    0.19000000
   12.75000000   77.09369659    0.25000000    0.19000000
   12.75583363   77.09369659    0.25000000    0.19000000
   12.76000023   74.74179840    0.25000000    0.19000000
   12.76333332   74.37319946    0.25000000    0.19000000
   12.76444435   78.02770233    0.25000000    0.19000000
   12.76694393   79.86990356    0.25000000    0.19000000
   12.76999950   76.12259674    0.25000000    0.19000000
   12.77333355   77.51149750    0.25000000    0.19000000
   12.77666664   76.91089630    0.25000000    0.19000000
   12.77972221   76.29010010    0.25000000    0.19000000
   12.78305531   74.34400177    0.25000000    0.19000000
   12.78611183   74.47660065    0.25000000    0.19000000
   12.78944492   75.28369904    0.25000000    0.19000000
   12.79277802   78.19110107    0.25000000    0.19000000
   12.79888916   78.19110107    0.25000000    0.19000000
   12.80277824   78.40879822    0.25000000    0.19000000
   12.80611134   80.50669861    0.25000000    0.19000000
   12.80944443   74.17330170    0.25000000    0.19000000
   12.81250000   75.34400177    0.25000000    0.19000000
   12.81583309   77.29969788    0.25000000    0.19000000
   12.81916618   77.18240356    0.25000000    0.19000000
   12.82222176   76.23210144    0.25000000    0.19000000
   12.82555580   77.34200287    0.25000000    0.19000000
   12.82888889   79.01069641    0.25000000    0.19000000
   12.83111095   75.40280151    0.25000000    0.19000000
   12.83249950   74.27310181    0.25000000    0.19000000
   12.83555508   79.21479797    0.25000000    0.19000000
   12.84166622   79.21479797    0.25000000    0.19000000
   12.84583282   81.09770203    0.25000000    0.19000000
   12.84888840   77.61769867    0.25000000    0.19000000
   12.85222244   75.64089966    0.25000000    0.19000000
   12.85555553   80.59420013    0.25000000    0.19000000
   12.85861111   78.81210327    0.25000000    0.19000000
   12.86194515   80.19480133    0.25000000    0.19000000
   12.86444473   72.54199982    0.25000000    0.19000000
   12.86555576   69.45680237    0.25000000    0.19000000
   12.86861134   75.46450043    0.25000000    0.19000000
   12.87194443   72.33370209    0.25000000    0.19000000
   12.87527752   71.36039734    0.25000000    0.19000000
   12.87833309   72.46530151    0.25000000    0.19000000
   12.88444424   72.46530151    0.25000000    0.19000000
   12.88861084   74.30220032    0.25000000    0.19000000
   12.89194393   78.12329865    0.25000000    0.19000000
   12.89499950   76.83570099    0.25000000    0.19000000
   12.89777756   72.28749847    0.25000000    0.19000000
   12.89888859   72.57399750    0.25000000    0.19000000
   12.90194416   73.72740173    0.25000000    0.19000000
   12.90527725   77.22419739    0.25000000    0.19000000
   12.90861034   76.58740234    0.25000000    0.19000000
   12.91166592   75.21150208    0.25000000    0.19000000
   12.91499996   77.24210358    0.25000000    0.19000000
   12.91805553   74.99210358    0.25000000    0.19000000
   12.92138958   73.50800323    0.25000000    0.19000000
   12.92722225   73.50800323    0.25000000    0.19000000
   12.93138885   81.83039856    0.25000000    0.19000000
   12.93472195   79.86740112    0.25000000    0.19000000
   12.93777752   78.31210327    0.25000000    0.19000000
   12.94111156   78.89299774    0.25000000    0.19000000
   12.94444466   79.00309753    0.25000000    0.19000000
   12.94750023   76.93509674    0.25000000    0.19000000
   12.95083332   78.69049835    0.25000000    0.19000000
   12.95416641   74.33640289    0.25000000    0.19000000
   12.95722198   75.87660217    0.25000000    0.19000000
   12.96055508   74.72380066    0.25000000    0.19000000
   12.96388912   75.65260315    0.25000000    0.19000000
   12.96444416   77.18470001    0.25000000    0.19000000
   12.97027779   77.18470001    0.25000000    0.19000000
   12.97444439   74.28510284    0.25000000    0.19000000
   12.97749996   73.56800079    0.25000000    0.19000000
   12.98083305   73.82790375    0.25000000    0.19000000
   12.98388958   72.65019989    0.25000000    0.19000000
   12.98722267   72.99909973    0.25000000    0.19000000
   12.99055576   79.36660004    0.25000000    0.19000000
   12.99388885   76.10340118    0.25000000    0.19000000
   12.99694443   80.59889984    0.25000000    0.19000000
   12.99777794   74.59980011    0.25000000    0.19000000
   13.00055599   77.16799927    0.25000000    0.19000000
   13.00388908   78.99680328    0.25000000    0.19000000
   13.00694466   78.35990143    0.25000000    0.19000000
   13.01305580   78.35990143    0.25000000    0.19000000
   13.01722240   74.49729919    0.25000000    0.19000000
   13.02027798   74.98020172    0.25000000    0.19000000
   13.02361107   76.52330017    0.25000000    0.19000000
   13.02694416   73.46170044    0.25000000    0.19000000
   13.02999973   77.82859802    0.25000000    0.19000000
   13.03111076   77.16339874    0.25000000    0.19000000
   13.03361130   75.97170258    0.25000000    0.19000000
   13.03666687   73.86280060    0.25000000    0.19000000
   13.04000092   71.35620117    0.25000000    0.19000000
   13.04333401   74.52130127    0.25000000    0.19000000
   13.04638958   76.16310120    0.25000000    0.19000000
   13.04972267   78.72530365    0.25000000    0.19000000
   13.05583382   78.72530365    0.25000000    0.19000000
   13.06000042   74.21499634    0.25000000    0.19000000
   13.06333351   73.03160095    0.25000000    0.19000000
   13.06444454   72.00379944    0.25000000    0.19000000
   13.06694412   75.00679779    0.25000000    0.19000000
   13.07027817   73.69909668    0.25000000    0.19000000
   13.07333374   74.81780243    0.25000000    0.19000000
   13.07666683   76.17710114    0.25000000    0.19000000
   13.07972240   73.21119690    0.25000000    0.19000000
   13.08305550   73.35399628    0.25000000    0.19000000
   13.08638859   73.79579926    0.25000000    0.19000000
   13.08944416   75.93769836    0.25000000    0.19000000
   13.09277725   76.87560272    0.25000000    0.19000000
   13.09861088   76.87560272    0.25000000    0.19000000
   13.10277843   74.21109772    0.25000000    0.19000000
   13.10611153   77.12159729    0.25000000    0.19000000
   13.10916710   73.16940308    0.25000000    0.19000000
   13.11250019   74.64920044    0.25000000    0.19000000
   13.11583328   71.61710358    0.25000000    0.19000000
   13.11888885   76.95410156    0.25000000    0.19000000
   13.12222195   73.21659851    0.25000000    0.19000000
   13.12555599   75.05519867    0.25000000    0.19000000
   13.12861156   71.75910187    0.25000000    0.19000000
   13.13111115   73.11319733    0.25000000    0.19000000
   13.13222218   71.76219940    0.25000000    0.19000000
   13.13527775   73.72679901    0.25000000    0.19000000
   13.14166641   73.72679901    0.25000000    0.19000000
   13.14555550   79.58850098    0.25000000    0.19000000
   13.14888859   76.28579712    0.25000000    0.19000000
   13.15222168   77.34120178    0.25000000    0.19000000
   13.15527725   76.91149902    0.25000000    0.19000000
   13.15861034   71.69899750    0.25000000    0.19000000
   13.16194439   77.92199707    0.25000000    0.19000000
   13.16444397   73.43990326    0.25000000    0.19000000
   13.16555500   74.20059967    0.25000000    0.19000000
   13.16861153   78.34190369    0.25000000    0.19000000
   13.17194462   73.98249817    0.25000000    0.19000000
   13.17527771   71.83999634    0.25000000    0.19000000
   13.17833328   76.58650208    0.25000000    0.19000000
   13.18444443   76.58650208    0.25000000    0.19000000
   13.18861103   76.29209900    0.25000000    0.19000000
   13.19166660   73.55539703    0.25000000    0.19000000
   13.19499969   74.23079681    0.25000000    0.19000000
   13.19777775   75.69129944    0.25000000    0.19000000
   13.19861126   73.75610352    0.25000000    0.19000000
   13.20166683   76.05010223    0.25000000    0.19000000
   13.20499992   77.60130310    0.25000000    0.19000000
   13.20833302   76.80930328    0.25000000    0.19000000
   13.21138859   71.14270020    0.25000000    0.19000000
   13.21472168   73.31770325    0.25000000    0.19000000
   13.21805477   73.09799957    0.25000000    0.19000000
   13.22111034   72.68640137    0.25000000    0.19000000
   13.22722149   72.68640137    0.25000000    0.19000000
   13.23138809   76.97100067    0.25000000    0.19000000
   13.23472214   73.64479828    0.25000000    0.19000000
   13.23777771   82.40280151    0.25000000    0.19000000
   13.24111176   73.67600250    0.25000000    0.19000000
   13.24416733   73.61840057    0.25000000    0.19000000
   13.24750042   78.40560150    0.25000000    0.19000000
   13.25083351   77.81559753    0.25000000    0.19000000
   13.25388908   79.19159698    0.25000000    0.19000000
   13.25722218   79.63390350    0.25000000    0.19000000
   13.26055527   72.69349670    0.25000000    0.19000000
   13.26361084   75.64389801    0.25000000    0.19000000
   13.26444435   73.68319702    0.25000000    0.19000000
   13.26999950   73.68319702    0.25000000    0.19000000
   13.27416611   77.53970337    0.25000000    0.19000000
   13.27750015   75.14830017    0.25000000    0.19000000
   13.28055573   75.62310028    0.25000000    0.19000000
   13.29833412   74.68489838    0.25000000    0.19000000
   13.30055618   73.95279694    0.25000000    0.19000000
   13.30388927   76.57080078    0.25000000    0.19000000
   13.30722237   73.66349792    0.25000000    0.19000000
   13.31305599   73.66349792    0.25000000    0.19000000
   13.31722260   75.67880249    0.25000000    0.19000000
   13.32055569   76.90209961    0.25000000    0.19000000
   13.32361126   78.90029907    0.25000000    0.19000000
   13.32694435   76.65889740    0.25000000    0.19000000
   13.33027744   78.54209900    0.25000000    0.19000000
   13.33138847   77.91880035    0.25000000    0.19000000
   13.33388901   73.82980347    0.25000000    0.19000000
   13.33722210   71.94840240    0.25000000    0.19000000
   13.34027767   75.56549835    0.25000000    0.19000000
   13.34361076   77.60079956    0.25000000    0.19000000
   13.34694386   73.18309784    0.25000000    0.19000000
   13.35000038   75.91840363    0.25000000    0.19000000
   13.35611153   75.91840363    0.25000000    0.19000000
   13.36000061   76.81860352    0.25000000    0.19000000
   13.36333370   71.97789764    0.25000000    0.19000000
   13.36472225   75.67179871    0.25000000    0.19000000
   13.36694431   74.81539917    0.25000000    0.19000000
   13.37027836   72.99030304    0.25000000    0.19000000
   13.37333393   73.95259857    0.25000000    0.19000000
   13.37666702   78.21109772    0.25000000    0.19000000
   13.37972260   77.96299744    0.25000000    0.19000000
   13.38305569   74.55059814    0.25000000    0.19000000
   13.38638878   74.71369934    0.25000000    0.19000000
   13.38944435   73.04329681    0.25000000    0.19000000
   13.39277744   72.72840118    0.25000000    0.19000000
   13.39888859   72.72840118    0.25000000    0.19000000
   13.40305519   75.02089691    0.25000000    0.19000000
   13.40611076   74.66310120    0.25000000    0.19000000
   13.40944386   76.57749939    0.25000000    0.19000000
   13.41277695   77.27860260    0.25000000    0.19000000
   13.41583252   77.86509705    0.25000000    0.19000000
   13.41916656   77.16419983    0.25000000    0.19000000
   13.42250061   73.17369843    0.25000000    0.19000000
   13.42555618   74.36840057    0.25000000    0.19000000
   13.42888927   70.53119659    0.25000000    0.19000000
   13.43138885   71.51480103    0.25000000    0.19000000
   13.43249989   72.68199921    0.25000000    0.19000000
   13.43583298   71.93370056    0.25000000    0.19000000
   13.44166660   71.93370056    0.25000000    0.19000000
   13.44583321   75.33760071    0.25000000    0.19000000
   13.44916630   74.30599976    0.25000000    0.19000000
   13.45222187   73.18450165    0.25000000    0.19000000
   13.45555496   72.98840332    0.25000000    0.19000000
   13.45888901   73.88870239    0.25000000    0.19000000
   13.46194458   74.24479675    0.25000000    0.19000000
   13.46472168   72.43579865    0.25000000    0.19000000
   13.46555519   72.42220306    0.25000000    0.19000000
   13.46888828   77.88980103    0.25000000    0.19000000
   13.47194386   73.79709625    0.25000000    0.19000000
   13.47527695   71.01560211    0.25000000    0.19000000
   13.47833252   74.18060303    0.25000000    0.19000000
   13.48444462   74.18060303    0.25000000    0.19000000
   13.48861122   75.09989929    0.25000000    0.19000000
   13.49194431   78.45010376    0.25000000    0.19000000
   13.49499989   73.98709869    0.25000000    0.19000000
   13.49805546   73.60479736    0.25000000    0.19000000
   13.49861145   73.12650299    0.25000000    0.19000000
   13.50194454   75.61930084    0.25000000    0.19000000
   13.50500011   74.40419769    0.25000000    0.19000000
   13.50833321   81.07070160    0.25000000    0.19000000
   13.51166630   76.82129669    0.25000000    0.19000000
   13.51472187   77.69999695    0.25000000    0.19000000
   13.51805496   77.99680328    0.25000000    0.19000000
   13.52138901   75.52339935    0.25000000    0.19000000
   13.52722168   75.52339935    0.25000000    0.19000000
   13.53138828   76.04820251    0.25000000    0.19000000
   13.53472233   76.75700378    0.25000000    0.19000000
   13.53805637   73.16940308    0.25000000    0.19000000
   13.54111195   73.40920258    0.25000000    0.19000000
   13.54444504   75.65760040    0.25000000    0.19000000
   13.54750061   73.27140045    0.25000000    0.19000000
   13.55083370   75.89800262    0.25000000    0.19000000
   13.55416679   73.51889801    0.25000000    0.19000000
   13.55722237   74.20040131    0.25000000    0.19000000
   13.56055546   75.86810303    0.25000000    0.19000000
   13.56388950   75.93810272    0.25000000    0.19000000
   13.56472206   73.72200012    0.25000000    0.19000000
   13.57027817   73.72200012    0.25000000    0.19000000
   13.57444477   77.09799957    0.25000000    0.19000000
   13.57750034   73.64299774    0.25000000    0.19000000
   13.58083344   75.10710144    0.25000000    0.19000000
   13.58388901   74.62449646    0.25000000    0.19000000
   13.58722210   77.80049896    0.25000000    0.19000000
   13.59055519   74.74269867    0.25000000    0.19000000
   13.59361076   74.03160095    0.25000000    0.19000000
   13.59694386   75.20110321    0.25000000    0.19000000
   13.59833336   76.17729950    0.25000000    0.19000000
   13.60055637   74.03959656    0.25000000    0.19000000
   13.60388947   76.03320313    0.25000000    0.19000000
   13.60694504   77.03459930    0.25000000    0.19000000
   13.61305618   77.03459930    0.25000000    0.19000000
   13.61722279   76.04820251    0.25000000    0.19000000
   13.62027836   72.46669769    0.25000000    0.19000000
   13.62361145   75.44819641    0.25000000    0.19000000
   13.62694454   74.88809967    0.25000000    0.19000000
   13.63000011   73.51809692    0.25000000    0.19000000
   13.63138866   76.35459900    0.25000000    0.19000000
   13.63361073   73.81770325    0.25000000    0.19000000
   13.63694477   76.95259857    0.25000000    0.19000000
   13.64000034   71.84529877    0.25000000    0.19000000
   13.64333344   73.28959656    0.25000000    0.19000000
   13.64666653   76.75930023    0.25000000    0.19000000
   13.64972210   72.94110107    0.25000000    0.19000000
   13.65583324   72.94110107    0.25000000    0.19000000
   13.65999985   73.87349701    0.25000000    0.19000000
   13.66333294   74.90080261    0.25000000    0.19000000
   13.66472149   75.10610199    0.25000000    0.19000000
   13.66694450   74.89659882    0.25000000    0.19000000
   13.67027855   77.36519623    0.25000000    0.19000000
   13.67361164   75.08180237    0.25000000    0.19000000
   13.67666721   75.17949677    0.25000000    0.19000000
   13.68000031   76.29329681    0.25000000    0.19000000
   13.68305588   76.85189819    0.25000000    0.19000000
   13.68638897   76.05390167    0.25000000    0.19000000
   13.68972206   74.38569641    0.25000000    0.19000000
   13.69277763   74.96920013    0.25000000    0.19000000
   13.69861126   74.96920013    0.25000000    0.19000000
   13.70277786   78.84519958    0.25000000    0.19000000
   13.70611095   74.12239838    0.25000000    0.19000000
   13.70944405   73.94979858    0.25000000    0.19000000
   13.71249962   74.52529907    0.25000000    0.19000000
   13.71583271   79.26799774    0.25000000    0.19000000
   13.71888828   77.03399658    0.25000000    0.19000000
   13.72222137   74.46070099    0.25000000    0.19000000
   13.72555542   74.82219696    0.25000000    0.19000000
   13.72861099   73.83460236    0.25000000    0.19000000
   13.73138809   74.80110168    0.25000000    0.19000000
   13.73222160   76.25930023    0.25000000    0.19000000
   13.73555565   73.69660187    0.25000000    0.19000000
   13.74166679   73.69660187    0.25000000    0.19000000
   13.74583340   74.31199646    0.25000000    0.19000000
   13.74888897   73.57230377    0.25000000    0.19000000
   13.75222206   74.88020325    0.25000000    0.19000000
   13.75527763   78.99939728    0.25000000    0.19000000
   13.75861073   76.24410248    0.25000000    0.19000000
   13.76194477   74.45890045    0.25000000    0.19000000
   13.76500034   74.59829712    0.25000000    0.19000000
   13.76555538   75.37570190    0.25000000    0.19000000
   13.76888847   74.42279816    0.25000000    0.19000000
   13.77194405   76.75949860    0.25000000    0.19000000
   13.77527714   72.98079681    0.25000000    0.19000000
   13.77861118   72.94589996    0.25000000    0.19000000
   13.78444481   72.94589996    0.25000000    0.19000000
   13.78861141   75.80650330    0.25000000    0.19000000
   13.79166698   74.54720306    0.25000000    0.19000000
   13.79500008   72.09390259    0.25000000    0.19000000
   13.79833412   74.34609985    0.25000000    0.19000000
   13.79861164   74.33329773    0.25000000    0.19000000
   13.80194473   79.63369751    0.25000000    0.19000000
   13.80500031   75.00070190    0.25000000    0.19000000
   13.80833340   73.47740173    0.25000000    0.19000000
   13.81166649   74.96549988    0.25000000    0.19000000
   13.81472206   76.53459930    0.25000000    0.19000000
   13.81805515   78.03070068    0.25000000    0.19000000
   13.82111073   79.31159973    0.25000000    0.19000000
   13.82722187   79.31159973    0.25000000    0.19000000
   13.83138847   78.50479889    0.25000000    0.19000000
   13.83194447   76.51499939    0.25000000    0.19000000
   13.83527756   76.24079895    0.25000000    0.19000000
   13.83833313   72.89959717    0.25000000    0.19000000
   13.84166622   71.88970184    0.25000000    0.19000000
   13.84499931   72.59799957    0.25000000    0.19000000
   13.84805489   79.45549774    0.25000000    0.19000000
   13.85138893   74.67379761    0.25000000    0.19000000
   13.85472298   73.33860016    0.25000000    0.19000000
   13.85777855   74.47709656    0.25000000    0.19000000
   13.86111164   75.42150116    0.25000000    0.19000000
   13.86416721   76.67489624    0.25000000    0.19000000
   13.86527824   78.72000122    0.25000000    0.19000000
   13.86999989   78.72000122    0.25000000    0.19000000
   13.87416649   77.40029907    0.25000000    0.19000000
   13.87750053   78.32350159    0.25000000    0.19000000
   13.88083363   79.23840332    0.25000000    0.19000000
   13.88388920   79.55709839    0.25000000    0.19000000
   13.88722229   80.79010010    0.25000000    0.19000000
   13.89055538   83.53959656    0.25000000    0.19000000
   13.89361095   75.72879791    0.25000000    0.19000000
   13.89694405   76.85030365    0.25000000    0.19000000
   13.89861107   72.59190369    0.25000000    0.19000000
   13.90055561   75.85389709    0.25000000    0.19000000
   13.90361118   76.66059875    0.25000000    0.19000000
   13.90694427   74.77189636    0.25000000    0.19000000
   13.91305542   74.77189636    0.25000000    0.19000000
   13.91722298   78.16570282    0.25000000    0.19000000
   13.92027855   74.66629791    0.25000000    0.19000000
   13.92361164   78.54329681    0.25000000    0.19000000
   13.92666721   76.70870209    0.25000000    0.19000000
   13.93000031   77.85959625    0.25000000    0.19000000
   13.93194485   77.49179840    0.25000000    0.19000000
   13.93361092   80.03929901    0.25000000    0.19000000
   13.93666649   77.11620331    0.25000000    0.19000000
   13.94000053   73.79319763    0.25000000    0.19000000
   13.94333363   74.29060364    0.25000000    0.19000000
   13.94638920   76.73100281    0.25000000    0.19000000
   13.94972229   75.28829956    0.25000000    0.19000000
   13.95583344   75.28829956    0.25000000    0.19000000
   13.96000004   75.05619812    0.25000000    0.19000000
   13.96305561   80.11910248    0.25000000    0.19000000
   13.96527767   73.08529663    0.25000000    0.19000000
   13.96694374   75.16629791    0.25000000    0.19000000
   13.96999931   74.69190216    0.25000000    0.19000000
   13.97333336   74.46739960    0.25000000    0.19000000
   13.97666645   77.55690002    0.25000000    0.19000000
   13.97972202   74.50489807    0.25000000    0.19000000
   13.98305511   75.15019989    0.25000000    0.19000000
   13.98611164   75.94280243    0.25000000    0.19000000
   13.98944473   75.70349884    0.25000000    0.19000000
   13.99277782   82.10350037    0.25000000    0.19000000
   13.99861145   82.10350037    0.25000000    0.19000000
   14.00277805   74.04280090    0.25000000    0.19000000
   14.00611115   75.37200165    0.25000000    0.19000000
   14.00916672   77.94490051    0.25000000    0.19000000
   14.01249981   73.71959686    0.25000000    0.19000000
   14.01555538   75.66290283    0.25000000    0.19000000
   14.01888847   76.11859894    0.25000000    0.19000000
   14.02222157   72.23660278    0.25000000    0.19000000
   14.02527714   74.85320282    0.25000000    0.19000000
   14.02861118   75.81970215    0.25000000    0.19000000
   14.03194427   76.97250366    0.25000000    0.19000000
   14.03361130   72.64379883    0.25000000    0.19000000
   14.03555584   72.10469818    0.25000000    0.19000000
   14.04138947   72.10469818    0.25000000    0.19000000
   14.04555607   76.70690155    0.25000000    0.19000000
   14.04888916   76.08550262    0.25000000    0.19000000
   14.05194473   75.10829926    0.25000000    0.19000000
   14.05527782   73.36730194    0.25000000    0.19000000
   14.05861092   75.45999908    0.25000000    0.19000000
   14.06166649   72.01959991    0.25000000    0.19000000
   14.06500053   76.35389709    0.25000000    0.19000000
   14.06694412   72.21890259    0.25000000    0.19000000
   14.06861115   77.36640167    0.25000000    0.19000000
   14.07194424   75.61389923    0.25000000    0.19000000
   14.07499981   72.79589844    0.25000000    0.19000000
   14.07833290   72.67819977    0.25000000    0.19000000
   14.08444405   72.67819977    0.25000000    0.19000000
   14.08833313   76.42530060    0.25000000    0.19000000
   14.09166622   75.02519989    0.25000000    0.19000000
   14.09499931   75.62580109    0.25000000    0.19000000
   14.09805489   76.04319763    0.25000000    0.19000000
   14.10055637   75.72160339    0.25000000    0.19000000
   14.10194492   73.14739990    0.25000000    0.19000000
   14.10500050   75.23670197    0.25000000    0.19000000
   14.10833359   74.22519684    0.25000000    0.19000000
   14.11166668   74.36889648    0.25000000    0.19000000
   14.11472225   72.80819702    0.25000000    0.19000000
   14.11805534   73.86129761    0.25000000    0.19000000
   14.12111092   75.29440308    0.25000000    0.19000000
   14.12722206   75.29440308    0.25000000    0.19000000
   14.13138866   74.27709961    0.25000000    0.19000000
   14.13388920   80.24839783    0.25000000    0.19000000
   14.13500023   76.76589966    0.25000000    0.19000000
   14.13805580   77.17179871    0.25000000    0.19000000
   14.14138889   76.89099884    0.25000000    0.19000000
   14.14472198   73.86479950    0.25000000    0.19000000
   14.14777756   74.70459747    0.25000000    0.19000000
   14.15111065   72.21140289    0.25000000    0.19000000
   14.15416622   71.99859619    0.25000000    0.19000000
   14.15749931   74.88059998    0.25000000    0.19000000
   14.16083336   74.90470123    0.25000000    0.19000000
   14.16388893   75.63919830    0.25000000    0.19000000
   14.17000008   75.63919830    0.25000000    0.19000000
   14.17416668   73.93990326    0.25000000    0.19000000
   14.17750072   76.11849976    0.25000000    0.19000000
   14.18055630   75.59459686    0.25000000    0.19000000
   14.18388939   75.98999786    0.25000000    0.19000000
   14.18722248   77.69049835    0.25000000    0.19000000
   14.19027805   75.91639709    0.25000000    0.19000000
   14.19361115   76.81659698    0.25000000    0.19000000
   14.19694424   75.31659698    0.25000000    0.19000000
   14.19999981   73.98349762    0.25000000    0.19000000
   14.20083332   75.75820160    0.25000000    0.19000000
   14.20361137   73.76329803    0.25000000    0.19000000
   14.20694447   75.49320221    0.25000000    0.19000000
   14.21277714   75.49320221    0.25000000    0.19000000
   14.21694374   77.36759949    0.25000000    0.19000000
   14.22027779   73.46820068    0.25000000    0.19000000
   14.22333336   72.65779877    0.25000000    0.19000000
   14.22666645   72.77819824    0.25000000    0.19000000
   14.22999954   74.23770142    0.25000000    0.19000000
   14.23305511   75.94699860    0.25000000    0.19000000
   14.23416710   74.53320313    0.25000000    0.19000000
   14.23666668   71.98370361    0.25000000    0.19000000
   14.24000072   74.94429779    0.25000000    0.19000000
   14.24305534   72.55259705    0.25000000    0.19000000
   14.24638939   75.60089874    0.25000000    0.19000000
   14.24972248   73.44049835    0.25000000    0.19000000
   14.25583363   73.44049835    0.25000000    0.19000000
   14.25972176   75.96360016    0.25000000    0.19000000
   14.26305580   75.93550110    0.25000000    0.19000000
   14.26638889   74.05770111    0.25000000    0.19000000
   14.26777744   77.47969818    0.25000000    0.19000000
   14.26999950   75.61239624    0.25000000    0.19000000
   14.27305508   75.70890045    0.25000000    0.19000000
   14.27638817   75.29560089    0.25000000    0.19000000
   14.27972221   77.36399841    0.25000000    0.19000000
   14.28277779   74.36599731    0.25000000    0.19000000
   14.28611183   74.78579712    0.25000000    0.19000000
   14.28916740   75.40599823    0.25000000    0.19000000
   14.29250050   73.65989685    0.25000000    0.19000000
   14.29861164   73.65989685    0.25000000    0.19000000
   14.31694412   78.20500183    0.25000000    0.19000000
   14.32027817   73.68309784    0.25000000    0.19000000
   14.32333374   75.16580200    0.25000000    0.19000000
   14.32666683   76.59490204    0.25000000    0.19000000
   14.32999992   73.90809631    0.25000000    0.19000000
   14.33305550   72.08229828    0.25000000    0.19000000
   14.33638859   72.53070068    0.25000000    0.19000000
   14.34166622   72.53070068    0.25000000    0.19000000
   14.34583282   73.94409943    0.25000000    0.19000000
   14.34916592   73.49880219    0.25000000    0.19000000
   14.35000038   75.18569946    0.25000000    0.19000000
   14.35277843   75.70970154    0.25000000    0.19000000
   14.35583401   77.61229706    0.25000000    0.19000000
   14.35916710   74.95050049    0.25000000    0.19000000
   14.36250019   74.77529907    0.25000000    0.19000000
   14.36555576   75.46430206    0.25000000    0.19000000
   14.36888885   75.07420349    0.25000000    0.19000000
   14.37222195   74.78890228    0.25000000    0.19000000
   14.37527752   72.84200287    0.25000000    0.19000000
   14.37861156   71.22720337    0.25000000    0.19000000
   14.38444424   71.22720337    0.25000000    0.19000000
   14.38861084   71.63929749    0.25000000    0.19000000
   14.39194393   74.67769623    0.25000000    0.19000000
   14.39499950   73.52950287    0.25000000    0.19000000
   14.39833355   76.26540375    0.25000000    0.19000000
   14.40166664   74.90129852    0.25000000    0.19000000
   14.40472221   73.71260071    0.25000000    0.19000000
   14.40805531   73.53500366    0.25000000    0.19000000
   14.41138840   72.26809692    0.25000000    0.19000000
   14.41444397   73.05729675    0.25000000    0.19000000
   14.41666698   76.27929688    0.25000000    0.19000000
   14.41833401   73.68859863    0.25000000    0.19000000
   14.42138958   74.74150085    0.25000000    0.19000000
   14.42722225   74.74150085    0.25000000    0.19000000
   14.43138885   75.24690247    0.25000000    0.19000000
   14.43472195   75.87899780    0.25000000    0.19000000
   14.43805599   74.68609619    0.25000000    0.19000000
   14.44111156   75.24859619    0.25000000    0.19000000
   14.44444466   74.37529755    0.25000000    0.19000000
   14.44750023   76.75360107    0.25000000    0.19000000
   14.44999981   77.81410217    0.25000000    0.19000000
   14.45138836   73.76470184    0.25000000    0.19000000
   14.45444393   73.44139862    0.25000000    0.19000000
   14.45777798   75.92700195    0.25000000    0.19000000
   14.46111107   75.69329834    0.25000000    0.19000000
   14.46416664   76.44090271    0.25000000    0.19000000
   14.47027779   76.44090271    0.25000000    0.19000000
   14.47444439   74.71399689    0.25000000    0.19000000
   14.47749996   75.91400146    0.25000000    0.19000000
   14.48083305   76.62190247    0.25000000    0.19000000
   14.48333359   75.45980072    0.25000000    0.19000000
   14.48444462   76.27510071    0.25000000    0.19000000
   14.48750019   74.17790222    0.25000000    0.19000000
   14.49083328   72.69149780    0.25000000    0.19000000
   14.49416733   75.89910126    0.25000000    0.19000000
   14.49722290   76.17310333    0.25000000    0.19000000
   14.50055599   76.28690338    0.25000000    0.19000000
   14.50388908   73.80310059    0.25000000    0.19000000
   14.50694466   73.91030121    0.25000000    0.19000000
   14.51305580   73.91030121    0.25000000    0.19000000
   14.51722240   73.65589905    0.25000000    0.19000000
   14.52027798   74.34780121    0.25000000    0.19000000
   14.52361107   75.35720062    0.25000000    0.19000000
   14.52694416   74.94249725    0.25000000    0.19000000
   14.52999973   75.59220123    0.25000000    0.19000000
   14.53333378   71.28060150    0.25000000    0.19000000
   14.53666687   74.30740356    0.25000000    0.19000000
   14.53972244   75.72989655    0.25000000    0.19000000
   14.54305553   72.36569977    0.25000000    0.19000000
   14.54611111   72.50839996    0.25000000    0.19000000
   14.54944515   74.75219727    0.25000000    0.19000000
   14.55000019   74.23570251    0.25000000    0.19000000
   14.55583382   74.23570251    0.25000000    0.19000000
   14.56000042   76.21559906    0.25000000    0.19000000
   14.56333351   75.14520264    0.25000000    0.19000000
   14.56638908   74.29759979    0.25000000    0.19000000
   14.56972218   74.34490204    0.25000000    0.19000000
   14.57305527   73.14479828    0.25000000    0.19000000
   14.57611084   73.63649750    0.25000000    0.19000000
   14.57944393   73.33100128    0.25000000    0.19000000
   14.58277798   73.86270142    0.25000000    0.19000000
   14.58333302   75.55609894    0.25000000    0.19000000
   14.58638859   74.46970367    0.25000000    0.19000000
   14.58972168   74.43460083    0.25000000    0.19000000
   14.59277725   75.61720276    0.25000000    0.19000000
   14.59888840   75.61720276    0.25000000    0.19000000
   14.60277843   76.05200195    0.25000000    0.19000000
   14.60611153   77.91049957    0.25000000    0.19000000
   14.60944462   76.02919769    0.25000000    0.19000000
   14.61250019   77.79769897    0.25000000    0.19000000
   14.61583328   81.71700287    0.25000000    0.19000000
   14.61666679   79.05860138    0.25000000    0.19000000
   14.61944485   78.78320313    0.25000000    0.19000000
   14.62250042   75.88089752    0.25000000    0.19000000
   14.62583351   75.89389801    0.25000000    0.19000000
   14.62916660   74.84439850    0.25000000    0.19000000
   14.63222218   77.08779907    0.25000000    0.19000000
   14.63555527   78.20839691    0.25000000    0.19000000
   14.64166641   78.20839691    0.25000000    0.19000000
   14.64583302   76.12689972    0.25000000    0.19000000
   14.64888859   73.79859924    0.25000000    0.19000000
   14.64999962   72.90219879    0.25000000    0.19000000
   14.65249920   76.00890350    0.25000000    0.19000000
   14.65583324   74.13089752    0.25000000    0.19000000
   14.65888882   75.24340057    0.25000000    0.19000000
   14.66222191   73.33889771    0.25000000    0.19000000
   14.66527748   74.92279816    0.25000000    0.19000000
   14.66861153   74.47100067    0.25000000    0.19000000
   14.67194462   74.51159668    0.25000000    0.19000000
   14.67500019   73.93509674    0.25000000    0.19000000
   14.67833328   73.19660187    0.25000000    0.19000000
   14.68444443   73.19660187    0.25000000    0.19000000
   14.68861103   77.58239746    0.25000000    0.19000000
   14.69166660   75.29229736    0.25000000    0.19000000
   14.69499969   77.53260040    0.25000000    0.19000000
   14.69833374   74.63559723    0.25000000    0.19000000
   14.70138836   74.58679962    0.25000000    0.19000000
   14.70472240   75.29530334    0.25000000    0.19000000
   14.70805550   77.77200317    0.25000000    0.19000000
   14.71111107   78.54550171    0.25000000    0.19000000
   14.71444416   78.72329712    0.25000000    0.19000000
   14.71666622   78.52570343    0.25000000    0.19000000
   14.71805477   72.94889832    0.25000000    0.19000000
   14.72111034   76.88649750    0.25000000    0.19000000
   14.72722149   76.88649750    0.25000000    0.19000000
   14.73138809   77.30789948    0.25000000    0.19000000
   14.73472214   76.31020355    0.25000000    0.19000000
   14.73777771   74.00309753    0.25000000    0.19000000
   14.74111176   74.97740173    0.25000000    0.19000000
   14.74444485   80.67079926    0.25000000    0.19000000
   14.74750042   76.97740173    0.25000000    0.19000000
   14.75000000   72.73940277    0.25000000    0.19000000
   14.75111103   73.22789764    0.25000000    0.19000000
   14.75444412   77.56210327    0.25000000    0.19000000
   14.75749969   75.12969971    0.25000000    0.19000000
   14.76083374   75.03220367    0.25000000    0.19000000
   14.76388931   72.28420258    0.25000000    0.19000000
   14.76999950   72.28420258    0.25000000    0.19000000
   14.77416611   74.97299957    0.25000000    0.19000000
   14.77750015   75.91649628    0.25000000    0.19000000
   14.78083324   79.94770050    0.25000000    0.19000000
   14.78333378   77.78710175    0.25000000    0.19000000
   14.78444481   77.62840271    0.25000000    0.19000000
   14.78777790   76.45420074    0.25000000    0.19000000
   14.79083347   77.51779938    0.25000000    0.19000000
   14.79416752   74.68129730    0.25000000    0.19000000
   14.79722309   76.44589996    0.25000000    0.19000000
   14.80055618   73.80580139    0.25000000    0.19000000
   14.80388927   79.38140106    0.25000000    0.19000000
   14.80694485   75.45700073    0.25000000    0.19000000
   14.81305599   75.45700073    0.25000000    0.19000000
   14.81722260   75.56150055    0.25000000    0.19000000
   14.82027817   76.01730347    0.25000000    0.19000000
   14.82361126   75.90319824    0.25000000    0.19000000
   14.82694435   72.33940125    0.25000000    0.19000000
   14.82999992   75.74800110    0.25000000    0.19000000
   14.83333302   72.76260376    0.25000000    0.19000000
   14.83638859   72.65309906    0.25000000    0.19000000
   14.83972168   77.21179962    0.25000000    0.19000000
   14.84305477   72.91369629    0.25000000    0.19000000
   14.84611034   74.94400024    0.25000000    0.19000000
   14.84944439   77.43810272    0.25000000    0.19000000
   14.85000038   75.62270355    0.25000000    0.19000000
   14.85583401   75.62270355    0.25000000    0.19000000
   14.86000061   80.95680237    0.25000000    0.19000000
   14.86305618   76.90730286    0.25000000    0.19000000
   14.86638927   78.51740265    0.25000000    0.19000000
   14.86972237   79.58989716    0.25000000    0.19000000
   14.87305546   76.54290009    0.25000000    0.19000000
   14.87611103   82.14550018    0.25000000    0.19000000
   14.87944412   76.70259857    0.25000000    0.19000000
   14.88249969   78.99069977    0.25000000    0.19000000
   14.88333321   74.42050171    0.25000000    0.19000000
   14.88638878   76.27529907    0.25000000    0.19000000
   14.88972187   75.47109985    0.25000000    0.19000000
   14.89277744   74.87380219    0.25000000    0.19000000
   14.89861107   74.87380219    0.25000000    0.19000000
   14.90277767   75.91690063    0.25000000    0.19000000
   14.90611076   76.43990326    0.25000000    0.19000000
   14.90916634   78.16750336    0.25000000    0.19000000
   14.91249943   75.31569672    0.25000000    0.19000000
   14.91583252   76.54979706    0.25000000    0.19000000
   14.91666698   77.00260162    0.25000000    0.19000000
   14.91944504   77.56880188    0.25000000    0.19000000
   14.92277813   79.22260284    0.25000000    0.19000000
   14.92583370   79.18620300    0.25000000    0.19000000
   14.92916679   72.67479706    0.25000000    0.19000000
   14.93249989   75.84449768    0.25000000    0.19000000
   14.93555546   74.89150238    0.25000000    0.19000000
   14.94138908   74.89150238    0.25000000    0.19000000
   14.94555569   71.64369965    0.25000000    0.19000000
   14.94888878   80.00589752    0.25000000    0.19000000
   14.94999981   73.70890045    0.25000000    0.19000000
   14.95249939   78.06680298    0.25000000    0.19000000
   14.95583344   74.15920258    0.25000000    0.19000000
   14.95888901   73.44589996    0.25000000    0.19000000
   14.96222210   76.17769623    0.25000000    0.19000000
   14.96555519   73.79730225    0.25000000    0.19000000
   14.96861076   72.98149872    0.25000000    0.19000000
   14.97194386   76.62680054    0.25000000    0.19000000
   14.97499943   73.92710114    0.25000000    0.19000000
   14.97833252   82.40940094    0.25000000    0.19000000
   14.98444462   82.40940094    0.25000000    0.19000000
   14.98861122   75.96640015    0.25000000    0.19000000
   14.99166679   75.72779846    0.25000000    0.19000000
   14.99499989   76.12449646    0.25000000    0.19000000
   14.99805546   80.72799683    0.25000000    0.19000000
   15.00138855   76.44069672    0.25000000    0.19000000
   15.00472260   75.92410278    0.25000000    0.19000000
   15.00777817   76.63379669    0.25000000    0.19000000
   15.01111126   77.71900177    0.25000000    0.19000000
   15.01444435   73.88849640    0.25000000    0.19000000
   15.01666641   74.76799774    0.25000000    0.19000000
   15.01805496   74.32790375    0.25000000    0.19000000
   15.02138901   74.95210266    0.25000000    0.19000000
   15.02722168   74.95210266    0.25000000    0.19000000
   15.03138828   83.43609619    0.25000000    0.19000000
   15.03444481   78.70020294    0.25000000    0.19000000
   15.03777790   77.11479950    0.25000000    0.19000000
   15.04111195   80.12580109    0.25000000    0.19000000
   15.04444504   78.27490234    0.25000000    0.19000000
   15.04750061   74.26629639    0.25000000    0.19000000
   15.05000019   76.82559967    0.25000000    0.19000000
   15.05111122   74.23149872    0.25000000    0.19000000
   15.05444431   73.56009674    0.25000000    0.19000000
   15.05749989   74.99199677    0.25000000    0.19000000
   15.06083393   74.43280029    0.25000000    0.19000000
   15.06416702   73.02200317    0.25000000    0.19000000
   15.06999969   73.02200317    0.25000000    0.19000000
   15.07416630   81.56790161    0.25000000    0.19000000
   15.07750034   77.91310120    0.25000000    0.19000000
   15.08055592   75.40789795    0.25000000    0.19000000
   15.08333302   76.59049988    0.25000000    0.19000000
   15.08416653   77.78759766    0.25000000    0.19000000
   15.19583321   -1.00000000   -1.00000000   -1.00000000
   15.31277752   -1.00000000   -1.00000000   -1.00000000
   15.41333294   -1.00000000   -1.00000000   -1.00000000
   15.52055550   -1.00000000   -1.00000000   -1.00000000
   15.60055637   73.87239838    0.25000000    0.19000000
   15.60388947   76.94670105    0.25000000    0.19000000
   15.60722256   72.95439911    0.25000000    0.19000000
   15.61027813   72.08670044    0.25000000    0.19000000
   15.61361122   74.11910248    0.25000000    0.19000000
   15.61694431   80.65609741    0.25000000    0.19000000
   15.62111092   80.65609741    0.25000000    0.19000000
   15.62527752   76.02079773    0.25000000    0.19000000
   15.62833309   73.16919708    0.25000000    0.19000000
   15.63166714   74.80149841    0.25000000    0.19000000
   15.63388920   78.42990112    0.25000000    0.19000000
   15.63527775   77.64119720    0.25000000    0.19000000
   15.63833332   78.41649628    0.25000000    0.19000000
   15.64166641   77.94670105    0.25000000    0.19000000
   15.64499950   73.32949829    0.25000000    0.19000000
   15.64805508   77.96479797    0.25000000    0.19000000
   15.65138817   84.01820374    0.25000000    0.19000000
   15.65472221   78.58070374    0.25000000    0.19000000
   15.65777779   81.47799683    0.25000000    0.19000000
   15.66388893   81.47799683    0.25000000    0.19000000
   15.66805553   77.37020111    0.25000000    0.19000000
   15.67111111   73.71620178    0.25000000    0.19000000
   15.67444515   76.39859772    0.25000000    0.19000000
   15.67777824   77.01419830    0.25000000    0.19000000
   15.68083382   76.49569702    0.25000000    0.19000000
   15.68416691   75.92169952    0.25000000    0.19000000
   15.68722248   77.35479736    0.25000000    0.19000000
   15.69055557   74.30889893    0.25000000    0.19000000
   15.69388866   78.29080200    0.25000000    0.19000000
   15.69694424   77.71589661    0.25000000    0.19000000
   15.70027733   78.15100098    0.25000000    0.19000000
   15.70083332   75.24729919    0.25000000    0.19000000
   15.70666695   75.24729919    0.25000000    0.19000000
   15.71083355   77.34600067    0.25000000    0.19000000
   15.71416664   76.03170013    0.25000000    0.19000000
   15.71722221   75.18379974    0.25000000    0.19000000
   15.72055531   76.27850342    0.25000000    0.19000000
   15.72361088   75.92340088    0.25000000    0.19000000
   15.72694397   74.52020264    0.25000000    0.19000000
   15.73027706   76.08989716    0.25000000    0.19000000
   15.73333359   76.16979980    0.25000000    0.19000000
   15.73416710   77.65110016    0.25000000    0.19000000
   15.73722267   78.63839722    0.25000000    0.19000000
   15.74027824   79.50469971    0.25000000    0.19000000
   15.74361134   78.05979919    0.25000000    0.19000000
   15.74944496   78.05979919    0.25000000    0.19000000
   15.75361156   73.01319885    0.25000000    0.19000000
   15.75694466   77.93859863    0.25000000    0.19000000
   15.76027775   85.66239929    0.25000000    0.19000000
   15.76333332   78.12180328    0.25000000    0.19000000
   15.76666641   76.12950134    0.25000000    0.19000000
   15.76749992   79.97290039    0.25000000    0.19000000
   15.77027798   78.76460266    0.25000000    0.19000000
   15.77333355   75.10520172    0.25000000    0.19000000
   15.77666664   76.73590088    0.25000000    0.19000000
   15.77972221   74.45929718    0.25000000    0.19000000
   15.78305531   78.32949829    0.25000000    0.19000000
   15.78638935   78.61199951    0.25000000    0.19000000
   15.79250050   78.61199951    0.25000000    0.19000000
   15.79666710   73.21179962    0.25000000    0.19000000
   15.79972267   73.02420044    0.25000000    0.19000000
   15.80083370   75.45259857    0.25000000    0.19000000
   15.80361176   75.31649780    0.25000000    0.19000000
   15.80666733   73.68139648    0.25000000    0.19000000
   15.81000042   75.43769836    0.25000000    0.19000000
   15.81305599   76.17829895    0.25000000    0.19000000
   15.81638908   73.89070129    0.25000000    0.19000000
   15.81972218   78.12979889    0.25000000    0.19000000
   15.82277775   79.30940247    0.25000000    0.19000000
   15.82611084   79.74069977    0.25000000    0.19000000
   15.82944393   79.32859802    0.25000000    0.19000000
   15.83527756   79.32859802    0.25000000    0.19000000
   15.83944416   82.07260132    0.25000000    0.19000000
   15.84249973   83.88619995    0.25000000    0.19000000
   15.84583282   76.12409973    0.25000000    0.19000000
   15.84916592   79.40149689    0.25000000    0.19000000
   15.85222244   76.96410370    0.25000000    0.19000000
   15.85555553   75.66840363    0.25000000    0.19000000
   15.85888958   75.30439758    0.25000000    0.19000000
   15.86194515   74.81809998    0.25000000    0.19000000
   15.86527824   76.56060028    0.25000000    0.19000000
   15.86750031   75.32150269    0.25000000    0.19000000
   15.86888885   73.78289795    0.25000000    0.19000000
   15.87194443   84.44439697    0.25000000    0.19000000
   15.87805557   84.44439697    0.25000000    0.19000000
   15.88222218   74.65419769    0.25000000    0.19000000
   15.88555527   76.71820068    0.25000000    0.19000000
   15.88888836   74.33609772    0.25000000    0.19000000
   15.89194393   76.77120209    0.25000000    0.19000000
   15.89527798   76.65930176    0.25000000    0.19000000
   15.89861107   82.27380371    0.25000000    0.19000000
   15.90083313   77.58740234    0.25000000    0.19000000
   15.90222168   80.10310364    0.25000000    0.19000000
   15.90527725   73.66860199    0.25000000    0.19000000
   15.90861034   80.43099976    0.25000000    0.19000000
   15.91166592   79.40070343    0.25000000    0.19000000
   15.91499996   77.83460236    0.25000000    0.19000000
   15.92083359   77.83460236    0.25000000    0.19000000
   15.92500019   79.01339722    0.25000000    0.19000000
   15.92833328   78.13899994    0.25000000    0.19000000
   15.93166733   77.40440369    0.25000000    0.19000000
   15.93416691   78.70369720    0.25000000    0.19000000
   15.93527794   84.42079926    0.25000000    0.19000000
   15.93833351   80.09660339    0.25000000    0.19000000
   15.94166660   77.98999786    0.25000000    0.19000000
   15.94499969   79.14710236    0.25000000    0.19000000
   15.94805527   82.47200012    0.25000000    0.19000000
   15.95138836   81.12819672    0.25000000    0.19000000
   15.95444393   83.68379974    0.25000000    0.19000000
   15.95777798   81.34089661    0.25000000    0.19000000
   15.96361065   81.34089661    0.25000000    0.19000000
   15.96777725   74.42880249    0.25000000    0.19000000
   15.97111034   79.72360229    0.25000000    0.19000000
   15.97444439   79.75219727    0.25000000    0.19000000
   15.97749996   81.63950348    0.25000000    0.19000000
   15.98083305   76.16310120    0.25000000    0.19000000
   15.98416710   76.59400177    0.25000000    0.19000000
   15.98722267   75.97000122    0.25000000    0.19000000
   15.99055576   81.54139709    0.25000000    0.19000000
   15.99388885   78.04900360    0.25000000    0.19000000
   15.99694443   72.67980194    0.25000000    0.19000000
   16.00027847   77.17120361    0.25000000    0.19000000
   16.00083351   74.50559998    0.25000000    0.19000000
   16.00666618   74.50559998    0.25000000    0.19000000
   16.01083374   74.55490112    0.25000000    0.19000000
   16.01388931   75.13980103    0.25000000    0.19000000
   16.01722145   76.58840179    0.25000000    0.19000000
   16.02055550   78.32849884    0.25000000    0.19000000
   16.02361107   71.83580017    0.25000000    0.19000000
   16.02694511   73.10849762    0.25000000    0.19000000
   16.03027725   74.60299683    0.25000000    0.19000000
   16.03333282   77.03309631    0.25000000    0.19000000
   16.03416634   75.07330322    0.25000000    0.19000000
   16.03722191   82.62860107    0.25000000    0.19000000
   16.04027748   74.88839722    0.25000000    0.19000000
   16.04361153   74.10420227    0.25000000    0.19000000
   16.04944420   74.10420227    0.25000000    0.19000000
   16.05360985   77.41699982    0.25000000    0.19000000
   16.05694389   81.13649750    0.25000000    0.19000000
   16.05999947   74.55789948    0.25000000    0.19000000
   16.06333351   76.47519684    0.25000000    0.19000000
   16.06638718   81.15180206    0.25000000    0.19000000
   16.06750107   83.08100128    0.25000000    0.19000000
   16.07027817   76.44539642    0.25000000    0.19000000
   16.07333374   78.07039642    0.25000000    0.19000000
   16.07666779   76.48809814    0.25000000    0.19000000
   16.08000183   81.58570099    0.25000000    0.19000000
   16.08305550   75.45919800    0.25000000    0.19000000
   16.08638954   74.49089813    0.25000000    0.19000000
   16.09222221   74.49089813    0.25000000    0.19000000
   16.09638977   76.08370209    0.25000000    0.19000000
   16.09972191   79.35489655    0.25000000    0.19000000
   16.10083389   77.24909973    0.25000000    0.19000000
   16.10333443   79.49400330    0.25000000    0.19000000
   16.10666656   82.58850098    0.25000000    0.19000000
   16.10972214   83.47889709    0.25000000    0.19000000
   16.11305618   84.19010162    0.25000000    0.19000000
   16.11611176   82.30750275    0.25000000    0.19000000
   16.11944389   87.45659637    0.25000000    0.19000000
   16.12277794   84.63700104    0.25000000    0.19000000
   16.12583351   84.46279907    0.25000000    0.19000000
   16.12916756   81.05239868    0.25000000    0.19000000
   16.13500023   81.05239868    0.25000000    0.19000000
   16.13916588   83.23780060    0.25000000    0.19000000
   16.14249992   85.53749847    0.25000000    0.19000000
   16.14583397   84.61239624    0.25000000    0.19000000
   16.14888954   80.75209808    0.25000000    0.19000000
   16.15222168   79.20670319    0.25000000    0.19000000
   16.15555573   82.75119781    0.25000000    0.19000000
   16.15861130   77.23529816    0.25000000    0.19000000
   16.16194344   76.80069733    0.25000000    0.19000000
   16.16499901   77.37529755    0.25000000    0.19000000
   16.16749954   73.91339874    0.25000000    0.19000000
   16.16888809   76.56919861    0.25000000    0.19000000
   16.17194366   84.39569855    0.25000000    0.19000000
   16.17805481   84.39569855    0.25000000    0.19000000
   16.18222237   84.17019653    0.25000000    0.19000000
   16.18527603   90.47180176    0.25000000    0.19000000
   16.18861008   84.26139832    0.25000000    0.19000000
   16.19166565   79.50140381    0.25000000    0.19000000
   16.19499969   79.80750275    0.25000000    0.19000000
   16.19833183   78.43810272    0.25000000    0.19000000
   16.20083427   81.44180298    0.25000000    0.19000000
   16.20194435   88.54019928    0.25000000    0.19000000
   16.20499992   78.59459686    0.25000000    0.19000000
   16.20833397   78.23339844    0.25000000    0.19000000
   16.21166801   79.03720093    0.25000000    0.19000000
   16.21472359   74.48709869    0.25000000    0.19000000
   16.22083473   74.48709869    0.25000000    0.19000000
   16.22500038   82.99310303    0.25000000    0.19000000
   16.22833443   76.89959717    0.25000000    0.19000000
   16.23139000   77.37830353    0.25000000    0.19000000
   16.23416710   83.19640350    0.25000000    0.19000000
   16.23527718   88.45179749    0.25000000    0.19000000
   16.23833275   82.99520111    0.25000000    0.19000000
   16.24166679   81.16699982    0.25000000    0.19000000
   16.24500084   82.69599915    0.25000000    0.19000000
   16.24805641   80.36679840    0.25000000    0.19000000
   16.25138855   85.91719818    0.25000000    0.19000000
   16.25472260   85.77519989    0.25000000    0.19000000
   16.25777817   89.26560211    0.25000000    0.19000000
   16.26361084   89.26560211    0.25000000    0.19000000
   16.26777840   81.81269836    0.25000000    0.19000000
   16.27111053   81.10829926    0.25000000    0.19000000
   16.27416611   84.55100250    0.25000000    0.19000000
   16.27750015   76.38220215    0.25000000    0.19000000
   16.28083229   76.35130310    0.25000000    0.19000000
   16.28388786   80.27600098    0.25000000    0.19000000
   16.28722191   77.69110107    0.25000000    0.19000000
   16.29055595   82.48580170    0.25000000    0.19000000
   16.29361153   82.04869843    0.25000000    0.19000000
   16.29694366   80.18460083    0.25000000    0.19000000
   16.30027771   84.00939941    0.25000000    0.19000000
   16.30083275   75.13670349    0.25000000    0.19000000
   16.30638885   75.13670349    0.25000000    0.19000000
   16.31055450   82.16639709    0.25000000    0.19000000
   16.31388855   82.14140320    0.25000000    0.19000000
   16.31694603   86.01049805    0.25000000    0.19000000
   16.32027817   82.74559784    0.25000000    0.19000000
   16.32361221   84.70729828    0.25000000    0.19000000
   16.32666779   86.05259705    0.25000000    0.19000000
   16.33000183   83.46730042    0.25000000    0.19000000
   16.33333397   82.64360046    0.25000000    0.19000000
   16.33444595   79.50599670    0.25000000    0.19000000
   16.33694458   81.27290344    0.25000000    0.19000000
   16.34027863   77.28160095    0.25000000    0.19000000
   16.34361267   79.10150146    0.25000000    0.19000000
   16.34944534   79.10150146    0.25000000    0.19000000
   16.35361099   82.34570313    0.25000000    0.19000000
   16.35666656   84.65409851    0.25000000    0.19000000
   16.36000061   87.41490173    0.25000000    0.19000000
   16.36305618   91.28079987    0.25000000    0.19000000
   16.36638832   81.72460175    0.25000000    0.19000000
   16.36750031   77.89769745    0.25000000    0.19000000
   16.37027740   75.05829620    0.25000000    0.19000000
   16.37333298   78.85260010    0.25000000    0.19000000
   16.37666702   82.23770142    0.25000000    0.19000000
   16.38000107   77.39299774    0.25000000    0.19000000
   16.38305473   81.60369873    0.25000000    0.19000000
   16.38638878   81.23470306    0.25000000    0.19000000
   16.39222145   81.23470306    0.25000000    0.19000000
   16.39638901   85.97260284    0.25000000    0.19000000
   16.39944458   79.01170349    0.25000000    0.19000000
   16.40083313   78.25360107    0.25000000    0.19000000
   16.40333366   74.38980103    0.25000000    0.19000000
   16.40638924   75.16010284    0.25000000    0.19000000
   16.40972137   84.81529999    0.25000000    0.19000000
   16.41305542   75.45770264    0.25000000    0.19000000
   16.41611099   84.57980347    0.25000000    0.19000000
   16.41944313   80.16410065    0.25000000    0.19000000
   16.42277718   80.74140167    0.25000000    0.19000000
   16.42583275   83.67829895    0.25000000    0.19000000
   16.42916679   81.42710114    0.25000000    0.19000000
   16.43499947   81.42710114    0.25000000    0.19000000
   16.43916512   78.50550079    0.25000000    0.19000000
   16.44249916   84.97090149    0.25000000    0.19000000
   16.44555473   92.24179840    0.25000000    0.19000000
   16.44888878   78.90019989    0.25000000    0.19000000
   16.45194435   82.85089874    0.25000000    0.19000000
   16.45527840   81.27610016    0.25000000    0.19000000
   16.45861244   77.80609894    0.25000000    0.19000000
   16.46166801   75.39099884    0.25000000    0.19000000
   16.46500015   79.38330078    0.25000000    0.19000000
   16.46750069   79.08760071    0.25000000    0.19000000
   16.46861076   79.13950348    0.25000000    0.19000000
   16.47166634   78.69770050    0.25000000    0.19000000
   16.47777748   78.69770050    0.25000000    0.19000000
   16.48194504   81.20079803    0.25000000    0.19000000
   16.48527718   84.42630005    0.25000000    0.19000000
   16.48833275   83.16919708    0.25000000    0.19000000
   16.49166679   81.59100342    0.25000000    0.19000000
   16.49500084   85.53320313    0.25000000    0.19000000
   16.49805641   94.37049866    0.25000000    0.19000000
   16.50083351   80.30120087    0.25000000    0.19000000
   16.50194359   84.59629822    0.25000000    0.19000000
   16.50499916   90.71910095    0.25000000    0.19000000
   16.50833321   81.65830231    0.25000000    0.19000000
   16.51166725   82.55100250    0.25000000    0.19000000
   16.51472282   78.27909851    0.25000000    0.19000000
   16.52083397   78.27909851    0.25000000    0.19000000
   16.52472115   87.67289734    0.25000000    0.19000000
   16.52805519   84.99669647    0.25000000    0.19000000
   16.53138924   87.24150085    0.25000000    0.19000000
   16.53416634   79.53839874    0.25000000    0.19000000
   16.53499985   80.12920380    0.25000000    0.19000000
   16.53805542   73.70259857    0.25000000    0.19000000
   16.54138756   86.06500244    0.25000000    0.19000000
   16.54472160   79.83989716    0.25000000    0.19000000
   16.54777718   75.78410339    0.25000000    0.19000000
   16.55111122   78.68219757    0.25000000    0.19000000
   16.55444336   75.87840271    0.25000000    0.19000000
   16.55749893   73.52050018    0.25000000    0.19000000
   16.56361008   73.52050018    0.25000000    0.19000000
   16.56777954   74.41419983    0.25000000    0.19000000
   16.57083511   79.27570343    0.25000000    0.19000000
   16.57416725   74.83789825    0.25000000    0.19000000
   16.57750130   75.48339844    0.25000000    0.19000000
   16.58055687   89.12210083    0.25000000    0.19000000
   16.58388901   79.18920135    0.25000000    0.19000000
   16.58722305   78.73020172    0.25000000    0.19000000
   16.59027863   81.96179962    0.25000000    0.19000000
   16.59361267   84.44960022    0.25000000    0.19000000
   16.59666824   82.06629944    0.25000000    0.19000000
   16.60000038   75.72270203    0.25000000    0.19000000
   16.60083389   80.26550293    0.25000000    0.19000000
   16.62166595   80.26550293    0.25000000    0.19000000
   16.62583351   76.09829712    0.25000000    0.19000000
   16.62888908   77.29239655    0.25000000    0.19000000
   16.63222313   79.74479675    0.25000000    0.19000000
   16.63416672   83.88430023    0.25000000    0.19000000
   16.63583374   80.87300110    0.25000000    0.19000000
   16.63916588   92.70349884    0.25000000    0.19000000
   16.64222145   96.93250275    0.25000000    0.19000000
   16.64555550   87.13729858    0.25000000    0.19000000
   16.64861107   81.46610260    0.25000000    0.19000000
   16.65194321   82.43479919    0.25000000    0.19000000
   16.65527725   81.65660095    0.25000000    0.19000000
   16.65833282   77.22599792    0.25000000    0.19000000
   16.66444397   77.22599792    0.25000000    0.19000000
   16.66860962   81.52429962    0.25000000    0.19000000
   16.67166519   84.64510345    0.25000000    0.19000000
   16.67499924   78.41380310    0.25000000    0.19000000
   16.67805481   89.39029694    0.25000000    0.19000000
   16.68138885   88.62889862    0.25000000    0.19000000
   16.68472099   82.46810150    0.25000000    0.19000000
   16.68777657   89.80780029    0.25000000    0.19000000
   16.69111061   80.16190338    0.25000000    0.19000000
   16.69444275   82.43299866    0.25000000    0.19000000
   16.69749832   87.52729797    0.25000000    0.19000000
   16.70083427   89.98960114    0.25000000    0.19000000
   16.70138931   89.33329773    0.25000000    0.19000000
   16.70722389   89.33329773    0.25000000    0.19000000
   16.71138954   92.60549927    0.25000000    0.19000000
   16.71444511   88.67780304    0.25000000    0.19000000
   16.71777916   86.34909821    0.25000000    0.19000000
   16.72111130   88.41760254    0.25000000    0.19000000
   16.72416687   96.15950012    0.25000000    0.19000000
   16.72750092   83.69159698    0.25000000    0.19000000
   16.73055649   82.57399750    0.25000000    0.19000000
   16.73388863   87.39260101    0.25000000    0.19000000
   16.73472214   81.82389832    0.25000000    0.19000000
   16.73750114   85.66529846    0.25000000    0.19000000
   16.74083328   79.23680115    0.25000000    0.19000000
   16.74416733   79.61879730    0.25000000    0.19000000
   16.75000000   79.61879730    0.25000000    0.19000000
   16.75416756   79.92510223    0.25000000    0.19000000
   16.75749969   82.04409790    0.25000000    0.19000000
   16.76055527   80.40059662    0.25000000    0.19000000
   16.76388931   78.34020233    0.25000000    0.19000000
   16.76694489   72.56390381    0.25000000    0.19000000
   16.76805496   72.40299988    0.25000000    0.19000000
   16.77055550   78.32689667    0.25000000    0.19000000
   16.77388954   79.53669739    0.25000000    0.19000000
   16.77722168   78.39730072    0.25000000    0.19000000
   16.78027725   80.94219971    0.25000000    0.19000000
   16.78361130   80.11229706    0.25000000    0.19000000
   16.78694344   82.42929840    0.25000000    0.19000000
   16.79277802   82.42929840    0.25000000    0.19000000
   16.79694366   88.57460022    0.25000000    0.19000000
   16.80027771   90.05850220    0.25000000    0.19000000
   16.80138779   80.02279663    0.25000000    0.19000000
   16.80360985   87.78269958    0.25000000    0.19000000
   16.80694389   79.35790253    0.25000000    0.19000000
   16.81027794   80.25969696    0.25000000    0.19000000
   16.81333351   78.39849854    0.25000000    0.19000000
   16.81666756   87.35710144    0.25000000    0.19000000
   16.82000160   86.82659912    0.25000000    0.19000000
   16.82305717   93.12220001    0.25000000    0.19000000
   16.82638931   84.75340271    0.25000000    0.19000000
   16.82944489   76.14409637    0.25000000    0.19000000
   16.83583450   76.14409637    0.25000000    0.19000000
   16.84000015   84.74210358    0.25000000    0.19000000
   16.84305573   80.42320251    0.25000000    0.19000000
   16.84638977   84.47579956    0.25000000    0.19000000
   16.84944534   85.46450043    0.25000000    0.19000000
   16.85277748   81.45639801    0.25000000    0.19000000
   16.85611153   84.07939911    0.25000000    0.19000000
   16.85916710   86.82070160    0.25000000    0.19000000
   16.86250114   86.78489685    0.25000000    0.19000000
   16.86583328   88.37200165    0.25000000    0.19000000
   16.86805534   76.04599762    0.25000000    0.19000000
   16.86916733   78.17089844    0.25000000    0.19000000
   16.87249947   84.97139740    0.25000000    0.19000000
   16.87861061   84.97139740    0.25000000    0.19000000
   16.88277817   82.49919891    0.25000000    0.19000000
   16.88583374   75.06980133    0.25000000    0.19000000
   16.88916588   -1.00000000    0.25000000    0.19000000
   16.89249992   -1.00000000    0.25000000    0.19000000
   16.89555550   -1.00000000    0.25000000    0.19000000
   16.89888954   -1.00000000    0.25000000    0.19000000
   16.90222168  129.34300232    0.25000000    0.19000000
   16.90555573   94.65979767    0.25000000    0.19000000
   16.90861130   86.07700348    0.25000000    0.19000000
   16.91194344   78.11560059    0.25000000    0.19000000
   16.91527748   89.81900024    0.25000000    0.19000000
   16.92138863   89.81900024    0.25000000    0.19000000
   16.92555428   92.70829773    0.25000000    0.19000000
   16.92888832   77.15460205    0.25000000    0.19000000
   16.93194389   92.23159790    0.25000000    0.19000000
   16.93472099   80.85929871    0.25000000    0.19000000
   16.93583298   79.30380249    0.25000000    0.19000000
   16.93888855   87.71109772    0.25000000    0.19000000
   16.94222069   90.28829956    0.25000000    0.19000000
   16.94527626   98.87110138    0.25000000    0.19000000
   16.94861031   90.35729980    0.25000000    0.19000000
   16.95194435   81.35109711    0.25000000    0.19000000
   16.95527840   85.87429810    0.25000000    0.19000000
   16.95833397   83.82920074    0.25000000    0.19000000
   16.96416664   83.82920074    0.25000000    0.19000000
   16.96833420   84.76830292    0.25000000    0.19000000
   16.97166634   79.12550354    0.25000000    0.19000000
   16.97472191   84.98819733    0.25000000    0.19000000
   16.97805595   81.70359802    0.25000000    0.19000000
   16.98139000   88.00959778    0.25000000    0.19000000
   16.98444557   90.00559998    0.25000000    0.19000000
   16.98777771   85.24539948    0.25000000    0.19000000
   16.99111176   89.30650330    0.25000000    0.19000000
   16.99416733   88.91310120    0.25000000    0.19000000
   16.99749947  104.80000305    0.25000000    0.19000000
   17.00055504  101.47100067    0.25000000    0.19000000
   17.00138855   94.93219757    0.25000000    0.19000000
   17.00722313   94.93219757    0.25000000    0.19000000
   17.01111031   84.12239838    0.25000000    0.19000000
   17.01444435   89.93710327    0.25000000    0.19000000
   17.01777840   85.24410248    0.25000000    0.19000000
   17.02083397   84.50499725    0.25000000    0.19000000
   17.02416611   89.27320099    0.25000000    0.19000000
   17.02750015   84.83910370    0.25000000    0.19000000
   17.03055573   91.98320007    0.25000000    0.19000000
   17.03388786   89.96679688    0.25000000    0.19000000
   17.03472137   88.05780029    0.25000000    0.19000000
   17.03750038   81.62069702    0.25000000    0.19000000
   17.04055595   -1.00000000   -1.00000000   -1.00000000
   17.04388809   96.72399902    0.25000000    0.19000000
   17.04999924   96.72399902    0.25000000    0.19000000
   17.05416679   85.94170380    0.25000000    0.19000000
   17.05722237   84.14720154    0.25000000    0.19000000
   17.06055450   75.31759644    0.25000000    0.19000000
   17.06388855   80.54199982    0.25000000    0.19000000
   17.06694603   76.44419861    0.25000000    0.19000000
   17.06805611   84.07289886    0.25000000    0.19000000
   17.07083511   74.76239777    0.25000000    0.19000000
   17.07389069   84.37640381    0.25000000    0.19000000
   17.07722282   86.36660004    0.25000000    0.19000000
   17.08027840   73.69629669    0.25000000    0.19000000
   17.08361244   75.90769958    0.25000000    0.19000000
   17.08694458   71.76679993    0.25000000    0.19000000
   17.09277916   71.76679993    0.25000000    0.19000000
   17.09694481   89.16680145    0.25000000    0.19000000
   17.10027885   86.46779633    0.25000000    0.19000000
   17.10138893   84.39170074    0.25000000    0.19000000
   17.10388947   87.46790314    0.25000000    0.19000000
   17.10694504  109.77799988    0.25000000    0.19000000
   17.11027908   84.02030182    0.25000000    0.19000000
   17.11333466   77.29859924    0.25000000    0.19000000
   17.11666679   81.04720306    0.25000000    0.19000000
   17.12000084   74.97709656    0.25000000    0.19000000
   17.12305641   82.99890137    0.25000000    0.19000000
   17.12638855   77.14019775    0.25000000    0.19000000
   17.12972260   92.52230072    0.25000000    0.19000000
   17.13555527   92.52230072    0.25000000    0.19000000
   17.13972282   87.01660156    0.25000000    0.19000000
   17.14305496   90.11940002    0.25000000    0.19000000
   17.14611053   80.32579803    0.25000000    0.19000000
   17.14944458   81.29660034    0.25000000    0.19000000
   17.15277672   73.06159973    0.25000000    0.19000000
   17.15583229   75.40470123    0.25000000    0.19000000
   17.15916634   79.63359833    0.25000000    0.19000000
   17.16250038   78.11789703    0.25000000    0.19000000
   17.16555595   93.54900360    0.25000000    0.19000000
   17.16805458   86.91220093    0.25000000    0.19000000
   17.16944313   89.48370361    0.25000000    0.19000000
   17.17249870   83.99870300    0.25000000    0.19000000
   17.17860985   83.99870300    0.25000000    0.19000000
   17.18249893   88.25360107    0.25000000    0.19000000
   17.18583298   86.67559814    0.25000000    0.19000000
   17.18916512   89.72350311    0.25000000    0.19000000
   17.19222069   79.13159943    0.25000000    0.19000000
   17.19555473   79.08989716    0.25000000    0.19000000
   17.19888878   83.05960083    0.25000000    0.19000000
   17.20138931   79.50209808    0.25000000    0.19000000
   17.20250130   81.51740265    0.25000000    0.19000000
   17.20555687   84.77429962    0.25000000    0.19000000
   17.20888901   78.28679657    0.25000000    0.19000000
   17.21222305   81.05570221    0.25000000    0.19000000
   17.21527863   85.80410004    0.25000000    0.19000000
   17.22138977   85.80410004    0.25000000    0.19000000
   17.22555542   78.08239746    0.25000000    0.19000000
   17.22861099   80.97630310    0.25000000    0.19000000
   17.23194504   76.17350006    0.25000000    0.19000000
   17.23472214   77.81430054    0.25000000    0.19000000
   17.23555565   77.15769958    0.25000000    0.19000000
   17.23861122   78.99829865    0.25000000    0.19000000
   17.24194527   77.00099945    0.25000000    0.19000000
   17.24527740   76.10600281    0.25000000    0.19000000
   17.24833298   80.62039948    0.25000000    0.19000000
   17.25166702   80.91799927    0.25000000    0.19000000
   17.25472260   76.57569885    0.25000000    0.19000000
   17.25805473   73.81659698    0.25000000    0.19000000
   17.26416588   73.81659698    0.25000000    0.19000000
   17.26833344   87.61609650    0.25000000    0.19000000
   17.27166557   78.88320160    0.25000000    0.19000000
   17.27472115   77.67720032    0.25000000    0.19000000
   17.27805519   82.91349792    0.25000000    0.19000000
   17.28111076   86.81220245    0.25000000    0.19000000
   17.28444481   81.28710175    0.25000000    0.19000000
   17.28777695   82.46910095    0.25000000    0.19000000
   17.29083252   84.15489960    0.25000000    0.19000000
   17.29416656   84.46299744    0.25000000    0.19000000
   17.29749870   82.74530029    0.25000000    0.19000000
   17.30055428   92.39270020    0.25000000    0.19000000
   17.30138779   83.17870331    0.25000000    0.19000000
   17.30694389   83.17870331    0.25000000    0.19000000
   17.31110954   89.18170166    0.25000000    0.19000000
   17.31444359   81.84470367    0.25000000    0.19000000
   17.31750107   79.05349731    0.25000000    0.19000000
   17.32083511   86.85389709    0.25000000    0.19000000
   17.32416725   88.49389648    0.25000000    0.19000000
   17.32722282   77.26069641    0.25000000    0.19000000
   17.33055687   75.31919861    0.25000000    0.19000000
   17.33388901   74.70069885    0.25000000    0.19000000
   17.33472252   76.37920380    0.25000000    0.19000000
   17.33750153   75.81659698    0.25000000    0.19000000
   17.34055710   83.62930298    0.25000000    0.19000000
   17.34388924   89.23419952    0.25000000    0.19000000
   17.35000038   89.23419952    0.25000000    0.19000000
   17.35388947   79.86190033    0.25000000    0.19000000
   17.35722351   81.37300110    0.25000000    0.19000000
   17.36055565   78.35729980    0.25000000    0.19000000
   17.36361122   77.01760101    0.25000000    0.19000000
   17.36694527   89.36789703    0.25000000    0.19000000
   17.36805534   84.38490295    0.25000000    0.19000000
   17.37055588   79.03089905    0.25000000    0.19000000
   17.37361145   92.12529755    0.25000000    0.19000000
   17.37694550   86.99639893    0.25000000    0.19000000
   17.38027763   91.89240265    0.25000000    0.19000000
   17.38333321   80.73549652    0.25000000    0.19000000
   17.38666725   97.00890350    0.25000000    0.19000000
   17.39277840   97.00890350    0.25000000    0.19000000
   17.39694405   96.42220306    0.25000000    0.19000000
   17.39999962   86.95259857    0.25000000    0.19000000
   17.40138817   81.98999786    0.25000000    0.19000000
   17.40388870   88.15699768    0.25000000    0.19000000
   17.40694427   83.93000031    0.25000000    0.19000000
   17.41027832   87.90650177    0.25000000    0.19000000
   17.41361046   88.63780212    0.25000000    0.19000000
   17.41666603   79.19660187    0.25000000    0.19000000
   17.42000008   89.17729950    0.25000000    0.19000000
   17.42305565   95.97650146    0.25000000    0.19000000
   17.42638779   93.06390381    0.25000000    0.19000000
   17.42972183   89.80069733    0.25000000    0.19000000
   17.43555450   89.80069733    0.25000000    0.19000000
   17.43972206   85.15409851    0.25000000    0.19000000
   17.44305420   84.37560272    0.25000000    0.19000000
   17.44610977   84.47679901    0.25000000    0.19000000
   17.44944382   84.13670349    0.25000000    0.19000000
   17.45250130   85.43599701    0.25000000    0.19000000
   17.45583344   86.16560364    0.25000000    0.19000000
   17.45916748   79.04799652    0.25000000    0.19000000
   17.46222305   80.74639893    0.25000000    0.19000000
   17.46555710   91.33409882    0.25000000    0.19000000
   17.46805573   79.17050171    0.25000000    0.19000000
   17.46916771   75.54650116    0.25000000    0.19000000
   17.47222328   80.35900116    0.25000000    0.19000000
   17.47833443   80.35900116    0.25000000    0.19000000
   17.48250008   80.51470184    0.25000000    0.19000000
   17.48583412   84.93280029    0.25000000    0.19000000
   17.48888969   82.14070129    0.25000000    0.19000000
   17.49222183   83.93560028    0.25000000    0.19000000
   17.49555588   86.43389893    0.25000000    0.19000000
   17.49861145   85.07929993    0.25000000    0.19000000
   17.50138855   75.22109985    0.25000000    0.19000000
   17.50250053   80.05300140    0.25000000    0.19000000
   17.50555611   88.75379944    0.25000000    0.19000000
   17.50888824   90.61289978    0.25000000    0.19000000
   17.51222229   87.79699707    0.25000000    0.19000000
   17.51527786   81.59839630    0.25000000    0.19000000
   17.52138901   81.59839630    0.25000000    0.19000000
   17.52527809  102.85299683    0.25000000    0.19000000
   17.52861023   87.78720093    0.25000000    0.19000000
   17.53194427   78.25170135    0.25000000    0.19000000
   17.53472137   89.93060303    0.25000000    0.19000000
   17.53555489   85.73139954    0.25000000    0.19000000
   17.53861046   91.64779663    0.25000000    0.19000000
   17.54194450   81.78050232    0.25000000    0.19000000
   17.54527664   82.52249908    0.25000000    0.19000000
   17.54833221   75.31780243    0.25000000    0.19000000
   17.55166626   75.39150238    0.25000000    0.19000000
   17.55499840   80.47519684    0.25000000    0.19000000
   17.55805397   77.97769928    0.25000000    0.19000000
   17.56416512   77.97769928    0.25000000    0.19000000
   17.56833458   85.58080292    0.25000000    0.19000000
   17.57139015   80.84079742    0.25000000    0.19000000
   17.57472229   81.36070251    0.25000000    0.19000000
   17.57777786   86.96820068    0.25000000    0.19000000
   17.58111191   95.39710236    0.25000000    0.19000000
   17.58444595   86.22740173    0.25000000    0.19000000
   17.58750153   84.53579712    0.25000000    0.19000000
   17.59083366   84.11350250    0.25000000    0.19000000
   17.59416771   86.19930267    0.25000000    0.19000000
   17.59722328   79.13349915    0.25000000    0.19000000
   17.60055542   89.59780121    0.25000000    0.19000000
   17.60138893   90.80329895    0.25000000    0.19000000
   17.60694504   90.80329895    0.25000000    0.19000000
   17.61111069   88.05840302    0.25000000    0.19000000
   17.61416626   85.38449860    0.25000000    0.19000000
   17.61750031   88.07599640    0.25000000    0.19000000
   17.63527679   83.22910309    0.25000000    0.19000000
   17.63750076   80.89689636    0.25000000    0.19000000
   17.64083290   82.30079651    0.25000000    0.19000000
   17.64388847   87.72820282    0.25000000    0.19000000
   17.64999962   87.72820282    0.25000000    0.19000000
   17.65416718   85.20020294    0.25000000    0.19000000
   17.65722275   86.25279999    0.25000000    0.19000000
   17.66055489   81.50360107    0.25000000    0.19000000
   17.66388893   79.77239990    0.25000000    0.19000000
   17.66694450   90.57379913    0.25000000    0.19000000
   17.66860962   81.53289795    0.25000000    0.19000000
   17.67083359   81.05770111    0.25000000    0.19000000
   17.67416573   89.23919678    0.25000000    0.19000000
   17.67749977   90.27410126    0.25000000    0.19000000
   17.68055534   74.75330353    0.25000000    0.19000000
   17.68388748   77.93979645    0.25000000    0.19000000
   17.68694305   89.16419983    0.25000000    0.19000000
   17.69277763   89.16419983    0.25000000    0.19000000
   17.69694328   86.11879730    0.25000000    0.19000000
   17.70027924   78.56040192    0.25000000    0.19000000
   17.70166779   73.35189819    0.25000000    0.19000000
   17.70388985   83.11470032    0.25000000    0.19000000
   17.70694542   75.42739868    0.25000000    0.19000000
   17.71027946   79.69439697    0.25000000    0.19000000
   17.71361160   76.99030304    0.25000000    0.19000000
   17.71666718   80.40789795    0.25000000    0.19000000
   17.72000122   72.66390228    0.25000000    0.19000000
   17.72333336   86.16000366    0.25000000    0.19000000
   17.72638893   90.02369690    0.25000000    0.19000000
   17.72972298   77.28839874    0.25000000    0.19000000
   17.73555565   77.28839874    0.25000000    0.19000000
   17.73972321   81.32189941    0.25000000    0.19000000
   17.74305534   88.20439911    0.25000000    0.19000000
   17.74638939   93.39469910    0.25000000    0.19000000
   17.74944496   88.45529938    0.25000000    0.19000000
   17.75277710   88.69589996    0.25000000    0.19000000
   17.75583267   77.91040039    0.25000000    0.19000000
   17.75916672   74.91619873    0.25000000    0.19000000
   17.76250076   83.50669861    0.25000000    0.19000000
   17.76555634   78.08460236    0.25000000    0.19000000
   17.76833344   78.16999817    0.25000000    0.19000000
   17.76944351   84.98549652    0.25000000    0.19000000
   17.77249908   90.04589844    0.25000000    0.19000000
   17.77861023   90.04589844    0.25000000    0.19000000
   17.78277779   74.44840240    0.25000000    0.19000000
   17.78583336   83.23480225    0.25000000    0.19000000
   17.78916550   76.44249725    0.25000000    0.19000000
   17.79222107   74.86920166    0.25000000    0.19000000
   17.79555511   72.68389893    0.25000000    0.19000000
   17.79888916   79.91560364    0.25000000    0.19000000
   17.80166626   88.02829742    0.25000000    0.19000000
   17.80249977   88.43769836    0.25000000    0.19000000
   17.80555534   79.15429688    0.25000000    0.19000000
   17.80888748   77.28250122    0.25000000    0.19000000
   17.81222153   85.04450226    0.25000000    0.19000000
   17.81527710   74.68000031    0.25000000    0.19000000
   17.82139015   74.68000031    0.25000000    0.19000000
   17.82555580   74.32260132    0.25000000    0.19000000
   17.82861137   76.85890198    0.25000000    0.19000000
   17.83194542   91.98719788    0.25000000    0.19000000
   17.83500099   84.17130280    0.25000000    0.19000000
   17.83555603   80.42310333    0.25000000    0.19000000
   17.83861160   82.12750244    0.25000000    0.19000000
   17.84194565   83.62210083    0.25000000    0.19000000
   17.84527779   93.50710297    0.25000000    0.19000000
   17.84833336   86.58470154    0.25000000    0.19000000
   17.85166740   76.89779663    0.25000000    0.19000000
   17.85499954   83.17819977    0.25000000    0.19000000
   17.85805511   80.46369934    0.25000000    0.19000000
   17.86416626   80.46369934    0.25000000    0.19000000
   17.86833382   77.98090363    0.25000000    0.19000000
   17.86888885   81.53189850    0.25000000    0.19000000
   17.87222290   80.84799957    0.25000000    0.19000000
   17.87527847   89.04989624    0.25000000    0.19000000
   17.87861061   92.81050110    0.25000000    0.19000000
   17.88166618   78.22969818    0.25000000    0.19000000
   17.88500023   87.82129669    0.25000000    0.19000000
   17.88833237   77.71959686    0.25000000    0.19000000
   17.89138794   81.96130371    0.25000000    0.19000000
   17.89472198   84.79759979    0.25000000    0.19000000
   17.89805603   83.07050323    0.25000000    0.19000000
   17.90111160   89.18319702    0.25000000    0.19000000
   17.90166664   89.93039703    0.25000000    0.19000000
   17.90694427   89.93039703    0.25000000    0.19000000
   17.91110992   88.98419952    0.25000000    0.19000000
   17.91444397   85.91200256    0.25000000    0.19000000
   17.91777802   80.56909943    0.25000000    0.19000000
   17.92083359   93.49610138    0.25000000    0.19000000
   17.92416573   86.46800232    0.25000000    0.19000000
   17.92722130   86.58270264    0.25000000    0.19000000
   17.93055534   76.97810364    0.25000000    0.19000000
   17.93388748   85.84570313    0.25000000    0.19000000
   17.93499947   94.17610168    0.25000000    0.19000000
   17.93750000   86.88849640    0.25000000    0.19000000
   17.94083214   76.76570129    0.25000000    0.19000000
   17.94388771   78.30439758    0.25000000    0.19000000
   17.95000076   78.30439758    0.25000000    0.19000000
   17.95388985   81.46070099    0.25000000    0.19000000
   17.95722389   89.48040009    0.25000000    0.19000000
   17.96055603   89.09159851    0.25000000    0.19000000
   17.96361160   86.60990143    0.25000000    0.19000000
   17.96694565   89.30490112    0.25000000    0.19000000
   17.96833420   86.51360321    0.25000000    0.19000000
   17.97055626   73.94020081    0.25000000    0.19000000
   17.97389030   83.62329865    0.25000000    0.19000000
   17.97694588   86.26920319    0.25000000    0.19000000
   17.98027802   93.57710266    0.25000000    0.19000000
   17.98361206   78.77580261    0.25000000    0.19000000
   17.98666763   80.97830200    0.25000000    0.19000000
   17.99277878   80.97830200    0.25000000    0.19000000
   17.99694443   83.39640045    0.25000000    0.19000000
   18.00000000   73.84079742    0.25000000    0.19000000
   18.00166702   87.19619751    0.25000000    0.19000000
   18.00388908   83.11840057    0.25000000    0.19000000
   18.00722313   82.47959900    0.25000000    0.19000000
   18.01027870   77.47170258    0.25000000    0.19000000
   18.01361084   77.44290161    0.25000000    0.19000000
   18.01666641   77.51239777    0.25000000    0.19000000
   18.02000046   75.96640015    0.25000000    0.19000000
   18.02333260   88.32969666    0.25000000    0.19000000
   18.02638817   83.88719940    0.25000000    0.19000000
   18.02972221  100.44799805    0.25000000    0.19000000
   18.03555489  100.44799805    0.25000000    0.19000000
   18.03972244   89.82479858    0.25000000    0.19000000
   18.04305458   82.00679779    0.25000000    0.19000000
   18.04611015   84.81430054    0.25000000    0.19000000
   18.04944420   89.69049835    0.25000000    0.19000000
   18.05249977   75.08270264    0.25000000    0.19000000
   18.05583191   88.22070313    0.25000000    0.19000000
   18.05916595   91.30460358    0.25000000    0.19000000
   18.06222153   93.13240051    0.25000000    0.19000000
   18.06555557   84.67539978    0.25000000    0.19000000
   18.06833458   96.43930054    0.25000000    0.19000000
   18.06916809   94.21610260    0.25000000    0.19000000
   18.07250023   89.18560028    0.25000000    0.19000000
   18.07833481   89.18560028    0.25000000    0.19000000
   18.08250046   96.15399933    0.25000000    0.19000000
   18.08583450   81.45220184    0.25000000    0.19000000
   18.08889008   81.71749878    0.25000000    0.19000000
   18.09222221   79.88790131    0.25000000    0.19000000
   18.09555626   85.96749878    0.25000000    0.19000000
   18.09861183   76.62200165    0.25000000    0.19000000
   18.10166740   89.45269775    0.25000000    0.19000000
   18.10222244   84.84609985    0.25000000    0.19000000
   18.10555649   89.63089752    0.25000000    0.19000000
   18.10861206   82.10119629    0.25000000    0.19000000
   18.11194420   87.98280334    0.25000000    0.19000000
   18.11499977   83.89070129    0.25000000    0.19000000
   18.12138939   83.89070129    0.25000000    0.19000000
   18.12527847   81.53949738    0.25000000    0.19000000
   18.12861061   84.63649750    0.25000000    0.19000000
   18.13194466   87.55100250    0.25000000    0.19000000
   18.13500023   83.37840271    0.25000000    0.19000000
   18.13555527   91.67980194    0.25000000    0.19000000
   18.13888931   89.14720154    0.25000000    0.19000000
   18.14194489   84.73680115    0.25000000    0.19000000
   18.14527702   76.24780273    0.25000000    0.19000000
   18.14861107   85.58059692    0.25000000    0.19000000
   18.15166664   78.55909729    0.25000000    0.19000000
   18.15499878   83.39450073    0.25000000    0.19000000
   18.15805435   78.40460205    0.25000000    0.19000000
   18.16416550   78.40460205    0.25000000    0.19000000
   18.16833305   84.95670319    0.25000000    0.19000000
   18.16888809   81.84539795    0.25000000    0.19000000
   18.17194366   83.55670166    0.25000000    0.19000000
   18.17527771   76.01370239    0.25000000    0.19000000
   18.17860985   91.05439758    0.25000000    0.19000000
   18.18166542   77.64270020    0.25000000    0.19000000
   18.18499947   77.99590302    0.25000000    0.19000000
   18.18805504   74.77709961    0.25000000    0.19000000
   18.19138718   78.82330322    0.25000000    0.19000000
   18.19472122   82.19210052    0.25000000    0.19000000
   18.19777679   81.00659943    0.25000000    0.19000000
   18.20111275   71.29859924    0.25000000    0.19000000
   18.20222282   85.76149750    0.25000000    0.19000000
   18.20694542   85.76149750    0.25000000    0.19000000
   18.21111107   79.61650085    0.25000000    0.19000000
   18.21444511   84.69609833    0.25000000    0.19000000
   18.21750069   85.32910156    0.25000000    0.19000000
   18.22083473   72.86799622    0.25000000    0.19000000
   18.22416687   81.25990295    0.25000000    0.19000000
   18.22722244   85.91400146    0.25000000    0.19000000
   18.23055649   89.14279938    0.25000000    0.19000000
   18.23388863   86.64040375    0.25000000    0.19000000
   18.23555565   82.29830170    0.25000000    0.19000000
   18.23722267   82.49340057    0.25000000    0.19000000
   18.24055672   86.13459778    0.25000000    0.19000000
   18.24388885   90.45570374    0.25000000    0.19000000
   18.24972153   90.45570374    0.25000000    0.19000000
   18.25388908   76.67710114    0.25000000    0.19000000
   18.25722313   86.61640167    0.25000000    0.19000000
   18.26027870   82.95980072    0.25000000    0.19000000
   18.26361084   81.15689850    0.25000000    0.19000000
   18.26694489   83.76760101    0.25000000    0.19000000
   18.26888847   88.86620331    0.25000000    0.19000000
   18.27027702   85.77629852    0.25000000    0.19000000
   18.27361107   90.74299622    0.25000000    0.19000000
   18.27694511   91.56539917    0.25000000    0.19000000
   18.28000069   83.26629639    0.25000000    0.19000000
   18.28333282   91.64949799    0.25000000    0.19000000
   18.28638840   91.51159668    0.25000000    0.19000000
   18.29277802   91.51159668    0.25000000    0.19000000
   18.29666710   92.27989960    0.25000000    0.19000000
   18.29999924   81.47599792    0.25000000    0.19000000
   18.30222130   91.32839966    0.25000000    0.19000000
   18.30360985   88.69239807    0.25000000    0.19000000
   18.30694389   90.55480194    0.25000000    0.19000000
   18.31027794   81.31020355    0.25000000    0.19000000
   18.31333351   87.42330170    0.25000000    0.19000000
   18.31666756   72.64089966    0.25000000    0.19000000
   18.32000160   72.64839935    0.25000000    0.19000000
   18.32305717   85.87680054    0.25000000    0.19000000
   18.32638931   73.28469849    0.25000000    0.19000000
   18.32944489   83.52850342    0.25000000    0.19000000
   18.33555603   83.52850342    0.25000000    0.19000000
   18.33972359   89.20800018    0.25000000    0.19000000
   18.34277916   80.13069916    0.25000000    0.19000000
   18.34611130   88.06269836    0.25000000    0.19000000
   18.34944534   90.33769989    0.25000000    0.19000000
   18.35250092   94.40080261    0.25000000    0.19000000
   18.35583305   80.34069824    0.25000000    0.19000000
   18.35888863   85.05729675    0.25000000    0.19000000
   18.36222267   97.52929688    0.25000000    0.19000000
   18.36555672   91.69450378    0.25000000    0.19000000
   18.36861038   87.33930206    0.25000000    0.19000000
   18.37055588   90.82070160    0.25000000    0.19000000
   18.37249947   87.11879730    0.25000000    0.19000000
   18.37833405   87.11879730    0.25000000    0.19000000
   18.38249969   86.80680084    0.25000000    0.19000000
   18.38583374   77.79660034    0.25000000    0.19000000
   18.38888931   78.33380127    0.25000000    0.19000000
   18.39222145   80.07440186    0.25000000    0.19000000
   18.39527702   83.77290344    0.25000000    0.19000000
   18.39861107   84.42230225    0.25000000    0.19000000
   18.40194321   80.56469727    0.25000000    0.19000000
   18.40388870   79.80789948    0.25000000    0.19000000
   18.40555573   93.73950195    0.25000000    0.19000000
   18.40861130   84.65409851    0.25000000    0.19000000
   18.41194344   77.60659790    0.25000000    0.19000000
   18.41527748   85.90170288    0.25000000    0.19000000
   18.42111015   85.90170288    0.25000000    0.19000000
   18.42527771   73.37380219    0.25000000    0.19000000
   18.42860985   82.11710358    0.25000000    0.19000000
   18.43166542   86.48690033    0.25000000    0.19000000
   18.43499947   82.05470276    0.25000000    0.19000000
   18.43750000   85.37760162    0.25000000    0.19000000
   18.43861008   81.34719849    0.25000000    0.19000000
   18.44194412   90.93859863    0.25000000    0.19000000
   18.44527626   85.85690308    0.25000000    0.19000000
   18.44833183   86.30899811    0.25000000    0.19000000
   18.45166779   85.26319885    0.25000000    0.19000000
   18.45499992   74.89350128    0.25000000    0.19000000
   18.45805550   75.76580048    0.25000000    0.19000000
   18.46416664   75.76580048    0.25000000    0.19000000
   18.46805573   77.95210266    0.25000000    0.19000000
   18.47083473   80.73840332    0.25000000    0.19000000
   18.47166634   82.30039978    0.25000000    0.19000000
   18.47500038   88.90239716    0.25000000    0.19000000
   18.47833443   84.70300293    0.25000000    0.19000000
   18.48139000   81.11959839    0.25000000    0.19000000
   18.48472214   83.98390198    0.25000000    0.19000000
   18.48805618   78.44889832    0.25000000    0.19000000
   18.49111176   78.71440125    0.25000000    0.19000000
   18.49444389   77.39839935    0.25000000    0.19000000
   18.49749947   77.10959625    0.25000000    0.19000000
   18.50083351   82.10859680    0.25000000    0.19000000
   18.50694466   82.10859680    0.25000000    0.19000000
   18.51111031   82.57659912    0.25000000    0.19000000
   18.51416588   81.90499878    0.25000000    0.19000000
   18.51749992   79.66159821    0.25000000    0.19000000
   18.52083397   83.33319855    0.25000000    0.19000000
   18.52388954   85.84850311    0.25000000    0.19000000
   18.52722168   75.10179901    0.25000000    0.19000000
   18.53027725   79.83450317    0.25000000    0.19000000
   18.53361130   79.14399719    0.25000000    0.19000000
   18.53694344   89.85669708    0.25000000    0.19000000
   18.53777695   83.06240082    0.25000000    0.19000000
   18.54055595   81.61260223    0.25000000    0.19000000
   18.54361153   82.65010071    0.25000000    0.19000000
   18.54972076   82.65010071    0.25000000    0.19000000
   18.55388832   85.33699799    0.25000000    0.19000000
   18.55722237   88.96360016    0.25000000    0.19000000
   18.56027794   78.24410248    0.25000000    0.19000000
   18.56361008   90.69860077    0.25000000    0.19000000
   18.56694603   85.05449677    0.25000000    0.19000000
   18.57000160   85.59329987    0.25000000    0.19000000
   18.57111168   91.43959808    0.25000000    0.19000000
   18.57389069   85.99389648    0.25000000    0.19000000
   18.57694626   92.00090027    0.25000000    0.19000000
   18.58027840   79.81809998    0.25000000    0.19000000
   18.58361244   88.67569733    0.25000000    0.19000000
   18.58666801   83.29409790    0.25000000    0.19000000
   18.59250069   83.29409790    0.25000000    0.19000000
   18.59666824   89.51909637    0.25000000    0.19000000
   18.60000038   83.58129883    0.25000000    0.19000000
   18.60305595   84.73850250    0.25000000    0.19000000
   18.60472298   87.76529694    0.25000000    0.19000000
   18.60666656   88.20890045    0.25000000    0.19000000
   18.61000061   81.87020111    0.25000000    0.19000000
   18.61333466   85.26689911    0.25000000    0.19000000
   18.61638832   84.75019836    0.25000000    0.19000000
   18.61972237   89.59549713    0.25000000    0.19000000
   18.62305641   96.99400330    0.25000000    0.19000000
   18.62611198   90.64859772    0.25000000    0.19000000
   18.62944412   93.09729767    0.25000000    0.19000000
   18.63555527   93.09729767    0.25000000    0.19000000
   18.65388870   74.15000153    0.25000000    0.19000000
   18.65694427   96.00080109    0.25000000    0.19000000
   18.66027832   74.96410370    0.25000000    0.19000000
   18.66361046   86.48960114    0.25000000    0.19000000
   18.66666603   84.58039856    0.25000000    0.19000000
   18.67000008   87.31109619    0.25000000    0.19000000
   18.67333221   93.70099640    0.25000000    0.19000000
   18.67860985   93.70099640    0.25000000    0.19000000
   18.68277740   93.77880096    0.25000000    0.19000000
   18.68583298   89.03330231    0.25000000    0.19000000
   18.68694305   82.54620361    0.25000000    0.19000000
   18.68944359   79.20079803    0.25000000    0.19000000
   18.69277763   90.66139984    0.25000000    0.19000000
   18.69610977   79.86669922    0.25000000    0.19000000
   18.69916534   87.69550323    0.25000000    0.19000000
   18.70250130   77.36299896    0.25000000    0.19000000
   18.70583344   92.05660248    0.25000000    0.19000000
   18.70888901   80.80570221    0.25000000    0.19000000
   18.71222305   81.57039642    0.25000000    0.19000000
   18.71527863   85.17510223    0.25000000    0.19000000
   18.72138977   85.17510223    0.25000000    0.19000000
   18.72555542   81.61720276    0.25000000    0.19000000
   18.72861099   88.16470337    0.25000000    0.19000000
   18.73194504   78.77480316    0.25000000    0.19000000
   18.73527718   79.59839630    0.25000000    0.19000000
   18.73833275   81.04650116    0.25000000    0.19000000
   18.74166679   88.77510071    0.25000000    0.19000000
   18.74500084   84.35639954    0.25000000    0.19000000
   18.74805641   88.37139893    0.25000000    0.19000000
   18.75138855   85.91459656    0.25000000    0.19000000
   18.75361061   91.62020111    0.25000000    0.19000000
   18.75472260   82.11209869    0.25000000    0.19000000
   18.75805473   87.65059662    0.25000000    0.19000000
   18.76416588   87.65059662    0.25000000    0.19000000
   18.76833344   75.90380096    0.25000000    0.19000000
   18.77166557   99.32289886    0.25000000    0.19000000
   18.77472115   86.56240082    0.25000000    0.19000000
   18.77805519   95.70770264    0.25000000    0.19000000
   18.78138924   93.05680084    0.25000000    0.19000000
   18.78444481   94.12169647    0.25000000    0.19000000
   18.78694344   88.94049835    0.25000000    0.19000000
   18.78805542   93.03459930    0.25000000    0.19000000
   18.79138756   88.56099701    0.25000000    0.19000000
   18.79472160   95.51370239    0.25000000    0.19000000
   18.79777718   86.17800140    0.25000000    0.19000000
   18.80111122   93.17769623    0.25000000    0.19000000
   18.80694389   93.17769623    0.25000000    0.19000000
   18.81110954   93.36329651    0.25000000    0.19000000
   18.81444359   89.25759888    0.25000000    0.19000000
   18.81777954   91.20390320    0.25000000    0.19000000
   18.82027817   90.06379700    0.25000000    0.19000000
   18.82139015   87.81230164    0.25000000    0.19000000
   18.82444572   85.17289734    0.25000000    0.19000000
   18.82777786   85.51059723    0.25000000    0.19000000
   18.83083344   99.19470215    0.25000000    0.19000000
   18.83416748   91.70770264    0.25000000    0.19000000
   18.83750153   93.25679779    0.25000000    0.19000000
   18.84055710   89.78500366    0.25000000    0.19000000
   18.84388924   93.02960205    0.25000000    0.19000000
   18.85000038   93.02960205    0.25000000    0.19000000
   18.85416794   82.79869843    0.25000000    0.19000000
   18.85722351   88.52429962    0.25000000    0.19000000
   18.86055565   87.81670380    0.25000000    0.19000000
   18.86361122   83.05000305    0.25000000    0.19000000
   18.86694527   78.95880127    0.25000000    0.19000000
   18.87027740   88.88289642    0.25000000    0.19000000
   18.87333298   80.14890289    0.25000000    0.19000000
   18.87666702   78.40010071    0.25000000    0.19000000
   18.88000107   82.82170105    0.25000000    0.19000000
   18.88305473   80.70189667    0.25000000    0.19000000
   18.88638878   78.09940338    0.25000000    0.19000000
   18.88694382   77.79309845    0.25000000    0.19000000
   18.89277840   77.79309845    0.25000000    0.19000000
   18.89694405   83.15239716    0.25000000    0.19000000
   18.89999962   88.23970032    0.25000000    0.19000000
   18.90333366   94.20749664    0.25000000    0.19000000
   18.90666580   91.16510010    0.25000000    0.19000000
   18.90999985   94.30850220    0.25000000    0.19000000
   18.91305542   90.51210022    0.25000000    0.19000000
   18.91638756   89.54149628    0.25000000    0.19000000
   18.91944313   95.97200012    0.25000000    0.19000000
   18.92027664   79.93859863    0.25000000    0.19000000
   18.92333221   89.25279999    0.25000000    0.19000000
   18.92638779   88.73120117    0.25000000    0.19000000
   18.92972183   85.79609680    0.25000000    0.19000000
   18.93555450   85.79609680    0.25000000    0.19000000
   18.93972206   76.74189758    0.25000000    0.19000000
   18.94305420   91.39910126    0.25000000    0.19000000
   18.94610977   76.28579712    0.25000000    0.19000000
   18.94944382   90.52050018    0.25000000    0.19000000
   18.95277786   80.74130249    0.25000000    0.19000000
   18.95361137   75.09089661    0.25000000    0.19000000
   18.95639038   87.05149841    0.25000000    0.19000000
   18.95944595   81.20760345    0.25000000    0.19000000
   18.96277809   86.15760040    0.25000000    0.19000000
   18.96583366   87.30370331    0.25000000    0.19000000
   18.96916771   87.19969940    0.25000000    0.19000000
   18.97249985   77.83719635    0.25000000    0.19000000
   18.97833443   77.83719635    0.25000000    0.19000000
   18.98250008   88.89559937    0.25000000    0.19000000
   18.98583412   83.90830231    0.25000000    0.19000000
   18.98694420   88.52290344    0.25000000    0.19000000
   18.98944473   81.36250305    0.25000000    0.19000000
   18.99250031   89.03549957    0.25000000    0.19000000
   18.99583435   84.37120056    0.25000000    0.19000000
   18.99888992   88.18360138    0.25000000    0.19000000
   19.00222206  102.84300232    0.25000000    0.19000000
   19.00555611  101.75099945    0.25000000    0.19000000
   19.00861168   95.49949646    0.25000000    0.19000000
   19.01194382   93.55750275    0.25000000    0.19000000
   19.01527786   96.85030365    0.25000000    0.19000000
   19.02138901   96.85030365    0.25000000    0.19000000
   19.02555466   95.67089844    0.25000000    0.19000000
   19.02861023   92.01090240    0.25000000    0.19000000
   19.03194427   94.05460358    0.25000000    0.19000000
   19.03499985   94.94229889    0.25000000    0.19000000
   19.03833199   84.85790253    0.25000000    0.19000000
   19.04166603   90.33319855    0.25000000    0.19000000
   19.04472160   86.81300354    0.25000000    0.19000000
   19.04805565   90.31649780    0.25000000    0.19000000
   19.05138779   91.89920044    0.25000000    0.19000000
   19.05360985   79.85829926    0.25000000    0.19000000
   19.05499840   81.71050262    0.25000000    0.19000000
   19.05805397   83.55570221    0.25000000    0.19000000
   19.06416512   83.55570221    0.25000000    0.19000000
   19.06833458   83.59980011    0.25000000    0.19000000
   19.07139015   84.78420258    0.25000000    0.19000000
   19.07472229   79.54699707    0.25000000    0.19000000
   19.07805634   83.52179718    0.25000000    0.19000000
   19.08111191   90.58969879    0.25000000    0.19000000
   19.08444595   85.14849854    0.25000000    0.19000000
   19.08694458   84.53639984    0.25000000    0.19000000
   19.08805656   80.87290192    0.25000000    0.19000000
   19.09111214   87.60720062    0.25000000    0.19000000
   19.09444427   83.11070251    0.25000000    0.19000000
   19.09749985   94.06330109    0.25000000    0.19000000
   19.10083389   83.59320068    0.25000000    0.19000000
   19.10694504   83.59320068    0.25000000    0.19000000
   19.11111069   89.61270142    0.25000000    0.19000000
   19.11444473   87.54129791    0.25000000    0.19000000
   19.11750031   89.42140198    0.25000000    0.19000000
   19.12027740   95.89869690    0.25000000    0.19000000
   19.12138939   92.97299957    0.25000000    0.19000000
   19.12444496   99.01540375    0.25000000    0.19000000
   19.12777710   98.96379852    0.25000000    0.19000000
   19.13111115   99.53099823    0.25000000    0.19000000
   19.13416672   90.92910004    0.25000000    0.19000000
   19.13750076   91.65409851    0.25000000    0.19000000
   19.14055634   93.77239990    0.25000000    0.19000000
   19.14388847   84.39749908    0.25000000    0.19000000
   19.14972115   84.39749908    0.25000000    0.19000000
   19.15388870   97.90640259    0.25000000    0.19000000
   19.15722275   97.38990021    0.25000000    0.19000000
   19.16055489   89.56369781    0.25000000    0.19000000
   19.16361046   91.90670013    0.25000000    0.19000000
   19.16694450   91.60790253    0.25000000    0.19000000
   19.17027664   98.70639801    0.25000000    0.19000000
   19.17333221   98.93750000    0.25000000    0.19000000
   19.17666626   79.94640350    0.25000000    0.19000000
   19.17972183   87.49880219    0.25000000    0.19000000
   19.18305397   96.96959686    0.25000000    0.19000000
   19.18638802   92.94519806    0.25000000    0.19000000
   19.18694305   95.50980377    0.25000000    0.19000000
   19.19277763   95.50980377    0.25000000    0.19000000
   19.19694328   93.86139679    0.25000000    0.19000000
   19.20000076   89.68280029    0.25000000    0.19000000
   19.20333481   94.40070343    0.25000000    0.19000000
   19.20639038  107.59899902    0.25000000    0.19000000
   19.20972252  104.65899658    0.25000000    0.19000000
   19.21305656   93.52600098    0.25000000    0.19000000
   19.21611214   91.71600342    0.25000000    0.19000000
   19.21944427  105.29199982    0.25000000    0.19000000
   19.22027779   92.97889709    0.25000000    0.19000000
   19.22305679   98.53209686    0.25000000    0.19000000
   19.22611237  101.03600311    0.25000000    0.19000000
   19.22944450  106.58999634    0.25000000    0.19000000
   19.23555565  106.58999634    0.25000000    0.19000000
   19.23972321   96.33319855    0.25000000    0.19000000
   19.24277878   85.35610199    0.25000000    0.19000000
   19.24611092   85.84549713    0.25000000    0.19000000
   19.24944496   94.40290070    0.25000000    0.19000000
   19.25250053   89.94719696    0.25000000    0.19000000
   19.25361061   92.39659882    0.25000000    0.19000000
   19.25638962   91.59850311    0.25000000    0.19000000
   19.25944519   92.24199677    0.25000000    0.19000000
   19.26277733   96.32379913    0.25000000    0.19000000
   19.26611137   98.73110199    0.25000000    0.19000000
   19.26916695   99.32990265    0.25000000    0.19000000
   19.27249908   86.22109985    0.25000000    0.19000000
   19.27833366   86.22109985    0.25000000    0.19000000
   19.28249931   90.19860077    0.25000000    0.19000000
   19.28583336   88.53240204    0.25000000    0.19000000
   19.28694344   77.04730225    0.25000000    0.19000000
   19.28944397   86.06580353    0.25000000    0.19000000
   19.29249954   94.83350372    0.25000000    0.19000000
   19.29583359   97.48069763    0.25000000    0.19000000
   19.29916573   93.69629669    0.25000000    0.19000000
   19.30222130   90.39520264    0.25000000    0.19000000
   19.30555534   98.69339752    0.25000000    0.19000000
   19.30861092   89.28269958    0.25000000    0.19000000
   19.31194305   94.99279785    0.25000000    0.19000000
   19.31527710   78.03589630    0.25000000    0.19000000
   19.32111168   78.03589630    0.25000000    0.19000000
   19.32527924  101.42800140    0.25000000    0.19000000
   19.32861137   80.23809814    0.25000000    0.19000000
   19.33194542  102.83599854    0.25000000    0.19000000
   19.33500099   85.76470184    0.25000000    0.19000000
   19.33833313  105.95600128    0.25000000    0.19000000
   19.34138870   91.09510040    0.25000000    0.19000000
   19.34472275  100.82399750    0.25000000    0.19000000
   19.34805679   85.19270325    0.25000000    0.19000000
   19.35111237   83.22209930    0.25000000    0.19000000
   19.35361099  102.71900177    0.25000000    0.19000000
   19.35499954   92.79319763    0.25000000    0.19000000
   19.35805511   93.29109955    0.25000000    0.19000000
   19.36416626   93.29109955    0.25000000    0.19000000
   19.36833382   83.22889709    0.25000000    0.19000000
   19.37138939   77.28289795    0.25000000    0.19000000
   19.37472153   98.73339844    0.25000000    0.19000000
   19.37777710   95.55269623    0.25000000    0.19000000
   19.38111115   84.37680054    0.25000000    0.19000000
   19.38444519   93.24880219    0.25000000    0.19000000
   19.38694382   97.61519623    0.25000000    0.19000000
   19.38805580  103.61599731    0.25000000    0.19000000
   19.39111137   96.04239655    0.25000000    0.19000000
   19.39444351   96.17359924    0.25000000    0.19000000
   19.39777756   96.37120056    0.25000000    0.19000000
   19.40083313   83.41819763    0.25000000    0.19000000
   19.40694427   83.41819763    0.25000000    0.19000000
   19.41110992   95.53170013    0.25000000    0.19000000
   19.41416550   96.21260071    0.25000000    0.19000000
   19.41749954   92.49990082    0.25000000    0.19000000
   19.42027664   83.27749634    0.25000000    0.19000000
   19.42111015  101.40799713    0.25000000    0.19000000
   19.42416573  102.66899872    0.25000000    0.19000000
   19.42749977   90.07980347    0.25000000    0.19000000
   19.43083191   89.67769623    0.25000000    0.19000000
   19.43388748   78.60849762    0.25000000    0.19000000
   19.43722153   90.92079926    0.25000000    0.19000000
   19.44055557   78.58899689    0.25000000    0.19000000
   19.44361115   86.48609924    0.25000000    0.19000000
   19.44972038   86.48609924    0.25000000    0.19000000
   19.45388985   89.76660156    0.25000000    0.19000000
   19.45722389   92.04229736    0.25000000    0.19000000
   19.46027946   88.48619843    0.25000000    0.19000000
   19.46361160   91.30020142    0.25000000    0.19000000
   19.46694565   93.16709900    0.25000000    0.19000000
   19.47000122   87.06120300    0.25000000    0.19000000
   19.47333336   91.71810150    0.25000000    0.19000000
   19.47638893   91.64250183    0.25000000    0.19000000
   19.47972298   92.54429626    0.25000000    0.19000000
   19.48305511   97.19370270    0.25000000    0.19000000
   19.48611069   96.97299957    0.25000000    0.19000000
   19.48694420   97.33159637    0.25000000    0.19000000
   19.49250031   97.33159637    0.25000000    0.19000000
   19.49666786   93.28579712    0.25000000    0.19000000
   19.50000000   89.10739899    0.25000000    0.19000000
   19.50333405   87.23410034    0.25000000    0.19000000
   19.50638962   88.63929749    0.25000000    0.19000000
   19.50972176   92.79000092    0.25000000    0.19000000
   19.51305580   92.89060211    0.25000000    0.19000000
   19.51611137   82.28530121    0.25000000    0.19000000
   19.51944351   86.76809692    0.25000000    0.19000000
   19.52027702   89.25849915    0.25000000    0.19000000
   19.52305603   97.77140045    0.25000000    0.19000000
   19.52611160   93.10810089    0.25000000    0.19000000
   19.52944374   95.07530212    0.25000000    0.19000000
   19.53555489   95.07530212    0.25000000    0.19000000
   19.53972244   91.37590027    0.25000000    0.19000000
   19.54277802   93.63829803    0.25000000    0.19000000
   19.54611015   96.96900177    0.25000000    0.19000000
   19.54916573   94.03949738    0.25000000    0.19000000
   19.55249977   93.67700195    0.25000000    0.19000000
   19.55360985   78.71080017    0.25000000    0.19000000
   19.55611038   82.87310028    0.25000000    0.19000000
   19.55916595   87.97339630    0.25000000    0.19000000
   19.56250000   88.78579712    0.25000000    0.19000000
   19.56583214   94.13020325    0.25000000    0.19000000
   19.56888962   90.84300232    0.25000000    0.19000000
   19.57222366   93.16400146    0.25000000    0.19000000
   19.57833481   93.16400146    0.25000000    0.19000000
   19.58250046   98.28659821    0.25000000    0.19000000
   19.58555603   97.87470245    0.25000000    0.19000000
   19.58694458   82.48470306    0.25000000    0.19000000
   19.58944511   95.50189972    0.25000000    0.19000000
   19.59250069   90.06259918    0.25000000    0.19000000
   19.59583473   87.07170105    0.25000000    0.19000000
   19.59916687   84.73690033    0.25000000    0.19000000
   19.60222244   94.38040161    0.25000000    0.19000000
   19.60555649   90.77529907    0.25000000    0.19000000
   19.60888863   95.14209747    0.25000000    0.19000000
   19.61194420  100.34999847    0.25000000    0.19000000
   19.61527824   95.08979797    0.25000000    0.19000000
   19.62111092   95.08979797    0.25000000    0.19000000
   19.62527847   95.31250000    0.25000000    0.19000000
   19.62861061  107.36599731    0.25000000    0.19000000
   19.63166618   96.08799744    0.25000000    0.19000000
   19.63500023   77.48200226    0.25000000    0.19000000
   19.63833237   82.73149872    0.25000000    0.19000000
   19.64138794   78.96299744    0.25000000    0.19000000
   19.64472198   81.21620178    0.25000000    0.19000000
   19.64777756   90.85890198    0.25000000    0.19000000
   19.65111160   93.65000153    0.25000000    0.19000000
   19.65361023   91.12729645    0.25000000    0.19000000
   19.67444420   91.12729645    0.25000000    0.19000000
   19.67833328   77.19159698    0.25000000    0.19000000
   19.68166542   94.86679840    0.25000000    0.19000000
   19.68499947   93.78769684    0.25000000    0.19000000
   19.68694305   86.85600281    0.25000000    0.19000000
   19.68861008   91.99900055    0.25000000    0.19000000
   19.69194412   90.70999908    0.25000000    0.19000000
   19.69499969   95.65489960    0.25000000    0.19000000
   19.69833183   99.19879913    0.25000000    0.19000000
   19.70166779  107.60800171    0.25000000    0.19000000
   19.70472336   97.03170013    0.25000000    0.19000000
   19.70805550   94.06880188    0.25000000    0.19000000
   19.71138954   99.96790314    0.25000000    0.19000000
   19.71694565   99.96790314    0.25000000    0.19000000
   19.72111130  103.85700226    0.25000000    0.19000000
   19.72444534  105.97000122    0.25000000    0.19000000
   19.72750092   92.39910126    0.25000000    0.19000000
   19.73083305  101.17700195    0.25000000    0.19000000
   19.73416710   98.42680359    0.25000000    0.19000000
   19.73722267  103.27100372    0.25000000    0.19000000
   19.74055672   94.82820129    0.25000000    0.19000000
   19.74388885   88.67019653    0.25000000    0.19000000
   19.74694443   98.64420319    0.25000000    0.19000000
   19.75027847   90.92199707    0.25000000    0.19000000
   19.75361061   92.03459930    0.25000000    0.19000000
   19.75388908   87.51789856    0.25000000    0.19000000
   19.76000023   87.51789856    0.25000000    0.19000000
   19.76416588   94.62819672    0.25000000    0.19000000
   19.76722145  112.85500336    0.25000000    0.19000000
   19.77055550  101.83300018    0.25000000    0.19000000
   19.77361107   92.87760162    0.25000000    0.19000000
   19.77694511  105.28900146    0.25000000    0.19000000
   19.78027725  104.31800079    0.25000000    0.19000000
   19.78333282   98.49659729    0.25000000    0.19000000
   19.78666687  108.24700165    0.25000000    0.19000000
   19.78722191   99.99649811    0.25000000    0.19000000
   19.79027748  102.32099915    0.25000000    0.19000000
   19.79361153   90.80599976    0.25000000    0.19000000
   19.79666710  113.06600189    0.25000000    0.19000000
   19.80277634  113.06600189    0.25000000    0.19000000
   19.80694389  106.24400330    0.25000000    0.19000000
   19.80999947   95.91169739    0.25000000    0.19000000
   19.81333351  109.46299744    0.25000000    0.19000000
   19.81666756  106.19999695    0.25000000    0.19000000
   19.81972313  100.43699646    0.25000000    0.19000000
   19.82055664   91.12169647    0.25000000    0.19000000
   19.82333374  105.11599731    0.25000000    0.19000000
   19.82666779   98.80149841    0.25000000    0.19000000
   19.82972336   93.59380341    0.25000000    0.19000000
   19.83305550   99.21080017    0.25000000    0.19000000
   19.83638954   92.96209717    0.25000000    0.19000000
   19.83944511   91.07700348    0.25000000    0.19000000
   19.84555626   91.07700348    0.25000000    0.19000000
   19.84972191   96.58350372    0.25000000    0.19000000
   19.85305595   95.29589844    0.25000000    0.19000000
   19.85388947   92.35690308    0.25000000    0.19000000
   19.85666656   98.13349915    0.25000000    0.19000000
   19.86000061   93.20099640    0.25000000    0.19000000
   19.86305618   92.58509827    0.25000000    0.19000000
   19.86638832   80.26490021    0.25000000    0.19000000
   19.86972237   86.78430176    0.25000000    0.19000000
   19.87277794   91.83779907    0.25000000    0.19000000
   19.87611198   83.09839630    0.25000000    0.19000000
   19.87944412   80.00399780    0.25000000    0.19000000
   19.88249969   94.78199768    0.25000000    0.19000000
   19.88833237   94.78199768    0.25000000    0.19000000
   19.89249992   88.45120239    0.25000000    0.19000000
   19.89583397   94.05329895    0.25000000    0.19000000
   19.89916611   90.58920288    0.25000000    0.19000000
   19.90222168   89.50800323    0.25000000    0.19000000
   19.90555573   96.78330231    0.25000000    0.19000000
   19.90861130  107.61499786    0.25000000    0.19000000
   19.91194344   91.88040161    0.25000000    0.19000000
   19.91527748  101.48699951    0.25000000    0.19000000
   19.91833305   85.42259979    0.25000000    0.19000000
   19.92083359   89.20439911    0.25000000    0.19000000
   19.92194366   90.56539917    0.25000000    0.19000000
   19.92527771   94.83139801    0.25000000    0.19000000
   19.93138885   94.83139801    0.25000000    0.19000000
   19.93555450   88.12390137    0.25000000    0.19000000
   19.93861008   95.60980225    0.25000000    0.19000000
   19.94194412   82.92859650    0.25000000    0.19000000
   19.94499969   97.27279663    0.25000000    0.19000000
   19.94833183  102.44799805    0.25000000    0.19000000
   19.95166779   97.51029968    0.25000000    0.19000000
   19.95416832   90.89479828    0.25000000    0.19000000
   19.95527840   98.30740356    0.25000000    0.19000000
   19.95861244   92.48590088    0.25000000    0.19000000
   19.96166801   78.59380341    0.25000000    0.19000000
   19.96500015   82.45259857    0.25000000    0.19000000
   19.96833420   92.42050171    0.25000000    0.19000000
   19.97416687   92.42050171    0.25000000    0.19000000
   19.97833443   87.09670258    0.25000000    0.19000000
   19.98139000   85.07230377    0.25000000    0.19000000
   19.98472214   98.98359680    0.25000000    0.19000000
   19.98750114   88.52050018    0.25000000    0.19000000
   19.98833275   85.77420044    0.25000000    0.19000000
   19.99166679   90.21119690    0.25000000    0.19000000
   19.99500084  100.81199646    0.25000000    0.19000000
   19.99805641   87.18840027    0.25000000    0.19000000
   20.00138855   93.02549744    0.25000000    0.19000000
   20.00444412   84.65290070    0.25000000    0.19000000
   20.00777817   78.13500214    0.25000000    0.19000000
   20.01111031   95.44930267    0.25000000    0.19000000
   20.01694489   95.44930267    0.25000000    0.19000000
   20.02111053   96.58529663    0.25000000    0.19000000
   20.02444458   91.93499756    0.25000000    0.19000000
   20.02750015   90.90809631    0.25000000    0.19000000
   20.03083229   88.67089844    0.25000000    0.19000000
   20.03416634   90.14749908    0.25000000    0.19000000
   20.03722191   92.06780243    0.25000000    0.19000000
   20.04055595   90.58869934    0.25000000    0.19000000
   20.04361153  100.38500214    0.25000000    0.19000000
   20.04694366   94.45069885    0.25000000    0.19000000
   20.05027771   93.74839783    0.25000000    0.19000000
   20.05333328   85.44799805    0.25000000    0.19000000
   20.05416679   86.94819641    0.25000000    0.19000000
   20.05972099   86.94819641    0.25000000    0.19000000
   20.06388855   93.72509766    0.25000000    0.19000000
   20.06722260   93.27809906    0.25000000    0.19000000
   20.07027817   89.61360168    0.25000000    0.19000000
   20.07361221   95.39980316    0.25000000    0.19000000
   20.07694626   79.20069885    0.25000000    0.19000000
   20.08000183   93.92169952    0.25000000    0.19000000
   20.08333397   89.39479828    0.25000000    0.19000000
   20.08666801   95.96579742    0.25000000    0.19000000
   20.08750153   94.45890045    0.25000000    0.19000000
   20.09000015   85.57859802    0.25000000    0.19000000
   20.09333420   85.16359711    0.25000000    0.19000000
   20.09666824   89.36329651    0.25000000    0.19000000
   20.10277748   89.36329651    0.25000000    0.19000000
   20.10666656   92.09420013    0.25000000    0.19000000
   20.11000061   88.08509827    0.25000000    0.19000000
   20.11333466   93.83090210    0.25000000    0.19000000
   20.11638832  104.65100098    0.25000000    0.19000000
   20.11972237   90.77639771    0.25000000    0.19000000
   20.12083435   90.56790161    0.25000000    0.19000000
   20.12333298   95.91909790    0.25000000    0.19000000
   20.12666702   99.22769928    0.25000000    0.19000000
   20.13000107   88.56189728    0.25000000    0.19000000
   20.13305473   89.35030365    0.25000000    0.19000000
   20.13638878   91.67549896    0.25000000    0.19000000
   20.13944435   92.26820374    0.25000000    0.19000000
   20.14555550   92.26820374    0.25000000    0.19000000
   20.14972115   85.23770142    0.25000000    0.19000000
   20.15277672   93.35579681    0.25000000    0.19000000
   20.15416718   89.94139862    0.25000000    0.19000000
   20.15638924   91.03849792    0.25000000    0.19000000
   20.15972137   97.97830200    0.25000000    0.19000000
   20.16277695   89.78890228    0.25000000    0.19000000
   20.16611099   95.60489655    0.25000000    0.19000000
   20.16944313   91.50000000    0.25000000    0.19000000
   20.17249870   90.33010101    0.25000000    0.19000000
   20.17583275   92.08380127    0.25000000    0.19000000
   20.17916679   92.37560272    0.25000000    0.19000000
   20.18222237   81.00090027    0.25000000    0.19000000
   20.18833160   81.00090027    0.25000000    0.19000000
   20.19249916   80.68859863    0.25000000    0.19000000
   20.19555473   94.70230103    0.25000000    0.19000000
   20.19888878   92.11029816    0.25000000    0.19000000
   20.20222282   90.67009735    0.25000000    0.19000000
   20.20527840   99.48509979    0.25000000    0.19000000
   20.20861244   94.73940277    0.25000000    0.19000000
   20.21194458   89.37110138    0.25000000    0.19000000
   20.21500015   98.50499725    0.25000000    0.19000000
   20.21833420   78.93979645    0.25000000    0.19000000
   20.22083473   97.09279633    0.25000000    0.19000000
   20.22194481  102.05699921    0.25000000    0.19000000
   20.22527885   92.85790253    0.25000000    0.19000000
   20.23111153   92.85790253    0.25000000    0.19000000
   20.23527718   93.38899994    0.25000000    0.19000000
   20.23861122   97.17340088    0.25000000    0.19000000
   20.24166679   85.61540222    0.25000000    0.19000000
   20.24500084   96.74269867    0.25000000    0.19000000
   20.24833298   85.30789948    0.25000000    0.19000000
   20.25138855   89.23079681    0.25000000    0.19000000
   20.25416756   93.67479706    0.25000000    0.19000000
   20.25499916   92.14579773    0.25000000    0.19000000
   20.25833321   91.57510376    0.25000000    0.19000000
   20.26166725   93.48979950    0.25000000    0.19000000
   20.26472282   99.02210236    0.25000000    0.19000000
   20.26805496   91.47370148    0.25000000    0.19000000
   20.27416611   91.47370148    0.25000000    0.19000000
   20.27805519   94.83529663    0.25000000    0.19000000
   20.28138924   93.60859680    0.25000000    0.19000000
   20.28472137   88.40609741    0.25000000    0.19000000
   20.28750038   88.99449921    0.25000000    0.19000000
   20.28805542   94.61260223    0.25000000    0.19000000
   20.29138756   94.48580170    0.25000000    0.19000000
   20.29472160   89.18319702    0.25000000    0.19000000
   20.29777718   88.19219971    0.25000000    0.19000000
   20.30111122   94.27649689    0.25000000    0.19000000
   20.30444336  101.77400208    0.25000000    0.19000000
   20.30749893   86.43129730    0.25000000    0.19000000
   20.31083298   90.71140289    0.25000000    0.19000000
   20.31694603   90.71140289    0.25000000    0.19000000
   20.32111168   94.67230225    0.25000000    0.19000000
   20.32416725   96.24500275    0.25000000    0.19000000
   20.32750130   90.32099915    0.25000000    0.19000000
   20.33083344   89.47689819    0.25000000    0.19000000
   20.33388901   92.15750122    0.25000000    0.19000000
   20.33722305   97.81230164    0.25000000    0.19000000
   20.34027863   96.22579956    0.25000000    0.19000000
   20.34361267   96.16120148    0.25000000    0.19000000
   20.34694481   92.63110352    0.25000000    0.19000000
   20.35000038   88.14679718    0.25000000    0.19000000
   20.35333443  100.50700378    0.25000000    0.19000000
   20.35416794   95.48919678    0.25000000    0.19000000
   20.35972214   95.48919678    0.25000000    0.19000000
   20.36388969  101.33100128    0.25000000    0.19000000
   20.36722183  100.02200317    0.25000000    0.19000000
   20.37027740  102.36199951    0.25000000    0.19000000
   20.37361145  103.08000183    0.25000000    0.19000000
   20.37694550   95.44360352    0.25000000    0.19000000
   20.38000107   99.75299835    0.25000000    0.19000000
   20.38333321   97.89240265    0.25000000    0.19000000
   20.38638878   97.03209686    0.25000000    0.19000000
   20.38750076   89.41970062    0.25000000    0.19000000
   20.38999939   91.88950348    0.25000000    0.19000000
   20.39333344   93.00579834    0.25000000    0.19000000
   20.39666748   97.35330200    0.25000000    0.19000000
   20.40250015   97.35330200    0.25000000    0.19000000
   20.40666580   95.55079651    0.25000000    0.19000000
   20.40999985   88.52120209    0.25000000    0.19000000
   20.41305542   90.95890045    0.25000000    0.19000000
   20.41638756   87.31659698    0.25000000    0.19000000
   20.41972160   94.09369659    0.25000000    0.19000000
   20.42083359   95.48429871    0.25000000    0.19000000
   20.42305565   95.52369690    0.25000000    0.19000000
   20.42638779   92.66929626    0.25000000    0.19000000
   20.42972183   97.25209808    0.25000000    0.19000000
   20.43277740   93.83820343    0.25000000    0.19000000
   20.43610954   98.31980133    0.25000000    0.19000000
   20.43944359   97.40329742    0.25000000    0.19000000
   20.44527626   97.40329742    0.25000000    0.19000000
   20.44944382   93.51580048    0.25000000    0.19000000
   20.45277786   92.97389984    0.25000000    0.19000000
   20.45416832   89.20790100    0.25000000    0.19000000
   20.45639038   91.21399689    0.25000000    0.19000000
   20.45972252   91.33139801    0.25000000    0.19000000
   20.46305656   95.66529846    0.25000000    0.19000000
   20.46611214   99.97930145    0.25000000    0.19000000
   20.46944427   90.98000336    0.25000000    0.19000000
   20.47249985   88.75319672    0.25000000    0.19000000
   20.47583389  101.67199707    0.25000000    0.19000000
   20.47916794   92.23490143    0.25000000    0.19000000
   20.48222351  100.41699982    0.25000000    0.19000000
   20.48833275  100.41699982    0.25000000    0.19000000
   20.49250031   87.79840088    0.25000000    0.19000000
   20.49555588   95.16560364    0.25000000    0.19000000
   20.49888992   87.55049896    0.25000000    0.19000000
   20.50194359   90.98000336    0.25000000    0.19000000
   20.50527763   96.93679810    0.25000000    0.19000000
   20.50861168   96.33280182    0.25000000    0.19000000
   20.51166725   88.53630066    0.25000000    0.19000000
   20.51499939   96.87020111    0.25000000    0.19000000
   20.51833344   97.91909790    0.25000000    0.19000000
   20.52083397   92.78140259    0.25000000    0.19000000
   20.52166557  102.58599854    0.25000000    0.19000000
   20.52499962   91.84339905    0.25000000    0.19000000
   20.53111076   91.84339905    0.25000000    0.19000000
   20.53527641   97.27030182    0.25000000    0.19000000
   20.53833199   93.49040222    0.25000000    0.19000000
   20.54166603   92.77709961    0.25000000    0.19000000
   20.54500008   84.14849854    0.25000000    0.19000000
   20.54805565  104.36299896    0.25000000    0.19000000
   20.55166626   93.09490204    0.25000000    0.19000000
   20.55416679   89.94069672    0.25000000    0.19000000
   20.55527687   95.42109680    0.25000000    0.19000000
   20.55861092   99.60559845    0.25000000    0.19000000
   20.56194305   99.31960297    0.25000000    0.19000000
   20.56499863  100.56700134    0.25000000    0.19000000
   20.56833458  103.44000244    0.25000000    0.19000000
   20.57389069  103.44000244    0.25000000    0.19000000
   20.57805634   99.97779846    0.25000000    0.19000000
   20.58139038   98.60469818    0.25000000    0.19000000
   20.58444595  104.65499878    0.25000000    0.19000000
   20.58750153  102.81700134    0.25000000    0.19000000
   20.58805656   95.25279999    0.25000000    0.19000000
   20.59138870  109.53299713    0.25000000    0.19000000
   20.59472275  101.08899689    0.25000000    0.19000000
   20.59777832   99.33989716    0.25000000    0.19000000
   20.60111237  103.01399994    0.25000000    0.19000000
   20.60444450  108.62400055    0.25000000    0.19000000
   20.60750008  104.98300171    0.25000000    0.19000000
   20.61083412   92.67320251    0.25000000    0.19000000
   20.61666679   92.67320251    0.25000000    0.19000000
   20.62083435  105.59400177    0.25000000    0.19000000
   20.62416649  109.58699799    0.25000000    0.19000000
   20.62750053  106.12000275    0.25000000    0.19000000
   20.63055611  106.98100281    0.25000000    0.19000000
   20.63388824  103.16699982    0.25000000    0.19000000
   20.63694382   91.69029999    0.25000000    0.19000000
   20.64027786   98.22429657    0.25000000    0.19000000
   20.64361191  107.68299866    0.25000000    0.19000000
   20.64666748  108.50800323    0.25000000    0.19000000
   20.64999962  103.15000153    0.25000000    0.19000000
   20.65333366   91.65440369    0.25000000    0.19000000
   20.65416718   98.81790161    0.25000000    0.19000000
   20.65972137   98.81790161    0.25000000    0.19000000
   20.66388893  102.78099823    0.25000000    0.19000000
   20.66694450   89.26069641    0.25000000    0.19000000
   20.67027664   92.30059814    0.25000000    0.19000000
   20.68777657   85.69319916    0.25000000    0.19000000
   20.69027710   89.49490356    0.25000000    0.19000000
   20.69333267   93.51300049    0.25000000    0.19000000
   20.69666672   93.74800110    0.25000000    0.19000000
   20.70277786   93.74800110    0.25000000    0.19000000
   20.70666695   97.61219788    0.25000000    0.19000000
   20.71000099   98.96450043    0.25000000    0.19000000
   20.71333504  111.26200104    0.25000000    0.19000000
   20.71638870   91.75080109    0.25000000    0.19000000
   20.71972275   95.57399750    0.25000000    0.19000000
   20.72111130  104.22799683    0.25000000    0.19000000
   20.72361183  102.43699646    0.25000000    0.19000000
   20.72666740   97.30419922    0.25000000    0.19000000
   20.73000145  102.97599792    0.25000000    0.19000000
   20.73305511   96.27660370    0.25000000    0.19000000
   20.73638916  115.55400085    0.25000000    0.19000000
   20.73972321  106.18900299    0.25000000    0.19000000
   20.74555588  106.18900299    0.25000000    0.19000000
   20.74972153  107.90100098    0.25000000    0.19000000
   20.75277710   98.43769836    0.25000000    0.19000000
   20.75444412  104.05699921    0.25000000    0.19000000
   20.75638962   88.53869629    0.25000000    0.19000000
   20.75972176   97.05049896    0.25000000    0.19000000
   20.76333427  104.84600067    0.25000000    0.19000000
   20.76638794   97.49909973    0.25000000    0.19000000
   20.76972198   91.64309692    0.25000000    0.19000000
   20.77305603   99.38819885    0.25000000    0.19000000
   20.77611160  100.63200378    0.25000000    0.19000000
   20.77944374   99.04429626    0.25000000    0.19000000
   20.78249931   93.42569733    0.25000000    0.19000000
   20.78833199   93.42569733    0.25000000    0.19000000
   20.79249954   93.40139771    0.25000000    0.19000000
   20.79583359  101.98000336    0.25000000    0.19000000
   20.79888916   98.40529633    0.25000000    0.19000000
   20.80222130   92.79989624    0.25000000    0.19000000
   20.80527687   98.70929718    0.25000000    0.19000000
   20.80861092  105.69499969    0.25000000    0.19000000
   20.81194305   97.38899994    0.25000000    0.19000000
   20.81499863  103.55799866    0.25000000    0.19000000
   20.81833458   89.85099792    0.25000000    0.19000000
   20.82111168   98.55889893    0.25000000    0.19000000
   20.82194519   96.13210297    0.25000000    0.19000000
   20.82527924  100.48100281    0.25000000    0.19000000
   20.83111191  100.48100281    0.25000000    0.19000000
   20.83527756   88.57820129    0.25000000    0.19000000
   20.83861160   84.52989960    0.25000000    0.19000000
   20.84166718   86.58319855    0.25000000    0.19000000
   20.84500122   91.32980347    0.25000000    0.19000000
   20.84833336   96.46009827    0.25000000    0.19000000
   20.85138893   88.20919800    0.25000000    0.19000000
   20.85444450   93.32180023    0.25000000    0.19000000
   20.85499954   94.75530243    0.25000000    0.19000000
   20.85833359   83.40899658    0.25000000    0.19000000
   20.86166763   91.39959717    0.25000000    0.19000000
   20.86472321   90.92389679    0.25000000    0.19000000
   20.86805534   90.27850342    0.25000000    0.19000000
   20.87416649   90.27850342    0.25000000    0.19000000
   20.87805557   96.93499756    0.25000000    0.19000000
   20.88138962   95.87570190    0.25000000    0.19000000
   20.88472176   87.56600189    0.25000000    0.19000000
   20.88777733   91.32469940    0.25000000    0.19000000
   20.88833237   90.72290039    0.25000000    0.19000000
   20.89138794   86.89929962    0.25000000    0.19000000
   20.89472198   92.66619873    0.25000000    0.19000000
   20.89805603  100.69400024    0.25000000    0.19000000
   20.90111160   94.35430145    0.25000000    0.19000000
   20.90444374   97.33509827    0.25000000    0.19000000
   20.90749931   98.43620300    0.25000000    0.19000000
   20.91083336   96.47129822    0.25000000    0.19000000
   20.91694450   96.47129822    0.25000000    0.19000000
   20.92111015  102.26499939    0.25000000    0.19000000
   20.92166519  101.35600281    0.25000000    0.19000000
   20.92472076  100.51599884    0.25000000    0.19000000
   20.92805481  100.54100037    0.25000000    0.19000000
   20.93111038   96.46610260    0.25000000    0.19000000
   20.93444443   90.50350189    0.25000000    0.19000000
   20.93777657   89.90499878    0.25000000    0.19000000
   20.94083214   97.40419769    0.25000000    0.19000000
   20.94416618   92.69409943    0.25000000    0.19000000
   20.94722176   95.56529999    0.25000000    0.19000000
   20.95055580   94.58159637    0.25000000    0.19000000
   20.95388985   93.72470093    0.25000000    0.19000000
   20.95444489   98.35600281    0.25000000    0.19000000
   20.95972252   98.35600281    0.25000000    0.19000000
   20.96389008   89.98840332    0.25000000    0.19000000
   20.96722221   90.43009949    0.25000000    0.19000000
   20.97027779   92.39530182    0.25000000    0.19000000
   20.97361183   90.71690369    0.25000000    0.19000000
   20.97666740   95.76529694    0.25000000    0.19000000
   20.98000145   93.87159729    0.25000000    0.19000000
   20.98333359   94.33540344    0.25000000    0.19000000
   20.98638916   95.32240295    0.25000000    0.19000000
   20.98777771   90.74299622    0.25000000    0.19000000
   20.99027824   98.64250183    0.25000000    0.19000000
   20.99333382   94.48670197    0.25000000    0.19000000
   20.99666786   87.24669647    0.25000000    0.19000000
   21.00250053   87.24669647    0.25000000    0.19000000
   21.00666618   95.21649933    0.25000000    0.19000000
   21.01000023   96.95089722    0.25000000    0.19000000
   21.01305580   99.58879852    0.25000000    0.19000000
   21.01638794   97.18800354    0.25000000    0.19000000
   21.01972198   90.37740326    0.25000000    0.19000000
   21.02111053  101.99099731    0.25000000    0.19000000
   21.02333260   95.63690186    0.25000000    0.19000000
   21.02638817   91.21309662    0.25000000    0.19000000
   21.02972221   99.60510254    0.25000000    0.19000000
   21.03277779   90.77349854    0.25000000    0.19000000
   21.03610992   95.29280090    0.25000000    0.19000000
   21.03944397   93.97889709    0.25000000    0.19000000
   21.04555511   93.97889709    0.25000000    0.19000000
   21.04944420   87.33390045    0.25000000    0.19000000
   21.05277634   90.22660065    0.25000000    0.19000000
   21.05444336   96.53559875    0.25000000    0.19000000
   21.05666542   93.42099762    0.25000000    0.19000000
   21.05972099  101.49700165    0.25000000    0.19000000
   21.06305504   95.52860260    0.25000000    0.19000000
   21.06611061   97.97799683    0.25000000    0.19000000
   21.06944466  109.82299805    0.25000000    0.19000000
   21.07277870   91.37300110    0.25000000    0.19000000
   21.07583427  105.91799927    0.25000000    0.19000000
   21.07916832  102.51300049    0.25000000    0.19000000
   21.08250046   96.53540039    0.25000000    0.19000000
   21.08833313   96.53540039    0.25000000    0.19000000
   21.09250069  106.70700073    0.25000000    0.19000000
   21.09555626   96.82990265    0.25000000    0.19000000
   21.09889030   99.94480133    0.25000000    0.19000000
   21.10222244   94.96869659    0.25000000    0.19000000
   21.10527802  107.86000061    0.25000000    0.19000000
   21.10861206   96.05809784    0.25000000    0.19000000
   21.11166763  102.55000305    0.25000000    0.19000000
   21.11499977   99.97239685    0.25000000    0.19000000
   21.11833382  104.96800232    0.25000000    0.19000000
   21.12111092   99.26460266    0.25000000    0.19000000
   21.12194443  104.29699707    0.25000000    0.19000000
   21.12500000  106.00399780    0.25000000    0.19000000
   21.13111115  106.00399780    0.25000000    0.19000000
   21.13527679  100.46099854    0.25000000    0.19000000
   21.13861084  100.61599731    0.25000000    0.19000000
   21.14166641   93.97480011    0.25000000    0.19000000
   21.14500046  104.77100372    0.25000000    0.19000000
   21.14805603   96.75779724    0.25000000    0.19000000
   21.15138817   95.83769989    0.25000000    0.19000000
   21.15444374  105.35900116    0.25000000    0.19000000
   21.15527725  100.16500092    0.25000000    0.19000000
   21.15833282  111.89099884    0.25000000    0.19000000
   21.16166687   97.05110168    0.25000000    0.19000000
   21.16472244   94.93199921    0.25000000    0.19000000
   21.16805458  100.21800232    0.25000000    0.19000000
   21.17388916  100.21800232    0.25000000    0.19000000
   21.17805481   93.93070221    0.25000000    0.19000000
   21.18138885   95.03109741    0.25000000    0.19000000
   21.18444443   89.36949921    0.25000000    0.19000000
   21.18777657   87.45760345    0.25000000    0.19000000
   21.18833160   92.76280212    0.25000000    0.19000000
   21.19138718   99.45010376    0.25000000    0.19000000
   21.19472122   98.56079865    0.25000000    0.19000000
   21.19777679   93.67690277    0.25000000    0.19000000
   21.20111275   97.47019958    0.25000000    0.19000000
   21.20444489   95.41729736    0.25000000    0.19000000
   21.20750046   86.60449982    0.25000000    0.19000000
   21.21083450  100.98500061    0.25000000    0.19000000
   21.21694565  100.98500061    0.25000000    0.19000000
   21.22083473   97.04720306    0.25000000    0.19000000
   21.22138977   86.78659821    0.25000000    0.19000000
   21.22472191   87.60929871    0.25000000    0.19000000
   21.22805595   88.50509644    0.25000000    0.19000000
   21.23111153   97.16870117    0.25000000    0.19000000
   21.23444557   95.82360077    0.25000000    0.19000000
   21.23750114   93.68530273    0.25000000    0.19000000
   21.24083328   96.54070282    0.25000000    0.19000000
   21.24416733   94.21690369    0.25000000    0.19000000
   21.24722290   94.75569916    0.25000000    0.19000000
   21.25055504  103.97399902    0.25000000    0.19000000
   21.25388908   92.02169800    0.25000000    0.19000000
   21.25472260   97.36489868    0.25000000    0.19000000
   21.25972176   97.36489868    0.25000000    0.19000000
   21.26388931   93.58950043    0.25000000    0.19000000
   21.26694489   98.64150238    0.25000000    0.19000000
   21.27027702   97.90950012    0.25000000    0.19000000
   21.27333260  100.59999847    0.25000000    0.19000000
   21.27666664   94.76570129    0.25000000    0.19000000
   21.28000069   92.20169830    0.25000000    0.19000000
   21.28305435   91.70449829    0.25000000    0.19000000
   21.28638840   91.59750366    0.25000000    0.19000000
   21.28805542   92.68399811    0.25000000    0.19000000
   21.28999901   91.43409729    0.25000000    0.19000000
   21.29333305   97.30850220    0.25000000    0.19000000
   21.29638863  101.71299744    0.25000000    0.19000000
   21.30249977  101.71299744    0.25000000    0.19000000
   21.30666542   91.59510040    0.25000000    0.19000000
   21.30972099  105.24800110    0.25000000    0.19000000
   21.31305504  100.27999878    0.25000000    0.19000000
   21.31638718   98.15180206    0.25000000    0.19000000
   21.31944466   99.49430084    0.25000000    0.19000000
   21.32139015  109.49700165    0.25000000    0.19000000
   21.32305717  116.77999878    0.25000000    0.19000000
   21.32638931  110.80500031    0.25000000    0.19000000
   21.32944489  118.70300293    0.25000000    0.19000000
   21.33277893  142.43099976    0.25000000    0.19000000
   21.33583450  161.44700623    0.25000000    0.19000000
   21.33916664  221.71800232    0.25000000    0.19000000
   21.34527779  221.71800232    0.25000000    0.19000000
   21.34944534   -1.00000000    0.25000000    0.19000000
   21.35277748   -1.00000000    0.25000000    0.19000000
   21.35639000   -1.00000000    0.25000000    0.19000000
   21.35944557   -1.00000000    0.25000000    0.19000000
   21.36277771   -1.00000000    0.25000000    0.19000000
   21.36611176   -1.00000000    0.25000000    0.19000000
   21.36916733   -1.00000000    0.25000000    0.19000000
   21.37249947   -1.00000000    0.25000000    0.19000000
   21.37555504   -1.00000000    0.25000000    0.19000000
   21.37888908   -1.00000000    0.25000000    0.19000000
   21.38222313   -1.00000000    0.25000000    0.19000000
   21.39222145   -1.00000000    0.25000000    0.19000000
   21.39555550   -1.00000000    0.25000000    0.19000000
