    HOUR (UT)   FLARE FACTOR    SKY TESTER    SUN TESTER
   11.26416683   -1.00000000   -1.00000000   -1.00000000
   11.28944492   -1.00000000    4.90999985    1.69000006
   11.29277802   -1.00000000    4.90999985    1.66999996
   11.29611111   -1.00000000    4.90999985    1.64999998
   11.29944515   -1.00000000    4.90999985    1.66999996
   11.30249977   -1.00000000    4.90999985    1.69000006
   11.30583382   -1.00000000    4.90999985    1.73000002
   11.30972195   -1.00000000    4.90999985    1.73000002
   11.31277752   -1.00000000    4.90999985    1.75000000
   11.31611156   -1.00000000    4.90999985    1.75000000
   11.31972218   -1.00000000    4.90999985    1.76999998
   11.32305527   -1.00000000    4.90999985    1.78999996
   11.32611084   -1.00000000    4.90999985    1.80999994
   11.32944393   -1.00000000    4.90999985    1.78999996
   11.33249950   -1.00000000    4.90999985    1.78999996
   11.33583260   -1.00000000    4.90999985    1.80999994
   11.33916664   -1.00000000    4.90999985    1.83000004
   11.34222221   -1.00000000    4.90999985    1.83000004
   11.34555531   -1.00000000    4.90999985    1.80999994
   11.34888840   -1.00000000    4.90999985    1.80999994
   11.35222244   -1.00000000    4.90999985    1.83000004
   11.35527802   -1.00000000    4.90999985    1.86000001
   11.35861111   -1.00000000    4.90999985    1.88000000
   11.36194515   -1.00000000    4.90999985    1.89999998
   11.36500072   -1.00000000    4.90999985    1.89999998
   11.36833382   -1.00000000    4.90999985    1.89999998
   11.37166691   -1.00000000    4.90999985    1.89999998
   11.37472248   -1.00000000    4.90999985    1.94000006
   11.37805557   -1.00000000    4.90999985    1.94000006
   11.38111115   -1.00000000    4.90999985    1.94000006
   11.38444424   -1.00000000    4.90999985    1.91999996
   11.38777733   -1.00000000    4.90999985    1.91999996
   11.39111137   -1.00000000    4.90999985    1.89999998
   11.39444447   -1.00000000    4.90999985    1.91999996
   11.39750004   -1.00000000    4.90999985    1.89999998
   11.40083313   -1.00000000    4.90999985    1.91999996
   11.40388870   -1.00000000    4.90999985    1.88000000
   11.40722179   -1.00000000    4.90999985    1.88000000
   11.41055489   -1.00000000    4.90999985    1.89999998
   11.41361046   -1.00000000    4.90999985    1.89999998
   11.41694450   -1.00000000    4.90999985    1.89999998
   11.42027855   -1.00000000    4.90999985    1.94000006
   11.42361164   -1.00000000    4.90999985    1.91999996
   11.42694473   -1.00000000    4.90999985    1.89999998
   11.43000031   -1.00000000    4.90999985    1.91999996
   11.43333340   -1.00000000    4.90999985    1.94000006
   11.48722267  248.19200134    4.90999985    2.05999994
   11.49027824  312.21701050    4.90999985    2.09999990
   11.49250031  402.13000488    4.90999985    2.09999990
   11.49361134  323.66900635    4.90999985    2.07999992
   11.49499989  327.73001099    4.90999985    2.07999992
   11.49694443  356.19799805    4.90999985    2.07999992
   11.49777794  366.59500122    4.90999985    2.07999992
   11.49916649  360.83999634    4.90999985    2.09999990
   11.50055599  364.14099121    4.90999985    2.11999989
   11.50194454  336.66500854    4.90999985    2.13000011
   11.50333309  360.48001099    4.90999985    2.15000010
   11.50472260  394.56600952    4.90999985    2.13000011
   11.50611115  368.32800293    4.90999985    2.11999989
   11.50749969  323.01699829    4.90999985    2.07999992
   11.50888920  386.03900146    4.90999985    2.07999992
   11.51027775  291.16198730    4.90999985    2.11999989
   11.51166630  328.67700195    4.90999985    2.13000011
   11.51305580  435.77700806    4.90999985    2.15000010
   11.51444435  443.64999390    4.90999985    2.15000010
   11.51583290  331.10998535    4.90999985    2.13000011
   11.51722240  342.52200317    4.90999985    2.11999989
   11.51861095  387.41000366    4.90999985    2.11999989
   11.51999950  375.04400635    4.90999985    2.11999989
   11.52138901  275.27099609    4.90999985    2.11999989
   11.52277756  363.03100586    4.90999985    2.11999989
   11.52416611  309.52398682    4.90999985    2.09999990
   11.52555561  423.21499634    4.90999985    2.09999990
   11.52694416  384.03900146    4.90999985    2.09999990
   11.52833271  417.44900513    4.90999985    2.09999990
   11.52972221  369.65899658    4.90999985    2.07999992
   11.53111076  359.57400513    4.90999985    2.09999990
   11.53249931  434.17498779    4.90999985    2.09999990
   11.53388977  367.51300049    4.90999985    2.13000011
   11.53527832  333.81600952    4.90999985    2.15000010
   11.53666687  404.33300781    4.90999985    2.15000010
   11.53805637  373.27099609    4.90999985    2.11999989
   11.53944492  314.39300537    4.90999985    2.07999992
   11.54083347  430.84399414    4.90999985    2.07999992
   11.54222298  409.31600952    4.90999985    2.07999992
   11.54361153  323.70098877    4.90999985    2.09999990
   11.54500008  355.96099854    4.90999985    2.09999990
   11.54638958  373.15899658    4.90999985    2.13000011
   11.54777813  353.04299927    4.90999985    2.13000011
   11.54916668  374.73498535    4.90999985    2.13000011
   11.55055618  400.77301025    4.90999985    2.13000011
   11.55194473  342.98800659    4.90999985    2.13000011
   11.55333328  417.39599609    4.90999985    2.13000011
   11.55472279  391.32598877    4.90999985    2.13000011
   11.55611134  287.08700562    4.90999985    2.11999989
   11.55749989  319.01998901    4.90999985    2.13000011
   11.55888939  278.98800659    4.90999985    2.17000008
   11.56027794  266.73800659    4.90999985    2.17000008
   11.56166649  347.90798950    4.90999985    2.19000006
   11.56305599  411.79901123    4.90999985    2.17000008
   11.56444454  439.97299194    4.90999985    2.15000010
   11.56583309  369.58499146    4.90999985    2.11999989
   11.56722260  336.84698486    4.90999985    2.09999990
   11.56861115  289.39199829    4.90999985    2.09999990
   11.56999969  251.91799927    4.90999985    2.13000011
   11.57138920  282.01098633    4.90999985    2.17000008
   11.57277775  265.32199097    4.90999985    2.19000006
   11.57416630  307.34201050    4.90999985    2.21000004
   11.57555580  310.60699463    4.90999985    2.21000004
   11.57694435  356.02999878    4.90999985    2.19000006
   11.57833290  362.37799072    4.90999985    2.15000010
   11.57972240  334.92999268    4.90999985    2.11999989
   11.58111095  366.65399170    4.90999985    2.11999989
   11.58249950  396.77700806    4.90999985    2.09999990
   11.58388901  345.39498901    4.90999985    2.09999990
   11.58527756  334.44299316    4.90999985    2.13000011
   11.58666611  336.76501465    4.90999985    2.13000011
   11.58805561  356.40100098    4.90999985    2.13000011
   11.58944416  396.01800537    4.90999985    2.13000011
   11.59083271  362.53698730    4.90999985    2.11999989
   11.59222221  357.89001465    4.90999985    2.09999990
   11.59361076  369.38900757    4.90999985    2.09999990
   11.59499931  378.92700195    4.90999985    2.09999990
   11.59638882  312.64300537    4.90999985    2.09999990
   11.59777737  289.33801270    4.90999985    2.11999989
   11.59916592  302.86199951    4.90999985    2.13000011
   11.60055637  312.52700806    4.90999985    2.13000011
   11.60194492  320.30899048    4.90999985    2.15000010
   11.60333347  342.81698608    4.90999985    2.13000011
   11.60472298  375.39498901    4.90999985    2.11999989
   11.60611153  332.58599854    4.90999985    2.11999989
   11.60750008  338.34201050    4.90999985    2.11999989
   11.60888958  295.59500122    4.90999985    2.11999989
   11.61027813  354.42999268    4.90999985    2.13000011
   11.61166668  343.57400513    4.90999985    2.13000011
   11.61305618  373.96499634    4.90999985    2.11999989
   11.61444473  335.35101318    4.90999985    2.11999989
   11.61583328  360.79199219    4.90999985    2.11999989
   11.61722279  366.63500977    4.90999985    2.09999990
   11.61861134  361.85299683    4.90999985    2.09999990
   11.61999989  327.10699463    4.90999985    2.09999990
   11.62138939  352.09698486    4.90999985    2.11999989
   11.62277794  302.04000854    4.90999985    2.13000011
   11.62416649  379.21798706    4.90999985    2.11999989
   11.62555599  314.34799194    4.90999985    2.11999989
   11.62694454  340.48300171    4.90999985    2.13000011
   11.62833309  354.69699097    4.90999985    2.13000011
   11.62972260  369.22900391    4.90999985    2.13000011
   11.63111115  370.00698853    4.90999985    2.11999989
   11.63249969  362.39498901    4.90999985    2.13000011
   11.63388920  314.77099609    4.90999985    2.11999989
   11.63527775  321.57101440    4.90999985    2.11999989
   11.63666630  359.46600342    4.90999985    2.09999990
   11.63805580  322.54998779    4.90999985    2.09999990
   11.63944435  315.33401489    4.90999985    2.11999989
   11.64083290  245.86300659    4.90999985    2.11999989
   11.64111137  312.21701050    4.90999985    2.09999990
   11.64166641  285.32901001    4.90999985    2.11999989
   11.64499950  329.95001221    4.90999985    2.13000011
   11.64694405  286.79598999    4.90999985    2.11999989
   11.64833355  264.93798828    4.90999985    2.13000011
   11.64972210  228.62100220    4.90999985    2.15000010
   11.64972210  285.32901001    4.90999985    2.11999989
   11.64972210  329.95001221    4.90999985    2.13000011
   11.65027714  199.09100342    4.90999985    2.17000008
   11.65361118  234.75999451    4.90999985    2.25000000
   11.65694427  311.23498535    4.90999985    2.19000006
   11.65888882  303.38101196    4.90999985    2.11999989
   11.66027737  236.41000366    4.90999985    2.11999989
   11.66027737  199.09100342    4.90999985    2.17000008
   11.66027737  234.75999451    4.90999985    2.25000000
   11.66055489  311.23498535    4.90999985    2.19000006
   11.66166592  211.80299377    4.90999985    2.13000011
   11.66472149  194.16400146    4.90999985    2.23000002
   11.66805553  194.00999451    4.90999985    2.23000002
   11.67138958  220.04699707    4.90999985    2.21000004
   11.67444515  304.30200195    4.90999985    2.17000008
   11.67666721  234.56500244    4.90999985    2.17000008
   11.67666721  211.80299377    4.90999985    2.13000011
   11.67666721  194.16400146    4.90999985    2.23000002
   11.67694473  194.00999451    4.90999985    2.23000002
   11.67694473  220.04699707    4.90999985    2.21000004
   11.67694473  304.30200195    4.90999985    2.17000008
   11.67888927  172.57699585    4.90999985    2.23000002
   11.68222237  177.00100708    4.90999985    2.26999998
   11.68555546  192.13800049    4.90999985    2.26999998
   11.68861103  169.30900574    4.90999985    2.28999996
   11.69194412  188.21600342    4.90999985    2.28999996
   11.69750023  188.21600342    4.90999985    2.23000002
   11.70138836  171.51899719    4.90999985    2.28999996
   11.70472240  163.83799744    4.90999985    2.30999994
   11.70805550  154.75300598    4.90999985    2.30999994
   11.71055508  134.38499451    4.90999985    2.32999992
   11.71166611  142.50399780    4.90999985    2.32999992
   11.71500015  153.77799988    4.90999985    2.34999990
   11.71833324  158.72000122    4.90999985    2.32999992
   11.72138882  168.51499939    4.90999985    2.28999996
   11.72472191  168.40400696    4.90999985    2.28999996
   11.72777748  170.91900635    4.90999985    2.28999996
   11.73111057  173.04899597    4.90999985    2.28999996
   11.73444462  154.25100708    4.90999985    2.32999992
   11.74027824  154.25100708    4.90999985    2.40000010
   11.74444485  194.28199768    4.90999985    2.36999989
   11.74750042  163.53700256    4.90999985    2.30999994
   11.75083351  132.88499451    4.90999985    2.34999990
   11.75388908  145.68899536    4.90999985    2.42000008
   11.75722218  144.30999756    4.90999985    2.42000008
   11.76055527  160.28100586    4.90999985    2.34999990
   11.76361084  147.99899292    4.90999985    2.39000010
   11.76694393  133.18499756    4.90999985    2.44000006
   11.77027798  135.63900757    4.90999985    2.42000008
   11.77333355  139.33799744    4.90999985    2.42000008
   11.77666664  145.16900635    4.90999985    2.42000008
   11.77722168  148.41999817    4.90999985    2.42000008
   11.78305531  148.41999817    4.90999985    2.40000010
   11.78722286  138.15600586    4.90999985    2.44000006
   11.79027843  136.91600037    4.90999985    2.40000010
   11.79361153  136.61900330    4.90999985    2.40000010
   11.79694462  139.28700256    4.90999985    2.42000008
   11.80000019  134.98699951    4.90999985    2.40000010
   11.80333328  135.10499573    4.90999985    2.40000010
   11.80666733  144.47200012    4.90999985    2.42000008
   11.80972195  127.33300018    4.90999985    2.44000006
   11.81055546  153.94200134    4.90999985    2.44000006
   11.81333351  135.27099609    4.90999985    2.42000008
   11.81666660  131.76699829    4.90999985    2.42000008
   11.81999969  139.03799438    4.90999985    2.46000004
   11.82583332  139.03799438    4.90999985    2.42000008
   11.82999992  142.04600525    4.90999985    2.44000006
   11.83333302  146.76100159    4.90999985    2.44000006
   11.83638859  135.93699646    4.90999985    2.40000010
   11.83972168  124.56099701    4.90999985    2.46000004
   11.84305477  126.28399658    4.90999985    2.46000004
   11.84388828  132.54400635    4.90999985    2.46000004
   11.84638882  142.17399597    4.90999985    2.46000004
   11.84972191  135.52499390    4.90999985    2.40000010
   11.85305595  142.62600708    4.90999985    2.39000010
   11.85611153  141.20100403    4.90999985    2.40000010
   11.85944462  140.53700256    4.90999985    2.44000006
   11.86277771  160.48800659    4.90999985    2.42000008
   11.86861134  160.48800659    4.90999985    2.40000010
   11.87277794  149.17700195    4.90999985    2.39000010
   11.87611103  148.83599854    4.90999985    2.39000010
   11.87722206  151.41299438    4.90999985    2.39000010
   11.87972260  157.94999695    4.90999985    2.39000010
   11.88305569  183.37500000    4.90999985    2.34999990
   11.88638878  137.15199280    4.90999985    2.32999992
   11.88944435  149.95399475    4.90999985    2.36999989
   11.89277744  145.20100403    4.90999985    2.34999990
   11.89611053  154.12399292    4.90999985    2.34999990
   11.89916611  139.32800293    4.90999985    2.36999989
   11.90249920  151.13200378    4.90999985    2.39000010
   11.90555477  127.54399872    4.90999985    2.36999989
   11.91166592  127.54399872    4.90999985    2.40000010
   11.91583252  149.86000061    4.90999985    2.39000010
   11.91888905  157.85299683    4.90999985    2.34999990
   11.92222214  148.80299377    4.90999985    2.32999992
   11.92527771  157.38600159    4.90999985    2.34999990
   11.92861176  164.94200134    4.90999985    2.34999990
   11.93194485  162.41600037    4.90999985    2.34999990
   11.93500042  152.73300171    4.90999985    2.39000010
   11.93833351  136.14900208    4.90999985    2.40000010
   11.94166660  140.93800354    4.90999985    2.39000010
   11.94388866  148.87899780    4.90999985    2.39000010
   11.94527817  130.83900452    4.90999985    2.39000010
   11.94833374  146.96099854    4.90999985    2.39000010
   11.95444393  146.96099854    4.90999985    2.36999989
   11.95861053  148.13200378    4.90999985    2.34999990
   11.96166611  151.46299744    4.90999985    2.34999990
   11.96500015  167.89100647    4.90999985    2.32999992
   11.96833324  159.60099792    4.90999985    2.30999994
   11.97138882  166.13900757    4.90999985    2.32999992
   11.97472191  147.71000671    4.90999985    2.34999990
   11.97722149  157.16799927    4.90999985    2.36999989
   11.97861099  147.65299988    4.90999985    2.34999990
   11.98166656  165.32699585    4.90999985    2.34999990
   11.98500061  165.27799988    4.90999985    2.36999989
   11.98805618  169.53300476    4.90999985    2.34999990
   11.99138927  142.83900452    4.90999985    2.34999990
   11.99722290  142.83900452    4.90999985    2.39000010
   12.00138855  149.49699402    4.90999985    2.39000010
   12.00472260  161.01600647    4.90999985    2.36999989
   12.00777817  151.55400085    4.90999985    2.36999989
   12.01055527  140.89399719    4.90999985    2.40000010
   12.01166630  143.02299500    4.90999985    2.39000010
   12.01472187  157.47999573    4.90999985    2.36999989
   12.01805496  157.70100403    4.90999985    2.36999989
   12.02111053  182.59300232    4.90999985    2.32999992
   12.02444458  177.21200562    4.90999985    2.30999994
   12.02777767  166.58200073    4.90999985    2.28999996
   12.03083324  168.71899414    4.90999985    2.32999992
   12.03416729  154.50300598    4.90999985    2.36999989
   12.04000092  154.50300598    4.90999985    2.28999996
   12.04416752  182.07499695    4.90999985    2.34999990
   12.04750061  180.69000244    4.90999985    2.30999994
   12.05083370  182.68899536    4.90999985    2.26999998
   12.05388927  176.30900574    4.90999985    2.26999998
   12.05722237  210.27299500    4.90999985    2.25000000
   12.06027794  194.88900757    4.90999985    2.23000002
   12.06361103  188.75399780    4.90999985    2.21000004
   12.06694412  201.42300415    4.90999985    2.21000004
   12.06999969  150.64100647    4.90999985    2.25000000
   12.07333374  161.50700378    4.90999985    2.30999994
   12.07666683  181.41799927    4.90999985    2.30999994
   12.07722187  239.51499939    4.90999985    2.28999996
   12.08305550  239.51499939    4.90999985    2.23000002
   12.08722210  177.78700256    4.90999985    2.25000000
   12.09027767  158.58799744    4.90999985    2.32999992
   12.09361076  160.85200500    4.90999985    2.34999990
   12.09666634  174.79400635    4.90999985    2.32999992
   12.10000038  182.81399536    4.90999985    2.30999994
   12.10333347  180.94799805    4.90999985    2.28999996
   12.10638905  156.49299622    4.90999985    2.30999994
   12.10972214  151.61799622    4.90999985    2.34999990
   12.11055565  154.92999268    4.90999985    2.34999990
   12.11333370  151.88699341    4.90999985    2.34999990
   12.11638927  177.65499878    4.90999985    2.32999992
   12.11972237  146.28500366    4.90999985    2.32999992
   12.12583351  146.28500366    4.90999985    2.39000010
   12.13000011  151.22500610    4.90999985    2.36999989
   12.13333321  161.88499451    4.90999985    2.34999990
   12.13638878  159.75000000    4.90999985    2.34999990
   12.13972187  164.72500610    4.90999985    2.39000010
   12.14277744  134.43400574    4.90999985    2.39000010
   12.14388847  141.32200623    4.90999985    2.40000010
   12.14666653  127.21800232    4.90999985    2.40000010
   12.14972210  138.97200012    4.90999985    2.39000010
   12.15305519  142.53799438    4.90999985    2.36999989
   12.15611076  128.72900391    4.90999985    2.40000010
   12.15944386  123.94400024    4.90999985    2.44000006
   12.16277695  143.83200073    4.90999985    2.40000010
   12.16861153  143.83200073    4.90999985    2.39000010
   12.17277813  129.32699585    4.90999985    2.40000010
   12.17611122  136.32099915    4.90999985    2.40000010
   12.17722225  134.19500732    4.90999985    2.39000010
   12.17972279  127.47100067    4.90999985    2.39000010
   12.18277836  130.11900330    4.90999985    2.39000010
   12.18611145  141.43200684    4.90999985    2.42000008
   12.18916702  130.90400696    4.90999985    2.40000010
   12.19250011  135.06900024    4.90999985    2.40000010
   12.19583321  127.31099701    4.90999985    2.42000008
   12.19888878  141.07400513    4.90999985    2.42000008
   12.20222187  124.21099854    4.90999985    2.44000006
   12.20555496  141.60800171    4.90999985    2.46000004
   12.21166611  141.60800171    4.90999985    2.44000006
   12.21555519  122.08499908    4.90999985    2.53999996
   12.21888828  139.51899719    4.90999985    2.46000004
   12.22222137  127.49700165    4.90999985    2.44000006
   12.22527695  138.72300720    4.90999985    2.40000010
   12.22861099  153.39100647    4.90999985    2.44000006
   12.23194408  129.92900085    4.90999985    2.48000002
   12.23500061  129.35600281    4.90999985    2.46000004
   12.23833370  128.91999817    4.90999985    2.46000004
   12.24138927  135.49499512    4.90999985    2.44000006
   12.24388885  164.09300232    4.90999985    2.40000010
   12.24527836  139.09599304    4.90999985    2.40000010
   12.24833393  145.87800598    4.90999985    2.40000010
   12.25444412  145.87800598    4.90999985    2.46000004
   12.25861073  151.66200256    4.90999985    2.46000004
   12.26166630  153.42900085    4.90999985    2.44000006
   12.26500034  152.47000122    4.90999985    2.39000010
   12.26805496  164.52099609    4.90999985    2.40000010
   12.27138901  136.25999451    4.90999985    2.40000010
   12.27472210  140.14300537    4.90999985    2.42000008
   12.27722168  133.75000000    4.90999985    2.46000004
   12.27833271  139.67700195    4.90999985    2.46000004
   12.28138828  137.15400696    4.90999985    2.46000004
   12.28472233  136.02699280    4.90999985    2.44000006
   12.28777790  129.27900696    4.90999985    2.46000004
   12.29111195  134.11099243    4.90999985    2.40000010
   12.29722309  134.11099243    4.90999985    2.46000004
   12.30138874  132.28300476    4.90999985    2.50000000
   12.30444431  126.43299866    4.90999985    2.44000006
   12.30777836  147.75300598    4.90999985    2.40000010
   12.31055546  128.10499573    4.90999985    2.39000010
   12.31166649  139.14100647    4.90999985    2.40000010
   12.31472206  127.47899628    4.90999985    2.46000004
   12.31805515  128.93800354    4.90999985    2.50000000
   12.32138920  129.43099976    4.90999985    2.48000002
   12.32444477  154.18400574    4.90999985    2.46000004
   12.32777786  143.80700684    4.90999985    2.39000010
   12.33083344  138.67100525    4.90999985    2.44000006
   12.33416653  155.14700317    4.90999985    2.48000002
   12.34000015  155.14700317    4.90999985    2.46000004
   12.34416676  142.57400513    4.90999985    2.32999992
   12.34749985  147.88900757    4.90999985    2.40000010
   12.35055637  135.47000122    4.90999985    2.50000000
   12.35388947  135.93699646    4.90999985    2.53999996
   12.35722256  137.52000427    4.90999985    2.48000002
   12.36027813  138.18499756    4.90999985    2.46000004
   12.36361122  137.28599548    4.90999985    2.46000004
   12.36666679  139.08500671    4.90999985    2.44000006
   12.36999989  132.86399841    4.90999985    2.42000008
   12.37333393  123.67700195    4.90999985    2.44000006
   12.37638855  162.91900635    4.90999985    2.44000006
   12.37722206  149.69900513    4.90999985    2.44000006
   12.38305569  149.69900513    4.90999985    2.42000008
   12.38694477  177.12399292    4.90999985    2.46000004
   12.39027786  161.91299438    4.90999985    2.40000010
   12.39361095  160.21699524    4.90999985    2.46000004
   12.39666653  167.38999939    4.90999985    2.44000006
   12.39999962  171.92599487    4.90999985    2.42000008
   12.40305519  162.65699768    4.90999985    2.36999989
   12.40638828  163.95300293    4.90999985    2.39000010
   12.40972137  168.72099304    4.90999985    2.36999989
   12.41055489  156.52799988    4.90999985    2.36999989
   12.41333294  182.96299744    4.90999985    2.39000010
   12.41638851  169.09199524    4.90999985    2.36999989
   12.41972256  180.74400330    4.90999985    2.40000010
   12.42583370  180.74400330    4.90999985    2.40000010
   12.43000031  183.77099609    4.90999985    2.39000010
   12.43305588  156.64900208    4.90999985    2.30999994
   12.43638897  168.54699707    4.90999985    2.34999990
   12.43944454  171.21699524    4.90999985    2.36999989
   12.44277763  165.38699341    4.90999985    2.39000010
   12.44388866  156.23899841    4.90999985    2.36999989
   12.44638920  141.94599915    4.90999985    2.39000010
   12.44944477  151.00799561    4.90999985    2.42000008
   12.45277786  138.45899963    4.90999985    2.40000010
   12.45611095  153.88699341    4.90999985    2.36999989
   12.45916653  164.43600464    4.90999985    2.39000010
   12.46249962  164.81100464    4.90999985    2.36999989
   12.46861076  164.81100464    4.90999985    2.39000010
   12.47277737  155.50599670    4.90999985    2.34999990
   12.47583294  166.25700378    4.90999985    2.39000010
   12.47722149  150.89199829    4.90999985    2.40000010
   12.47972202  185.61099243    4.90999985    2.40000010
   12.48277760  180.75599670    4.90999985    2.39000010
   12.48611164  173.25599670    4.90999985    2.36999989
   12.50555515  221.37399292    4.90999985    2.28999996
   12.51166630  221.37399292    4.90999985    2.26999998
   12.51583290  166.47200012    4.90999985    2.28999996
   12.51888847  168.95899963    4.90999985    2.36999989
   12.52222157  180.58099365    4.90999985    2.34999990
   12.52555561  223.15800476    4.90999985    2.30999994
   12.52861118  221.69299316    4.90999985    2.26999998
   12.53194427  188.97099304    4.90999985    2.26999998
   12.53500080  183.16600037    4.90999985    2.26999998
   12.53833389  188.12600708    4.90999985    2.32999992
   12.54166698  195.79699707    4.90999985    2.30999994
   12.54388905  249.76600647    4.90999985    2.28999996
   12.54527855  210.68299866    4.90999985    2.26999998
   12.54861164  182.00500488    4.90999985    2.28999996
   12.55444431  182.00500488    4.90999985    2.39000010
   12.55861092  169.39399719    4.90999985    2.40000010
   12.56194496  212.56300354    4.90999985    2.36999989
   12.56500053  331.61300659    4.90999985    2.25000000
   12.56694412  281.66500854    4.90999985    2.19000006
   12.56833363  239.39799500    4.90999985    2.19000006
   12.56861115  188.12600708    4.90999985    2.32999992
   12.56861115  195.79699707    4.90999985    2.30999994
   12.56861115  210.68299866    4.90999985    2.26999998
   12.56888866  182.00500488    4.90999985    2.28999996
   12.56888866  169.39399719    4.90999985    2.40000010
   12.56888866  212.56300354    4.90999985    2.36999989
   12.56916618  331.61300659    4.90999985    2.25000000
   12.56916618  188.97099304    4.90999985    2.26999998
   12.56916618  183.16600037    4.90999985    2.26999998
   12.57027817  193.84899902    4.90999985    2.23000002
   12.57361126  196.60099792    4.90999985    2.32999992
   12.57694435  220.27699280    4.90999985    2.36999989
   12.57999992  231.59800720    4.90999985    2.32999992
   12.58333302  281.27398682    4.90999985    2.25000000
   12.58916664  281.27398682    4.90999985    2.25000000
   12.59333324  156.62899780    4.90999985    2.40000010
   12.59666634  200.60000610    4.90999985    2.36999989
   12.59972191  240.97399902    4.90999985    2.26999998
   12.60222244  224.61900330    4.90999985    2.21000004
   12.60361195  205.44999695    4.90999985    2.23000002
   12.60666752  153.05799866    4.90999985    2.36999989
   12.61000061  148.44000244    4.90999985    2.51999998
   12.61333370  171.63600159    4.90999985    2.42000008
   12.61638927  189.38499451    4.90999985    2.34999990
   12.61972237  202.52000427    4.90999985    2.32999992
   12.62305546  150.56900024    4.90999985    2.28999996
   12.62611103  150.58200073    4.90999985    2.40000010
   12.63194466  150.58200073    4.90999985    2.34999990
   12.63611126  183.34399414    4.90999985    2.25000000
   12.63944435  190.90400696    4.90999985    2.34999990
   12.64277744  180.70500183    4.90999985    2.36999989
   12.64583302  213.52200317    4.90999985    2.30999994
   12.64916611  246.54800415    4.90999985    2.28999996
   12.65222168  202.43200684    4.90999985    2.26999998
   12.65555477  182.22099304    4.90999985    2.32999992
   12.65888882  203.85499573    4.90999985    2.36999989
   12.66194439  197.81500244    4.90999985    2.30999994
   12.66527748  204.36199951    4.90999985    2.30999994
   12.66861153  206.46600342    4.90999985    2.30999994
   12.66916656  182.52499390    4.90999985    2.32999992
   12.67500019  182.52499390    4.90999985    2.36999989
   12.67888927  153.28100586    4.90999985    2.32999992
   12.68222237  163.12199402    4.90999985    2.40000010
   12.68555546  186.14599609    4.90999985    2.39000010
   12.68861103  196.11300659    4.90999985    2.28999996
   12.69194412  196.08299255    4.90999985    2.32999992
   12.69527817  160.57299805    4.90999985    2.40000010
   12.69833374  182.76499939    4.90999985    2.40000010
   12.70166683  152.13299561    4.90999985    2.39000010
   12.70249939  140.04499817    4.90999985    2.39000010
   12.70527744  133.08399963    4.90999985    2.40000010
   12.70861053  131.06199646    4.90999985    2.44000006
   12.71166611  139.79899597    4.90999985    2.44000006
   12.71777725  139.79899597    4.90999985    2.48000002
   12.72194386  125.58899689    4.90999985    2.53999996
   12.72499943  127.99299622    4.90999985    2.51999998
   12.72833252  152.02999878    4.90999985    2.48000002
   12.73166656  135.33399963    4.90999985    2.42000008
   12.73472214  131.56300354    4.90999985    2.46000004
   12.73583317  137.13900757    4.90999985    2.48000002
   12.73833370  131.30900574    4.90999985    2.48000002
   12.74166679  138.12100220    4.90999985    2.48000002
   12.74472237  140.50000000    4.90999985    2.48000002
   12.74805546  140.85299683    4.90999985    2.42000008
   12.75138855  153.44400024    4.90999985    2.42000008
   12.75444412  148.91700745    4.90999985    2.40000010
   12.76055527  148.91700745    4.90999985    2.48000002
   12.76472187  152.99699402    4.90999985    2.46000004
   12.76805496  142.34800720    4.90999985    2.46000004
   12.76916599  146.38699341    4.90999985    2.48000002
   12.77138901  145.31799316    4.90999985    2.48000002
   12.77472210  139.68600464    4.90999985    2.48000002
   12.77777767  146.51400757    4.90999985    2.48000002
   12.78111076  153.14500427    4.90999985    2.48000002
   12.78444481  159.38800049    4.90999985    2.46000004
   12.78750038  168.11999512    4.90999985    2.46000004
   12.79083347  164.25700378    4.90999985    2.39000010
   12.79416752  154.67599487    4.90999985    2.40000010
   12.79722309  170.26899719    4.90999985    2.42000008
   12.80333328  170.26899719    4.90999985    2.39000010
   12.80749989  193.74800110    4.90999985    2.32999992
   12.81083393  197.40800476    4.90999985    2.32999992
   12.81416702  166.83900452    4.90999985    2.39000010
   12.81722260  173.04699707    4.90999985    2.39000010
   12.82055569  160.37699890    4.90999985    2.34999990
   12.82361126  152.85499573    4.90999985    2.42000008
   12.82694435  162.73399353    4.90999985    2.40000010
   12.83027744  167.91400146    4.90999985    2.44000006
   12.83333302  152.69099426    4.90999985    2.42000008
   12.83583260  163.35800171    4.90999985    2.44000006
   12.83694458  166.52600098    4.90999985    2.42000008
   12.84027767  164.27099609    4.90999985    2.40000010
   12.84638882  164.27099609    4.90999985    2.42000008
   12.85027790  137.95300293    4.90999985    2.46000004
   12.85361195  147.28999329    4.90999985    2.50000000
   12.85694504  147.80900574    4.90999985    2.46000004
   12.86000061  154.83700562    4.90999985    2.44000006
   12.86333370  157.54200745    4.90999985    2.44000006
   12.86666679  158.26699829    4.90999985    2.40000010
   12.86916637  161.91299438    4.90999985    2.39000010
   12.86999989  163.40899658    4.90999985    2.40000010
   12.87333393  180.88999939    4.90999985    2.40000010
   12.87638855  165.41099548    4.90999985    2.39000010
   12.87972260  174.61399841    4.90999985    2.34999990
   12.88305569  162.42599487    4.90999985    2.34999990
   12.88916683  162.42599487    4.90999985    2.39000010
   12.89333344  153.60800171    4.90999985    2.42000008
   12.89638901  170.29400635    4.90999985    2.42000008
   12.89972210  157.93400574    4.90999985    2.40000010
   12.90249920  137.01800537    4.90999985    2.42000008
   12.90333271  169.08700562    4.90999985    2.40000010
   12.90666676  176.27000427    4.90999985    2.39000010
   12.90972137  202.28599548    4.90999985    2.34999990
   12.91305542  216.57400513    4.90999985    2.34999990
   12.91638851  234.98199463    4.90999985    2.30999994
   12.91944504  271.14999390    4.90999985    2.26999998
   12.92277813  283.82998657    4.90999985    2.25000000
   12.92611122  289.43499756    4.90999985    2.21000004
   12.93194485  289.43499756    4.90999985    2.26999998
   12.93611145  294.69500732    4.90999985    2.25000000
   12.93944454  260.48300171    4.90999985    2.23000002
   12.94250011  248.60000610    4.90999985    2.26999998
   12.94583321  289.30499268    4.90999985    2.26999998
   12.94888878  306.81799316    4.90999985    2.23000002
   12.95111084  352.09298706    4.90999985    2.21000004
   12.95222187  341.56500244    4.90999985    2.21000004
   12.95361137  293.45498657    4.90999985    2.19000006
   12.95499992  390.27099609    4.90999985    2.23000002
   12.95638847  368.88900757    4.90999985    2.19000006
   12.95777798  348.82400513    4.90999985    2.17000008
   12.95916653  398.74798584    4.90999985    2.17000008
   12.96055508  410.72698975    4.90999985    2.19000006
   12.96194458  433.30999756    4.90999985    2.19000006
   12.96333313  359.62298584    4.90999985    2.15000010
   12.96472168  356.46398926    4.90999985    2.17000008
   12.96611118  382.41101074    4.90999985    2.19000006
   12.96749973  392.36099243    4.90999985    2.21000004
   12.96888828  432.86401367    4.90999985    2.19000006
   12.97027779  426.03799438    4.90999985    2.19000006
   12.97166634  468.64999390    4.90999985    2.17000008
   12.97305489  465.05599976    4.90999985    2.15000010
   12.97444439  276.27600098    4.90999985    2.13000011
   12.97583294  317.71701050    4.90999985    2.13000011
   12.97722149  392.58700562    4.90999985    2.13000011
   12.97861099  331.55099487    4.90999985    2.13000011
   12.97999954  425.04299927    4.90999985    2.13000011
   12.98138809  426.52600098    4.90999985    2.13000011
   12.98277760  416.70599365    4.90999985    2.17000008
   12.98416710  319.03298950    4.90999985    2.15000010
   12.98555565  245.03199768    4.90999985    2.13000011
   12.98583317  271.14999390    4.90999985    2.26999998
   12.98583317  283.82998657    4.90999985    2.25000000
   12.98611164  289.43499756    4.90999985    2.21000004
   12.98611164  294.69500732    4.90999985    2.25000000
   12.98611164  260.48300171    4.90999985    2.23000002
   12.98638916  248.60000610    4.90999985    2.26999998
   12.98638916  289.30499268    4.90999985    2.26999998
   12.98638916  306.81799316    4.90999985    2.23000002
   12.98666668  234.98199463    4.90999985    2.30999994
   12.98722267  433.35400391    4.90999985    2.11999989
   12.98916721  323.74798584    4.90999985    2.15000010
   12.99055576  323.02899170    4.90999985    2.17000008
   12.99194431  286.90100098    4.90999985    2.15000010
   12.99333382  370.82598877    4.90999985    2.15000010
   12.99472237  191.99099731    4.90999985    2.15000010
   12.99472237  433.35400391    4.90999985    2.11999989
   12.99527836  169.90100098    4.90999985    2.15000010
   12.99861145  179.03500366    4.90999985    2.09999990
   13.00166702  141.59399414    4.90999985    2.11999989
   13.00500011  104.40200043    4.90999985    2.09999990
   13.00833321   86.89040375    4.90999985    2.13000011
   13.01138878   52.15269852    4.90999985    2.05999994
   13.01555538   52.15269852    4.90999985    2.11999989
   13.01972198   61.69990158    4.90999985    2.07999992
   13.02305508   80.28800201    4.90999985    2.09999990
   13.02611065   59.97790146    4.90999985    2.05999994
   13.02861118   93.47550201    4.90999985    2.05999994
   13.02972221   78.37950134    4.90999985    2.07999992
   13.03305531   -1.00000000   -1.00000000   -1.00000000
   13.03638935   68.61340332    4.90999985    2.00000000
   13.03944492   98.61569977    4.90999985    2.03999996
   13.04277802   78.83059692    4.90999985    2.05999994
   13.04583359  100.72799683    4.90999985    2.05999994
   13.04916668   80.19869995    4.90999985    2.09999990
   13.05249977   52.79890060    4.90999985    2.05999994
   13.05833340   52.79890060    4.90999985    2.03999996
   13.06250000  105.99099731    4.90999985    2.07999992
   13.06583309   76.94100189    4.90999985    2.07999992
   13.06888866  316.81600952    4.90999985    2.07999992
   13.07111073  224.65100098    4.90999985    2.21000004
   13.07111073   76.94100189    4.90999985    2.07999992
   13.07138920  316.81600952    4.90999985    2.07999992
   13.07138920   68.61340332    4.90999985    2.00000000
   13.07138920   98.61569977    4.90999985    2.03999996
   13.07166672   78.83059692    4.90999985    2.05999994
   13.07166672  100.72799683    4.90999985    2.05999994
   13.07166672   80.19869995    4.90999985    2.09999990
   13.07194424   52.79890060    4.90999985    2.05999994
   13.07194424  105.99099731    4.90999985    2.07999992
   13.07388878  337.22900391    4.90999985    2.15000010
   13.07583332  240.72500610    4.90999985    2.15000010
   13.07777786  374.05801392    4.90999985    2.15000010
   13.07999992  327.44299316    4.90999985    2.17000008
   13.08111095  275.88500977    4.90999985    2.17000008
   13.08249950  297.84698486    4.90999985    2.15000010
   13.08388901  359.21499634    4.90999985    2.15000010
   13.08527756  303.52600098    4.90999985    2.15000010
   13.08666611  409.75201416    4.90999985    2.15000010
   13.08805561  323.52700806    4.90999985    2.17000008
   13.08944416  287.29598999    4.90999985    2.25000000
   13.09083271  213.59899902    4.90999985    2.28999996
   13.09111118  374.05801392    4.90999985    2.15000010
   13.09166622  235.06100464    4.90999985    2.32999992
   13.09472179  183.91000366    4.90999985    2.46000004
   13.09805489  222.64700317    4.90999985    2.50000000
   13.10138893  173.94200134    4.90999985    2.36999989
   13.10444450  230.55000305    4.90999985    2.39000010
   13.10777855  228.27699280    4.90999985    2.32999992
   13.11194515  228.27699280    4.90999985    2.32999992
   13.11611176  292.38800049    4.90999985    2.30999994
   13.11916637  449.98699951    4.90999985    2.23000002
   13.12138939  322.36199951    4.90999985    2.17000008
   13.12250042  360.80099487    4.90999985    2.19000006
   13.12388897  274.32101440    4.90999985    2.25000000
   13.12527752  238.38499451    4.90999985    2.23000002
   13.12555599  235.06100464    4.90999985    2.32999992
   13.12555599  183.91000366    4.90999985    2.46000004
   13.12555599  222.64700317    4.90999985    2.50000000
   13.12583351  173.94200134    4.90999985    2.36999989
   13.12583351  230.55000305    4.90999985    2.39000010
   13.12583351  228.27699280    4.90999985    2.32999992
   13.12611103  292.38800049    4.90999985    2.30999994
   13.12611103  449.98699951    4.90999985    2.23000002
   13.12666702  339.73699951    4.90999985    2.25000000
   13.12888908  299.11898804    4.90999985    2.25000000
   13.13000011  245.78300476    4.90999985    2.25000000
   13.13027763  339.73699951    4.90999985    2.25000000
   13.13138866  252.14399719    4.90999985    2.30999994
   13.13444424  219.60800171    4.90999985    2.32999992
   13.13777733  264.41799927    4.90999985    2.30999994
   13.14111137  229.38699341    4.90999985    2.28999996
   13.14416695  287.67498779    4.90999985    2.32999992
   13.15083313  287.67498779    4.90999985    2.19000006
   13.15499973  416.48599243    4.90999985    2.21000004
   13.15694427  398.46301270    4.90999985    2.23000002
   13.15833282  378.62298584    4.90999985    2.23000002
   13.15972137  433.60699463    4.90999985    2.23000002
   13.16111088  390.17599487    4.90999985    2.21000004
   13.16249943  360.09100342    4.90999985    2.19000006
   13.16388893  393.78399658    4.90999985    2.19000006
   13.16527748  390.41400146    4.90999985    2.19000006
   13.16666698  351.06500244    4.90999985    2.19000006
   13.16805553  365.26300049    4.90999985    2.19000006
   13.16944504  399.51998901    4.90999985    2.17000008
   13.17083359  383.80801392    4.90999985    2.17000008
   13.17222214  232.89500427    4.90999985    2.19000006
   13.17222214  252.14399719    4.90999985    2.30999994
   13.17250061  219.60800171    4.90999985    2.32999992
   13.17250061  264.41799927    4.90999985    2.30999994
   13.17250061  229.38699341    4.90999985    2.28999996
   13.17277813  287.67498779    4.90999985    2.32999992
   13.17277813  416.48599243    4.90999985    2.21000004
   13.17333412  267.51098633    4.90999985    2.28999996
   13.17666721  375.25399780    4.90999985    2.30999994
   13.17861176  333.52600098    4.90999985    2.23000002
   13.18000031  271.32598877    4.90999985    2.21000004
   13.18138885  227.97999573    4.90999985    2.23000002
   13.18138885  267.51098633    4.90999985    2.28999996
   13.18166733  375.25399780    4.90999985    2.30999994
   13.18222237  277.27899170    4.90999985    2.28999996
   13.18527794  219.15199280    4.90999985    2.32999992
   13.18861103  247.53300476    4.90999985    2.34999990
   13.19194412  312.12799072    4.90999985    2.32999992
   13.19388866  361.89700317    4.90999985    2.25000000
   13.19527817  256.67999268    4.90999985    2.23000002
   13.19638920  233.52799988    4.90999985    2.23000002
   13.19666672  277.27899170    4.90999985    2.28999996
   13.19666672  219.15199280    4.90999985    2.32999992
   13.19694424  247.53300476    4.90999985    2.34999990
   13.19694424  312.12799072    4.90999985    2.32999992
   13.19750023  227.80900574    4.90999985    2.26999998
   13.30500031   -1.00000000   -1.00000000   -1.00000000
   13.40222168   -1.00000000   -1.00000000   -1.00000000
   13.50166702   -1.00000000   -1.00000000   -1.00000000
   13.54833412   78.74919891    4.90999985    2.51999998
   13.55166721  142.35800171    4.90999985    2.53999996
   13.55472279  145.13600159    4.90999985    2.53999996
   13.55805588  139.42999268    4.90999985    2.55999994
   13.56138897  133.01100159    4.90999985    2.57999992
   13.56444454  153.16299438    4.90999985    2.57999992
   13.56861115  153.16299438    4.90999985    2.46000004
   13.57277775  143.63499451    4.90999985    2.57999992
   13.57611084  129.79200745    4.90999985    2.61999989
   13.57916641  140.94299316    4.90999985    2.64000010
   13.58166695  138.41400146    4.90999985    2.59999990
   13.58277798  130.25100708    4.90999985    2.66000009
   13.58611107  144.83599854    4.90999985    2.61999989
   13.58944416  136.54800415    4.90999985    2.55999994
   13.59333324  153.77099609    4.90999985    2.55999994
   13.59666634  146.17100525    4.90999985    2.53999996
   13.60000038  147.86000061    4.90999985    2.53999996
   13.60333347  142.38000488    4.90999985    2.59999990
   13.60638905  145.41799927    4.90999985    2.61999989
   13.61166668  145.41799927    4.90999985    2.55999994
   13.61583328  140.02299500    4.90999985    2.61999989
   13.61888885  143.09599304    4.90999985    2.66000009
   13.62222195  120.08899689    4.90999985    2.64000010
   13.62555599  141.96800232    4.90999985    2.64000010
   13.62861156  148.60899353    4.90999985    2.67000008
   13.63194466  129.37399292    4.90999985    2.64000010
   13.63527775  151.29100037    4.90999985    2.61999989
   13.63833332  130.36399841    4.90999985    2.64000010
   13.64166641  129.80299377    4.90999985    2.67000008
   13.64499950  117.02500153    4.90999985    2.67000008
   13.64833355  129.81300354    4.90999985    2.76999998
   13.64861107  126.72200012    4.90999985    2.76999998
   13.65444374  126.72200012    4.90999985    2.69000006
   13.65861034  135.46600342    4.90999985    2.61999989
   13.66166592  121.21299744    4.90999985    2.59999990
   13.66499996  135.64700317    4.90999985    2.66000009
   13.66833401  145.38099670    4.90999985    2.61999989
   13.67138958  144.11099243    4.90999985    2.64000010
   13.67472267  137.34800720    4.90999985    2.66000009
   13.67777824  126.92800140    4.90999985    2.64000010
   13.68111134  136.92799377    4.90999985    2.71000004
   13.68166733  131.52200317    4.90999985    2.71000004
   13.68472195  141.41299438    4.90999985    2.64000010
   13.68777752  148.97599792    4.90999985    2.61999989
   13.69111156  130.58099365    4.90999985    2.67000008
   13.69722271  130.58099365    4.90999985    2.61999989
   13.70138836  140.45199585    4.90999985    2.64000010
   13.70472240  147.05900574    4.90999985    2.61999989
   13.70777798  154.28300476    4.90999985    2.53999996
   13.71111107  148.88800049    4.90999985    2.55999994
   13.71416664  159.94299316    4.90999985    2.57999992
   13.71500015  167.87300110    4.90999985    2.53999996
   13.71805477  152.27900696    4.90999985    2.57999992
   13.72111034  154.79299927    4.90999985    2.59999990
   13.72444439  140.74099731    4.90999985    2.57999992
   13.72777748  146.85800171    4.90999985    2.64000010
   13.73083305  140.87100220    4.90999985    2.61999989
   13.73416710  149.14199829    4.90999985    2.66000009
   13.74000072  149.14199829    4.90999985    2.66000009
   13.74416733  139.77999878    4.90999985    2.66000009
   13.74750042  148.16400146    4.90999985    2.69000006
   13.74833393  132.42599487    4.90999985    2.69000006
   13.75111103  152.31100464    4.90999985    2.66000009
   13.75416660  144.68600464    4.90999985    2.59999990
   13.75749969  161.51199341    4.90999985    2.59999990
   13.76083374  162.93299866    4.90999985    2.57999992
   13.76388931  160.21899414    4.90999985    2.59999990
   13.76722240  160.67500305    4.90999985    2.55999994
   13.77027798  161.11000061    4.90999985    2.59999990
   13.77361107  169.27099609    4.90999985    2.53999996
   13.77694416  163.08299255    4.90999985    2.61999989
   13.78277779  163.08299255    4.90999985    2.59999990
   13.78694534  165.47099304    4.90999985    2.59999990
   13.79027843  188.19799805    4.90999985    2.55999994
   13.79361153  178.94500732    4.90999985    2.51999998
   13.79666710  170.86399841    4.90999985    2.46000004
   13.80000019  234.80799866    4.90999985    2.46000004
   13.80305576  189.01199341    4.90999985    2.39000010
   13.80638885  199.70199585    4.90999985    2.46000004
   13.80972195  186.83999634    4.90999985    2.48000002
   13.81277752  191.91600037    4.90999985    2.46000004
   13.81500053  207.73599243    4.90999985    2.48000002
   13.81666660  188.41499329    4.90999985    2.48000002
   13.81972218  206.19099426    4.90999985    2.50000000
   13.82583332  206.19099426    4.90999985    2.46000004
   13.82999992  229.92300415    4.90999985    2.48000002
   13.83305550  184.19400024    4.90999985    2.44000006
   13.83638859  187.80700684    4.90999985    2.50000000
   13.83944416  185.34300232    4.90999985    2.44000006
   13.84277725  193.16999817    4.90999985    2.48000002
   13.84611034  168.89599609    4.90999985    2.50000000
   13.84833336  182.11599731    2.59999990    0.64999998
   13.84972191  175.09100342    1.61000001    0.46000001
   13.85277843  202.50799561    1.61000001    0.46000001
   13.85611153  192.14799500    1.61000001    0.46000001
   13.85944462  232.73399353    1.61000001    0.46000001
   13.86250019  226.35899353    1.61000001    0.46000001
   13.86861134  226.35899353    1.61000001    0.46000001
   13.87277794  169.83099365    1.61000001    0.46000001
   13.87583351  167.21699524    1.61000001    0.46000001
   13.87916660  176.00999451    1.61000001    0.46000001
   13.88166714  159.82800293    1.61000001    0.46000001
   13.88277817  161.82899475    1.61000001    0.46000001
   13.88583279  136.98300171    1.61000001    0.46000001
   13.88916683  163.19099426    1.61000001    0.46000001
   13.89249992  146.49200439    1.61000001    0.46000001
   13.89555550  151.88800049    1.61000001    0.46000001
   13.89888859  145.96899414    1.61000001    0.46000001
   13.90222168  158.64700317    1.61000001    0.46000001
   13.90527725  153.89599609    1.61000001    0.46000001
   13.91138840  153.89599609    1.61000001    0.46000001
   13.91555500  130.57400513    1.61000001    0.46000001
   13.91888905  132.62699890    1.61000001    0.46000001
   13.92194462  130.53900146    1.61000001    0.46000001
   13.92527771  139.28500366    1.61000001    0.46000001
   13.92861176  155.36999512    1.61000001    0.46000001
   13.93166733  163.63699341    1.61000001    0.46000001
   13.93500042  164.42199707    1.61000001    0.46000001
   13.93805599  147.01800537    1.61000001    0.46000001
   13.94138908  142.00900269    1.61000001    0.46000001
   13.94472218  140.29899597    1.61000001    0.46000001
   13.94777775  148.59199524    1.61000001    0.46000001
   13.94833374  143.24899292    1.61000001    0.46000001
   13.95416641  143.24899292    1.61000001    0.46000001
   13.95833302  139.36799622    1.61000001    0.46000001
   13.96166611  126.87500000    1.61000001    0.46000001
   13.96500015  134.96099854    1.61000001    0.46000001
   13.96805477  141.99000549    1.61000001    0.46000001
   13.97138882  113.41600037    1.61000001    0.46000001
   13.97444439  128.95599365    1.61000001    0.46000001
   13.97777748  116.15100098    1.61000001    0.46000001
   13.98111057  143.00000000    1.61000001    0.46000001
   13.98166656  143.04600525    1.61000001    0.46000001
   13.98472214  142.19500732    1.61000001    0.46000001
   13.98805618  157.89100647    1.61000001    0.46000001
   13.99111176  127.71499634    1.61000001    0.46000001
   13.99722290  127.71499634    1.61000001    0.46000001
   14.00138855  131.85699463    1.61000001    0.46000001
   14.00444412  158.05400085    1.61000001    0.46000001
   14.00777817  126.99099731    1.61000001    0.46000001
   14.01111126  140.09100342    1.61000001    0.46000001
   14.01416683  141.92700195    1.61000001    0.46000001
   14.01500034  147.35099792    1.61000001    0.46000001
   14.01777744  157.58700562    1.61000001    0.46000001
   14.02111053  158.50000000    1.61000001    0.46000001
   14.02416611  177.89999390    1.61000001    0.46000001
   14.02750015  133.86099243    1.61000001    0.46000001
   14.03055573  149.16099548    1.61000001    0.46000001
   14.03388977  132.35600281    1.61000001    0.46000001
   14.04000092  132.35600281    1.61000001    0.46000001
   14.04416752  135.86300659    1.61000001    0.46000001
   14.04722309  136.57600403    1.61000001    0.46000001
   14.04833412  124.77799988    1.61000001    0.46000001
   14.05111122  134.20300293    1.61000001    0.46000001
   14.05444431  136.46800232    1.61000001    0.46000001
   14.05749989  120.66400146    1.61000001    0.46000001
   14.06083393  130.09399414    1.61000001    0.46000001
   14.06416702  124.06099701    1.61000001    0.46000001
   14.06722260  122.18099976    1.61000001    0.46000001
   14.07055569  127.12999725    1.61000001    0.46000001
   14.07388878  127.05300140    1.61000001    0.46000001
   14.07694435  128.05599976    1.61000001    0.46000001
   14.08277798  128.05599976    1.61000001    0.46000001
   14.08694458  126.34999847    1.61000001    0.46000001
   14.09027767  132.60099792    1.61000001    0.46000001
   14.09333324  118.86900330    1.61000001    0.46000001
   14.09666634  112.79599762    1.61000001    0.46000001
   14.10000038  116.00499725    1.61000001    0.46000001
   14.10305595  119.36000061    1.61000001    0.46000001
   14.10638905  103.91699982    1.61000001    0.46000001
   14.10944462  109.80699921    1.61000001    0.46000001
   14.11277771  107.97100067    1.61000001    0.46000001
   14.11500072  105.81300354    1.61000001    0.46000001
   14.11638927  116.04299927    1.61000001    0.46000001
   14.11972237  110.68099976    1.61000001    0.46000001
   14.12555599  110.68099976    1.61000001    0.46000001
   14.12972260  136.34100342    1.61000001    0.46000001
   14.13305569  119.76799774    1.61000001    0.46000001
   14.13638878  126.65200043    1.61000001    0.46000001
   14.13944435  139.20300293    1.61000001    0.46000001
   14.14277744  139.91000366    1.61000001    0.46000001
   14.14611053  133.86399841    1.61000001    0.46000001
   14.14833355  152.48800659    1.61000001    0.46000001
   14.14999962  136.31900024    1.61000001    0.46000001
   14.15333271  132.93699646    1.61000001    0.46000001
   14.15638828  125.16200256    1.61000001    0.46000001
   14.15972137  132.85699463    1.61000001    0.46000001
   14.16305542  124.04499817    1.61000001    0.46000001
   14.16861153  124.04499817    1.61000001    0.46000001
   14.17277813  142.42199707    1.61000001    0.46000001
   14.17583370  154.76899719    1.61000001    0.46000001
   14.17916679  161.66299438    1.61000001    0.46000001
   14.18166733  149.15400696    1.61000001    0.46000001
   14.18277836  141.97999573    1.61000001    0.46000001
   14.18611145  155.42100525    1.61000001    0.46000001
   14.18916702  136.64199829    1.61000001    0.46000001
   14.19250011  127.10500336    1.61000001    0.46000001
   14.19583321  131.96600342    1.61000001    0.46000001
   14.19888878  114.32399750    1.61000001    0.46000001
   14.20222187  115.08000183    1.61000001    0.46000001
   14.20527744  128.58500671    1.61000001    0.46000001
   14.21138859  128.58500671    1.61000001    0.46000001
   14.21555519  112.20700073    1.61000001    0.46000001
   14.21861076  126.03500366    1.61000001    0.46000001
   14.22194386  108.84799957    1.61000001    0.46000001
   14.22527695  112.50000000    1.61000001    0.46000001
   14.22833252  125.91200256    1.61000001    0.46000001
   14.23166656  121.76699829    1.61000001    0.46000001
   14.23500061  124.66699982    1.61000001    0.46000001
   14.23805618  120.44599915    1.61000001    0.46000001
   14.24138927  121.52799988    1.61000001    0.46000001
   14.24444485  122.33200073    1.61000001    0.46000001
   14.24777794  123.33300018    1.61000001    0.46000001
   14.24833393  132.18600464    1.61000001    0.46000001
   14.25416660  132.18600464    1.61000001    0.46000001
   14.25833321  121.99700165    1.61000001    0.46000001
   14.26166630  126.57099915    1.61000001    0.46000001
   14.26472187  121.89700317    1.61000001    0.46000001
   14.26805496  129.27699280    1.61000001    0.46000001
   14.27138901  125.75299835    1.61000001    0.46000001
   14.27444458  130.18800354    1.61000001    0.46000001
   14.27777767  119.33899689    1.61000001    0.46000001
   14.28083324  129.25999451    1.61000001    0.46000001
   14.28166676  142.23699951    1.61000001    0.46000001
   14.28444481  134.36199951    1.61000001    0.46000001
   14.28777790  139.52000427    1.61000001    0.46000001
   14.29083347  168.55900574    1.61000001    0.46000001
   14.29694462  168.55900574    1.61000001    0.46000001
   14.30111122  175.22500610    1.61000001    0.46000001
   14.30444431  164.64100647    1.61000001    0.46000001
   14.30777836  150.23899841    1.61000001    0.46000001
   14.31083393  146.78500366    1.61000001    0.46000001
   14.31416702  138.19900513    1.61000001    0.46000001
   14.31500053  131.88900757    1.61000001    0.46000001
   14.31777763  134.05099487    1.61000001    0.46000001
   14.32111073  138.62699890    1.61000001    0.46000001
   14.32416630  143.42300415    1.61000001    0.46000001
   14.32750034  153.62100220    1.61000001    0.46000001
   14.33083344  134.22999573    1.61000001    0.46000001
   14.33388901  128.84300232    1.61000001    0.46000001
   14.34000015  128.84300232    1.61000001    0.46000001
   14.34416676  130.52400208    1.61000001    0.46000001
   14.34722233  127.26100159    1.61000001    0.46000001
   14.34833336  124.27899933    1.61000001    0.46000001
   14.35083389  137.25599670    1.61000001    0.46000001
   14.35416698  131.79899597    1.61000001    0.46000001
   14.35722256  134.22200012    1.61000001    0.46000001
   14.36055565  134.88600159    1.61000001    0.46000001
   14.36388969  125.43199921    1.61000001    0.46000001
   14.36694431  125.85700226    1.61000001    0.46000001
   14.37027836  117.09200287    1.61000001    0.46000001
   14.37333393  124.81800079    1.61000001    0.46000001
   14.37694454  117.24099731    1.61000001    0.46000001
   14.38277817  117.24099731    1.61000001    0.46000001
   14.38694477  118.84400177    1.61000001    0.46000001
   14.39027786  121.15899658    1.61000001    0.46000001
   14.39333344  121.56199646    1.61000001    0.46000001
   14.39666653  123.37999725    1.61000001    0.46000001
   14.39972210  120.22399902    1.61000001    0.46000001
   14.40305519  120.97599792    1.61000001    0.46000001
   14.40638828  114.94200134    1.61000001    0.46000001
   14.40944386  114.57099915    1.61000001    0.46000001
   14.41277695  112.97399902    1.61000001    0.46000001
   14.41499996  118.39199829    1.61000001    0.46000001
   14.41638851  111.67299652    1.61000001    0.46000001
   14.41972256  117.31700134    1.61000001    0.46000001
   14.42555618  117.31700134    1.61000001    0.46000001
   14.42972279  112.52100372    1.61000001    0.46000001
   14.43305588  111.95800018    1.61000001    0.46000001
   14.43611145  126.99700165    1.61000001    0.46000001
   14.43944454  129.57899475    1.61000001    0.46000001
   14.44277763  128.68800354    1.61000001    0.46000001
   14.44583321  125.64299774    1.61000001    0.46000001
   14.44833374  117.10099792    1.61000001    0.46000001
   14.44944477  110.89800262    1.61000001    0.46000001
   14.45277786  111.08799744    1.61000001    0.46000001
   14.45583344  112.99800110    1.61000001    0.46000001
   14.45916653  113.94400024    1.61000001    0.46000001
   14.46249962  110.36799622    1.61000001    0.46000001
   14.46833324  110.36799622    1.61000001    0.46000001
   14.47249985  111.85700226    1.61000001    0.46000001
   14.47583294  109.11499786    1.61000001    0.46000001
   14.47916603  109.40399933    1.61000001    0.46000001
   14.48166656  109.98000336    1.61000001    0.46000001
   14.48277760  113.80500031    1.61000001    0.46000001
   14.48611164  108.06900024    1.61000001    0.46000001
   14.48916721  116.97599792    1.61000001    0.46000001
   14.49250031  113.04100037    1.61000001    0.46000001
   14.49583340  116.75700378    1.61000001    0.46000001
   14.49888897  121.31900024    1.61000001    0.46000001
   14.50222206  109.95400238    1.61000001    0.46000001
   14.50555515  122.36599731    1.61000001    0.46000001
   14.51138878  122.36599731    1.61000001    0.46000001
   14.51555538  111.87799835    1.61000001    0.46000001
   14.51861095  142.92500305    1.61000001    0.46000001
   14.52194405  127.25099945    1.61000001    0.46000001
   14.52527714  137.03900146    1.61000001    0.46000001
   14.52833271  135.50399780    1.61000001    0.46000001
   14.53166676  137.42599487    1.61000001    0.46000001
   14.53472233  149.95700073    1.61000001    0.46000001
   14.53805637  142.19599915    1.61000001    0.46000001
   14.54138947  141.44700623    1.61000001    0.46000001
   14.54444504  138.66299438    1.61000001    0.46000001
   14.54777813  139.23800659    1.61000001    0.46000001
   14.54861164  141.47500610    1.61000001    0.46000001
   14.56916618  141.47500610    1.61000001    0.46000001
   14.57333374  152.94000244    1.61000001    0.46000001
   14.57666683  164.77600098    1.61000001    0.46000001
   14.57999992  157.07800293    1.61000001    0.46000001
   14.58194447  161.35400391    1.61000001    0.46000001
   14.58333302  143.28599548    1.61000001    0.46000001
   14.58666611  128.89500427    1.61000001    0.46000001
   14.59000015  135.52400208    1.61000001    0.46000001
   14.59305477  157.20799255    1.61000001    0.46000001
   14.59638882  141.90899658    1.61000001    0.46000001
   14.59972191  167.25700378    1.61000001    0.46000001
   14.60277843  142.79200745    1.61000001    0.46000001
   14.60611153  133.65499878    1.61000001    0.46000001
   14.61194515  133.65499878    1.61000001    0.46000001
   14.61611176  175.00500488    1.61000001    0.46000001
   14.61944485  154.63800049    1.61000001    0.46000001
   14.62250042  167.58399963    1.61000001    0.46000001
   14.62583351  158.80999756    1.61000001    0.46000001
   14.62916660  209.34599304    1.61000001    0.46000001
   14.63222218  181.61199951    1.61000001    0.46000001
   14.63555527  185.34700012    1.61000001    0.46000001
   14.63888836  160.25100708    1.61000001    0.46000001
   14.64194393  142.89999390    1.61000001    0.46000001
   14.64527798  161.82200623    1.61000001    0.46000001
   14.64833355  166.22700500    1.61000001    0.46000001
   14.64888859  173.53799438    1.61000001    0.46000001
   14.65499973  173.53799438    1.61000001    0.46000001
   14.65888882  124.69999695    1.61000001    0.46000001
   14.66222191  125.98899841    1.61000001    0.46000001
   14.66555500  129.28500366    1.61000001    0.46000001
   14.66861153  137.12300110    1.61000001    0.46000001
   14.67194462  135.12500000    1.61000001    0.46000001
   14.67527771  134.77200317    1.61000001    0.46000001
   14.67833328  173.56799316    1.61000001    0.46000001
   14.68166733  158.84700012    1.61000001    0.46000001
   14.68222237  161.18200684    1.61000001    0.46000001
   14.68527794  172.69799805    1.61000001    0.46000001
   14.68861103  187.18299866    1.61000001    0.46000001
   14.69166660  196.25500488    1.61000001    0.46000001
   14.69777775  196.25500488    1.61000001    0.46000001
   14.70194435  132.65699768    1.61000001    0.46000001
   14.70499992  142.61900330    1.61000001    0.46000001
   14.70833302  145.34599304    1.61000001    0.46000001
   14.71166611  169.62300110    1.61000001    0.46000001
   14.71472168  173.90299988    1.61000001    0.46000001
   14.71555519  158.90400696    1.61000001    0.46000001
   14.71833324  132.57899475    1.61000001    0.46000001
   14.72166634  157.41400146    1.61000001    0.46000001
   14.72472191  147.56799316    1.61000001    0.46000001
   14.72805500  155.40899658    1.61000001    0.46000001
   14.73138809  142.85099792    1.61000001    0.46000001
   14.73444462  149.79600525    1.61000001    0.46000001
   14.74055576  149.79600525    1.61000001    0.46000001
   14.74472237  152.94999695    1.61000001    0.46000001
   14.74805546  149.41700745    1.61000001    0.46000001
   14.74888897  148.87899780    1.61000001    0.46000001
   14.75166702  154.38999939    1.61000001    0.46000001
   14.75500011  144.78999329    1.61000001    0.46000001
   14.75805569  177.10699463    1.61000001    0.46000001
   14.76138878  164.51100159    1.61000001    0.46000001
   14.76472187  194.48899841    1.61000001    0.46000001
   14.76777744  195.49400330    1.61000001    0.46000001
   14.77111053  187.87600708    1.61000001    0.46000001
   14.77416611  172.67599487    1.61000001    0.46000001
   14.77750015  182.37300110    1.61000001    0.46000001
   14.78333378  182.37300110    1.61000001    0.46000001
   14.78750038  157.03700256    1.61000001    0.46000001
   14.79083347  155.15100098    1.61000001    0.46000001
   14.79388905  180.84800720    1.61000001    0.46000001
   14.79722309  184.68299866    1.61000001    0.46000001
   14.80055618  126.58599854    1.61000001    0.46000001
   14.80361176  154.39399719    1.61000001    0.46000001
   14.80694485  144.63099670    1.61000001    0.46000001
   14.81027794  129.81799316    1.61000001    0.46000001
   14.81333351  152.07200623    1.61000001    0.46000001
   14.81555557  179.29200745    1.61000001    0.46000001
   14.81694412  152.67799377    1.61000001    0.46000001
   14.82027817  166.20500183    1.61000001    0.46000001
   14.82638836  166.20500183    1.61000001    0.46000001
   14.83027744  222.15100098    1.61000001    0.46000001
   14.83361053  166.14999390    1.61000001    0.46000001
   14.83694458  155.96699524    1.61000001    0.46000001
   14.84000015  170.58099365    1.61000001    0.46000001
   14.84333324  156.39199829    1.61000001    0.46000001
   14.84666634  152.36700439    1.61000001    0.46000001
   14.84888840  147.47900391    1.61000001    0.46000001
   14.85027790  180.44999695    1.61000001    0.46000001
   14.85361195  151.47300720    1.61000001    0.46000001
   14.85666752  161.56399536    1.61000001    0.46000001
   14.86000061  161.54600525    1.61000001    0.46000001
   14.86333370  175.91299438    1.61000001    0.46000001
   14.86916637  175.91299438    1.61000001    0.46000001
   14.87333393  146.88299561    1.61000001    0.46000001
   14.87638855  148.95399475    1.61000001    0.46000001
   14.87972260  138.17700195    1.61000001    0.46000001
   14.88222218  149.24200439    1.61000001    0.46000001
   14.88333321  132.77600098    1.61000001    0.46000001
   14.88666630  129.86900330    1.61000001    0.46000001
   14.88972187  136.56500244    1.61000001    0.46000001
   14.89305496  146.12399292    1.61000001    0.46000001
   14.89611053  136.13400269    1.61000001    0.46000001
   14.89944458  125.21900177    1.61000001    0.46000001
   14.90277767  134.99600220    1.61000001    0.46000001
   14.90611076  133.62600708    1.61000001    0.46000001
   14.91194439  133.62600708    1.61000001    0.46000001
   14.91611099  145.02299500    1.61000001    0.46000001
   14.91916656  133.66499329    1.61000001    0.46000001
   14.92250061  131.83799744    1.61000001    0.46000001
   14.92583370  128.79600525    1.61000001    0.46000001
   14.92888927  155.08599854    1.61000001    0.46000001
   14.93222237  128.70500183    1.61000001    0.46000001
   14.93555546  138.57800293    1.61000001    0.46000001
   14.93861103  142.37800598    1.61000001    0.46000001
   14.94194412  134.83500671    1.61000001    0.46000001
   14.94527817  137.21200562    1.61000001    0.46000001
   14.94833374  140.67100525    1.61000001    0.46000001
   14.94888878  128.59599304    1.61000001    0.46000001
   14.95472240  128.59599304    1.61000001    0.46000001
   14.95888901  127.59400177    1.61000001    0.46000001
   14.96222210  124.13500214    1.61000001    0.46000001
   14.96527767  119.65499878    1.61000001    0.46000001
   14.96861076  109.71600342    1.61000001    0.46000001
   14.97194386  120.04000092    1.61000001    0.46000001
   14.97499943  131.66799927    1.61000001    0.46000001
   14.97833252  131.89199829    1.61000001    0.46000001
   14.98166656  135.30099487    1.61000001    0.46000001
   14.98222160  141.02299500    1.61000001    0.46000001
   14.98500061  127.59600067    1.61000001    0.46000001
   14.98833370  122.40399933    1.61000001    0.46000001
   14.99166679  137.36500549    1.61000001    0.46000001
   14.99777794  137.36500549    1.61000001    0.46000001
   15.00166702  142.38299561    1.61000001    0.46000001
   15.00500011  144.52999878    1.61000001    0.46000001
   15.00833321  156.58200073    1.61000001    0.46000001
   15.01138878  152.15600586    1.61000001    0.46000001
   15.01472187  158.47399902    1.61000001    0.46000001
   15.01583290  150.77200317    1.61000001    0.46000001
   15.01833344  180.87100220    1.61000001    0.46000001
   15.02166653  166.40899658    1.61000001    0.46000001
   15.02472210  151.06300354    1.61000001    0.46000001
   15.02805519  187.44299316    1.61000001    0.46000001
   15.03138828  183.19200134    1.61000001    0.46000001
   15.03444481  173.69999695    1.61000001    0.46000001
   15.04055595  173.69999695    1.61000001    0.46000001
   15.04472256  134.06700134    1.61000001    0.46000001
   15.04777813  133.98699951    1.61000001    0.46000001
   15.04916668  132.99499512    1.61000001    0.46000001
   15.05138874  127.90499878    1.61000001    0.46000001
   15.05472279  127.21399689    1.61000001    0.46000001
   15.05777836  148.44599915    1.61000001    0.46000001
   15.06111145  160.56599426    1.61000001    0.46000001
   15.06444454  167.97999573    1.61000001    0.46000001
   15.06777763  165.15199280    1.61000001    0.46000001
   15.07083321  209.75100708    1.61000001    0.46000001
   15.07416630   -1.00000000    1.61000001    0.46000001
   15.07722187  361.76800537    1.61000001    0.46000001
   15.07944393  209.75100708    1.61000001    0.46000001
   15.07944393   -1.00000000    1.61000001    0.46000001
   15.07944393  361.76800537    1.61000001    0.46000001
   15.07972240  127.90499878    1.61000001    0.46000001
   15.07972240  127.21399689    1.61000001    0.46000001
   15.07999992  148.44599915    1.61000001    0.46000001
   15.07999992  160.56599426    1.61000001    0.46000001
   15.07999992  167.97999573    1.61000001    0.46000001
   15.08027744  165.15199280    1.61000001    0.46000001
   15.08861065   -1.00000000    1.61000001    0.46000001
   15.09166622   -1.00000000    1.61000001    0.46000001
   15.09499931   -1.00000000    1.61000001    0.46000001
   15.09805489   -1.00000000    1.61000001    0.46000001
   15.10138893   -1.00000000    1.61000001    0.46000001
   15.10472298   -1.00000000    1.61000001    0.46000001
   15.10777855   -1.00000000    1.61000001    0.46000001
   15.11111164   -1.00000000    1.61000001    0.46000001
   15.11472225   -1.00000000    1.61000001    0.46000001
   15.11777782   -1.00000000    1.61000001    0.46000001
   15.12111092   -1.00000000    1.61000001    0.46000001
   15.13111115   -1.00000000    1.61000001    0.46000001
   15.13444424   -1.00000000    1.61000001    0.46000001
   15.13777733   -1.00000000    1.61000001    0.46000001
   15.14083290   -1.00000000    1.61000001    0.46000001
   15.14416695  188.33700562    1.61000001    0.46000001
   15.14638901  232.40400696    1.61000001    0.46000001
   15.14777756  251.53900146    1.61000001    0.46000001
   15.15111065  140.25100708    1.61000001    0.46000001
   15.15416622  171.60499573    1.61000001    0.46000001
   15.15749931   -1.00000000    1.61000001    0.46000001
   15.16055489   -1.00000000    1.61000001    0.46000001
   15.16388893   -1.00000000    1.61000001    0.46000001
   15.17000008   -1.00000000    1.61000001    0.46000001
   15.17416668   -1.00000000    1.61000001    0.46000001
   15.17750072   -1.00000000    1.61000001    0.46000001
   15.17972279   38.80619812    1.61000001    0.46000001
   15.18111134   -1.00000000    1.61000001    0.46000001
   15.18444443   -1.00000000    1.61000001    0.46000001
   15.18750000   -1.00000000    1.61000001    0.46000001
   15.19083309   -1.00000000    1.61000001    0.46000001
   15.19388866   -1.00000000    1.61000001    0.46000001
   15.19722271   -1.00000000    1.61000001    0.46000001
   15.20055580   -1.00000000    1.61000001    0.46000001
   15.41777802  118.24099731    1.61000001    0.46000001
   15.42111111  126.41000366    1.61000001    0.46000001
   15.42444515  126.19400024    1.61000001    0.46000001
   15.42750072  123.98300171    1.61000001    0.46000001
   15.43083382  127.11900330    1.61000001    0.46000001
   15.43388939  132.39300537    1.61000001    0.46000001
   15.43805599  132.39300537    1.61000001    0.46000001
   15.44222260  118.42800140    1.61000001    0.46000001
   15.44555569  121.90399933    1.61000001    0.46000001
   15.44888878  119.05999756    1.61000001    0.46000001
   15.45111084  111.28500366    1.61000001    0.46000001
   15.45249939  120.51200104    1.61000001    0.46000001
   15.45583344  114.95099640    1.61000001    0.46000001
   15.45888901  117.13800049    1.61000001    0.46000001
   15.46222210  117.13200378    1.61000001    0.46000001
   15.46555519  128.15899658    1.61000001    0.46000001
   15.46861076  137.14399719    1.61000001    0.46000001
   15.47194386  233.69999695    1.61000001    0.46000001
   15.47499943   46.56650162    1.61000001    0.46000001
   15.48500061   -1.00000000    1.61000001    0.46000001
   15.48833370   -1.00000000    1.61000001    0.46000001
   15.49138927   -1.00000000    1.61000001    0.46000001
   15.49472237   -1.00000000    1.61000001    0.46000001
   15.49805546   -1.00000000    1.61000001    0.46000001
   15.50111103   -1.00000000    1.61000001    0.46000001
   15.50444412   -1.00000000    1.61000001    0.46000001
   15.50777817   -1.00000000    1.61000001    0.46000001
   15.51083374   -1.00000000    1.61000001    0.46000001
   15.51416683   -1.00000000    1.61000001    0.46000001
   15.51749992   -1.00000000    1.61000001    0.46000001
   15.52777767   -1.00000000    1.61000001    0.46000001
   15.53111076   -1.00000000    1.61000001    0.46000001
   15.53444481   -1.00000000    1.61000001    0.46000001
   15.53750038   -1.00000000    1.61000001    0.46000001
   15.54083347   -1.00000000    1.61000001    0.46000001
   15.54416752   -1.00000000    1.61000001    0.46000001
   15.54722309   -1.00000000    1.61000001    0.46000001
   15.55055618   -1.00000000    1.61000001    0.46000001
   15.55138874   -1.00000000   -1.00000000   -1.00000000
   15.55416679  212.39300537    1.61000001    0.46000001
   15.55749989   25.56060028    1.61000001    0.46000001
   15.56055546  107.93199921    1.61000001    0.46000001
   15.56666660  107.93199921    1.61000001    0.46000001
   15.57083321   -1.00000000    1.61000001    0.46000001
   15.57416630  343.86401367    1.61000001    0.46000001
   15.57611084  377.65798950    1.61000001    0.46000001
   15.57750034   51.35110092    1.61000001    0.46000001
   15.57750034   25.56060028    1.61000001    0.46000001
   15.57750034  107.93199921    1.61000001    0.46000001
   15.57777786   -1.00000000    1.61000001    0.46000001
   15.57777786  343.86401367    1.61000001    0.46000001
   15.57777786   -1.00000000    1.61000001    0.46000001
   15.57805538   -1.00000000    1.61000001    0.46000001
   15.57805538   -1.00000000    1.61000001    0.46000001
   15.57833290   -1.00000000    1.61000001    0.46000001
   15.57833290  212.39300537    1.61000001    0.46000001
   15.57944393   76.00599670    1.61000001    0.46000001
   15.58277798   84.84609985    1.61000001    0.46000001
   15.58583260   -1.00000000    1.61000001    0.46000001
   15.58916664  126.48699951    1.61000001    0.46000001
   15.59222221   96.48280334    1.61000001    0.46000001
   15.59833336   96.48280334    1.61000001    0.46000001
   15.60249996  127.07099915    1.61000001    0.46000001
   15.60555553  118.82800293    1.61000001    0.46000001
   15.60888958  111.75399780    1.61000001    0.46000001
   15.61138916  101.26399994    1.61000001    0.46000001
   15.61250019  128.92599487    1.61000001    0.46000001
   15.61583328  118.45099640    1.61000001    0.46000001
   15.61888885  112.96800232    1.61000001    0.46000001
   15.62222195  103.83200073    1.61000001    0.46000001
   15.62555599  115.86100006    1.61000001    0.46000001
   15.62861156  122.60099792    1.61000001    0.46000001
   15.63194466  112.54599762    1.61000001    0.46000001
   15.63527775  112.11499786    1.61000001    0.46000001
   15.64111137  112.11499786    1.61000001    0.46000001
   15.64527798  111.82800293    1.61000001    0.46000001
