    HOUR (UT)   FLARE FACTOR    SKY TESTER    SUN TESTER
   11.72333336   -1.00000000   -1.00000000   -1.00000000
   11.75722218   93.67790222    4.90999985    2.34999990
   11.76111126   88.06870270    4.90999985    2.34999990
   11.76416683   92.99659729    4.90999985    2.34999990
   11.76749992   90.96099854    4.90999985    2.34999990
   11.77083302   95.84750366    4.90999985    2.34999990
   11.77388859   87.38390350    4.90999985    2.34999990
   11.77722168   88.10489655    4.90999985    2.34999990
   11.78055573   93.53919983    4.90999985    2.32999992
   11.78583336   93.53919983    4.90999985    2.34999990
   11.79000092   97.58699799    4.90999985    2.34999990
   11.79416752   93.88249969    4.90999985    2.36999989
   11.79805565   87.45690155    4.90999985    2.36999989
   11.80111122   95.41500092    4.90999985    2.34999990
   11.80444431   91.74669647    4.90999985    2.34999990
   11.80722237  103.70700073    4.90999985    2.34999990
   11.80777836   88.48049927    4.90999985    2.34999990
   11.81111145   96.81250000    4.90999985    2.34999990
   11.81444454   95.44409943    4.90999985    2.36999989
   11.81750011   86.77179718    4.90999985    2.36999989
   11.82083321   92.05329895    4.90999985    2.36999989
   11.82416630  100.87000275    4.90999985    2.36999989
   11.82722187   90.38480377    4.90999985    2.36999989
   11.83055592   98.39820099    4.90999985    2.36999989
   11.83694458   98.39820099    4.90999985    2.39000010
   11.84111118   94.64040375    4.90999985    2.39000010
   11.84444427   90.76529694    4.90999985    2.39000010
   11.84777737   93.56960297    4.90999985    2.36999989
   11.85083389   94.40979767    4.90999985    2.39000010
   11.85416698   89.47689819    4.90999985    2.36999989
   11.85722256   86.24299622    4.90999985    2.36999989
   11.85750008   89.88800049    4.90999985    2.36999989
   11.86083412   86.82779694    4.90999985    2.39000010
   11.86416721   94.72260284    4.90999985    2.39000010
   11.86750031   91.30490112    4.90999985    2.39000010
   11.87250042  101.52300262    4.90999985    2.39000010
   11.87555599   94.86540222    4.90999985    2.39000010
   11.87888908  102.36599731    4.90999985    2.39000010
   11.88222218   90.69450378    4.90999985    2.36999989
   11.88805580   90.69450378    4.90999985    2.39000010
   11.89222240   87.67440033    4.90999985    2.40000010
   11.89555550   84.80449677    4.90999985    2.40000010
   11.89861107   90.16089630    4.90999985    2.40000010
   11.90194416   83.03610229    4.90999985    2.40000010
   11.90527725   81.85109711    4.90999985    2.42000008
   11.90722179   83.94619751    4.90999985    2.40000010
   11.90888882   81.57679749    4.90999985    2.40000010
   11.91194439   89.77390289    4.90999985    2.42000008
   11.91527748   94.96389771    4.90999985    2.42000008
   11.91861153   89.73049927    4.90999985    2.42000008
   11.92166710   85.27950287    4.90999985    2.42000008
   11.92500019   87.45130157    4.90999985    2.44000006
   11.92833328   97.66449738    4.90999985    2.42000008
   11.93138885  102.89499664    4.90999985    2.44000006
   11.93472195   88.58979797    4.90999985    2.44000006
   11.93944454   88.58979797    4.90999985    2.44000006
   11.94333363   87.57089996    4.90999985    2.42000008
   11.94666672   87.67209625    4.90999985    2.44000006
   11.94999981   82.42440033    4.90999985    2.42000008
   11.95305538   92.72949982    4.90999985    2.44000006
   11.95638847   81.27330017    4.90999985    2.44000006
   11.95722198   88.36879730    4.90999985    2.42000008
   11.96000004   99.59190369    4.90999985    2.44000006
   11.96305561   85.28040314    4.90999985    2.44000006
   11.96638870   85.55249786    4.90999985    2.42000008
   11.96944427   98.53829956    4.90999985    2.44000006
   11.97277737   85.94190216    4.90999985    2.44000006
   11.97611046   86.32420349    4.90999985    2.46000004
   11.97916603   93.28530121    4.90999985    2.46000004
   11.98249912   90.20649719    4.90999985    2.46000004
   11.98583317   83.44039917    4.90999985    2.46000004
   11.99055576   83.44039917    4.90999985    2.46000004
   11.99472237   90.00289917    4.90999985    2.44000006
   11.99777794   87.17019653    4.90999985    2.44000006
   12.00111103   90.39959717    4.90999985    2.46000004
   12.00444412   91.98049927    4.90999985    2.46000004
   12.00722218   92.83239746    4.90999985    2.48000002
   12.00833321   91.96070099    4.90999985    2.46000004
   12.01138878   88.50229645    4.90999985    2.46000004
   12.01472187   85.71360016    4.90999985    2.46000004
   12.01805496   90.85829926    4.90999985    2.46000004
   12.02111053   92.60230255    4.90999985    2.46000004
   12.02444458   87.70780182    4.90999985    2.46000004
   12.02777767   85.43180084    4.90999985    2.48000002
   12.03166676   86.22119904    4.90999985    2.48000002
   12.03527832   81.77890015    4.90999985    2.48000002
   12.04166698   81.77890015    4.90999985    2.48000002
   12.04666710   92.62169647    4.90999985    2.48000002
   12.05055618   83.55210114    4.90999985    2.48000002
   12.05388927  105.63700104    4.90999985    2.48000002
   12.05777836   95.15730286    4.90999985    2.48000002
   12.05805588   91.68869781    4.90999985    2.48000002
   12.06138897   85.53130341    4.90999985    2.50000000
   12.06583309   81.81310272    4.90999985    2.48000002
   12.06999969   83.20639801    4.90999985    2.48000002
   12.07416630   86.23590088    4.90999985    2.50000000
   12.07916641   91.59159851    4.90999985    2.50000000
   12.08249950   94.76349640    4.90999985    2.48000002
   12.08666611   91.38639832    4.90999985    2.48000002
   12.09305477   91.38639832    4.90999985    2.50000000
   12.09722233   81.69689941    4.90999985    2.50000000
   12.10027790   83.96050262    4.90999985    2.50000000
   12.10361195   82.76629639    4.90999985    2.51999998
   12.10694504   95.89880371    4.90999985    2.50000000
   12.10750008   84.98950195    4.90999985    2.50000000
   12.11055565   86.69120026    4.90999985    2.50000000
   12.11388969   85.62899780    4.90999985    2.50000000
   12.11722279   83.39430237    4.90999985    2.51999998
   12.12027836   83.48090363    4.90999985    2.51999998
   12.12361145   82.85169983    4.90999985    2.50000000
   12.12694454   80.33910370    4.90999985    2.50000000
   12.13027763   87.19139862    4.90999985    2.51999998
   12.13361073   83.78489685    4.90999985    2.51999998
   12.13694477   82.36540222    4.90999985    2.50000000
   12.14027786   83.71759796    4.90999985    2.51999998
   12.14444447   83.71759796    4.90999985    2.51999998
   12.14861107   86.10759735    4.90999985    2.51999998
   12.15194416   81.56580353    4.90999985    2.51999998
   12.15527725   85.72200012    4.90999985    2.50000000
   12.15749931   79.78279877    4.90999985    2.51999998
   12.15888882   81.91510010    4.90999985    2.51999998
   12.16222191   82.56690216    4.90999985    2.51999998
   12.16527748   86.25669861    4.90999985    2.53999996
   12.16861153   81.34439850    4.90999985    2.51999998
   12.17194462   82.31680298    4.90999985    2.51999998
   12.17666721   84.85859680    4.90999985    2.53999996
   12.18083382   86.73380280    4.90999985    2.55999994
   12.18472195   99.10970306    4.90999985    2.53999996
   12.18805599   93.61039734    4.90999985    2.53999996
   12.19138908   84.86049652    4.90999985    2.53999996
   12.19555569   84.86049652    4.90999985    2.53999996
   12.19999981   82.80879974    4.90999985    2.53999996
   12.20333290   79.19069672    4.90999985    2.53999996
   12.20666695   84.10369873    4.90999985    2.53999996
   12.20749950   85.83280182    4.90999985    2.53999996
   12.21027756   91.22119904    4.90999985    2.53999996
   12.21361065   87.18530273    4.90999985    2.53999996
   12.21694374   83.36489868    4.90999985    2.51999998
   12.22027779   83.25769806    4.90999985    2.53999996
   12.22388840   82.33460236    4.90999985    2.53999996
   12.22722149   88.42980194    4.90999985    2.53999996
   12.23055553   88.58129883    4.90999985    2.53999996
   12.23388958   89.29319763    4.90999985    2.53999996
   12.23722267   91.79419708    4.90999985    2.53999996
   12.24055576   85.39279938    4.90999985    2.53999996
   12.24694443   85.39279938    4.90999985    2.53999996
   12.25111103   82.71130371    4.90999985    2.55999994
   12.25444412   86.53099823    4.90999985    2.53999996
   12.25777817   81.23909760    4.90999985    2.53999996
   12.25833321   88.69470215    4.90999985    2.53999996
   12.26166630   97.61660004    4.90999985    2.55999994
   12.26500034   94.53489685    4.90999985    2.55999994
   12.26833344   84.82170105    4.90999985    2.55999994
   12.27166653   91.42620087    4.90999985    2.55999994
   12.27499962   95.89399719    4.90999985    2.53999996
   12.27833271   88.45189667    4.90999985    2.55999994
   12.28194427   98.18129730    4.90999985    2.55999994
   12.28527832   87.29000092    4.90999985    2.57999992
   12.28861141   87.09230042    4.90999985    2.55999994
   12.29194450   85.99150085    4.90999985    2.55999994
   12.29805565   85.99150085    4.90999985    2.55999994
   12.30222225   93.29090118    4.90999985    2.55999994
   12.30555534   88.33869934    4.90999985    2.57999992
   12.30777836   79.73989868    4.90999985    2.57999992
   12.30916691   95.04759979    4.90999985    2.57999992
   12.31250000   96.69100189    4.90999985    2.55999994
   12.31611156   84.86599731    4.90999985    2.57999992
   12.31944466   90.05549622    4.90999985    2.57999992
   12.32305527   87.31079865    4.90999985    2.57999992
   12.32638836   85.24859619    4.90999985    2.57999992
   12.32944393   87.00990295    4.90999985    2.57999992
   12.33277798   87.94840240    4.90999985    2.57999992
   12.33611107   86.05899811    4.90999985    2.57999992
   12.33916664   95.96810150    4.90999985    2.57999992
   12.34249973   83.83409882    4.90999985    2.59999990
   12.34916592   83.83409882    4.90999985    2.57999992
   12.35333347   81.82240295    4.90999985    2.57999992
   12.35638905   82.69480133    4.90999985    2.57999992
   12.35777855   85.90660095    4.90999985    2.57999992
   12.36000061   87.08709717    4.90999985    2.57999992
   12.36333370   89.38200378    4.90999985    2.57999992
   12.36666679   87.98040009    4.90999985    2.57999992
   12.36972237   80.05860138    4.90999985    2.57999992
   12.37305546   82.99990082    4.90999985    2.57999992
   12.37638855   81.32219696    4.90999985    2.59999990
   12.37972260   84.56349945    4.90999985    2.57999992
   12.38277817   86.76239777    4.90999985    2.57999992
   12.38638878   96.02680206    4.90999985    2.59999990
   12.38972187   90.31539917    4.90999985    2.59999990
   12.39305496   88.43170166    4.90999985    2.59999990
   12.39638901   79.01080322    4.90999985    2.59999990
   12.40055561   79.01080322    4.90999985    2.61999989
   12.40472221   79.75710297    4.90999985    2.59999990
   12.40777779   89.82550049    4.90999985    2.61999989
   12.40833282   88.22309875    4.90999985    2.61999989
   12.41166592   88.10320282    4.90999985    2.61999989
   12.41499996   94.14869690    4.90999985    2.59999990
   12.41833401   79.94789886    4.90999985    2.61999989
   12.42138958   78.13700104    4.90999985    2.61999989
   12.42472267   83.33910370    4.90999985    2.64000010
   12.42805576   85.15319824    4.90999985    2.61999989
   12.43138885   88.86070251    4.90999985    2.55999994
   12.43472195   84.01029968    4.90999985    2.59999990
   12.43833351   84.51840210    4.90999985    2.55999994
   12.44138908   82.06880188    4.90999985    2.61999989
   12.44499969   78.11840057    4.90999985    2.61999989
   12.45166683   78.11840057    4.90999985    2.64000010
   12.45583344   89.33139801    4.90999985    2.61999989
   12.45777798   89.62999725    4.90999985    2.59999990
   12.45972157   98.92160034    4.90999985    2.39000010
   12.46305561   91.27490234    4.90999985    2.64000010
   12.46611118   92.34030151    4.90999985    2.59999990
   12.46944427   96.19909668    4.90999985    2.61999989
   12.47277737   86.69159698    4.90999985    2.61999989
   12.47611046   88.67939758    4.90999985    2.61999989
   12.47944355   84.48419952    4.90999985    2.61999989
   12.48277760   89.35169983    4.90999985    2.61999989
   12.48583317   89.10949707    4.90999985    2.61999989
   12.48916721   95.56310272    4.90999985    2.61999989
   12.49250031  101.23400116    4.90999985    2.64000010
   12.49583340   77.98509979    4.90999985    2.64000010
   12.49916649   88.48249817    4.90999985    2.64000010
   12.50333309   88.48249817    4.90999985    2.64000010
   12.50749969   83.33170319    4.90999985    2.64000010
   12.50833321   91.93849945    4.90999985    2.64000010
   12.51166630   89.91899872    4.90999985    2.61999989
   12.51500034   79.20179749    4.90999985    2.64000010
   12.51805496   77.77899933    4.90999985    2.61999989
   12.52138901   83.40670013    4.90999985    2.64000010
   12.52472210   81.50080109    4.90999985    2.61999989
   12.52805519   79.53820038    4.90999985    2.64000010
   12.53111076   79.24880219    4.90999985    2.64000010
   12.53444481   97.91030121    4.90999985    2.64000010
   12.53777790   91.17900085    4.90999985    2.61999989
   12.54111195   96.69149780    4.90999985    2.61999989
   12.54444504   80.46730042    4.90999985    2.64000010
   12.54750061   84.70030212    4.90999985    2.64000010
   12.55444431   84.70030212    4.90999985    2.61999989
   12.55861092   90.66020203    4.90999985    2.64000010
   12.56194496   88.64569855    4.90999985    2.64000010
   12.56527805   88.08249664    4.90999985    2.64000010
   12.56861115   86.58959961    4.90999985    2.64000010
   12.57194424   95.28220367    4.90999985    2.64000010
   12.57499981   89.35990143    4.90999985    2.64000010
   12.57833290   87.38349915    4.90999985    2.66000009
   12.58222198   88.20539856    4.90999985    2.64000010
   12.58555508   91.01029968    4.90999985    2.64000010
   12.58888817   80.56690216    4.90999985    2.64000010
   12.59249973   89.95349884    4.90999985    2.64000010
   12.59611034   98.84130096    4.90999985    2.61999989
   12.59944439   92.40280151    4.90999985    2.61999989
   12.60805607   92.40280151    4.90999985    2.53999996
   12.61361122   87.36229706    4.90999985    2.61999989
   12.61833382   81.54930115    4.90999985    2.66000009
   12.62333393   91.66979980    4.90999985    2.64000010
   12.62750053   86.16480255    4.90999985    2.66000009
   12.63083363   83.62049866    4.90999985    2.66000009
   12.63444424   79.68900299    4.90999985    2.66000009
   12.63805580   81.51850128    4.90999985    2.66000009
   12.64166641   82.45069885    4.90999985    2.66000009
   12.64499950   85.87249756    4.90999985    2.64000010
   12.64805508   94.06649780    4.90999985    2.64000010
   12.65138817   88.37550354    4.90999985    2.66000009
   12.65694427   88.37550354    4.90999985    2.66000009
   12.66138840   89.36900330    4.90999985    2.64000010
   12.66444397   93.79119873    4.90999985    2.67000008
   12.66861153   90.27320099    4.90999985    2.66000009
   12.67361164   91.79850006    4.90999985    2.66000009
   12.67694473   92.18070221    4.90999985    2.66000009
   12.68027782   91.76249695    4.90999985    2.66000009
   12.68333340   80.39679718    4.90999985    2.66000009
   12.68666649   88.51550293    4.90999985    2.67000008
   12.69000053   99.90180206    4.90999985    2.66000009
   12.69333363   91.97319794    4.90999985    2.67000008
   12.69666672   91.67240143    4.90999985    2.66000009
   12.69999981   92.82080078    4.90999985    2.66000009
   12.70305538   90.38040161    4.90999985    2.67000008
   12.70944405   90.38040161    4.90999985    2.67000008
   12.71361065   90.77040100    4.90999985    2.67000008
   12.71694374   85.79470062    4.90999985    2.67000008
   12.72027779   95.44110107    4.90999985    2.67000008
   12.72333336   88.36070251    4.90999985    2.67000008
   12.72666645   89.04660034    4.90999985    2.67000008
   12.73027706   89.75839996    4.90999985    2.67000008
   12.73333359   95.33769989    4.90999985    2.69000006
   12.73666668   92.01679993    4.90999985    2.67000008
   12.74000072   94.06430054    4.90999985    2.69000006
   12.74333382   85.03379822    4.90999985    2.71000004
   12.74666691   91.59429932    4.90999985    2.69000006
   12.75000000   89.63829803    4.90999985    2.69000006
   12.75527763   89.54090118    4.90999985    2.66000009
   12.77638817   65.09140015    4.90999985    2.69000006
   12.77750015   80.95680237    4.90999985    2.69000006
   12.78138828   83.86750031    4.90999985    2.67000008
   12.78500080   80.33219910    4.90999985    2.69000006
   12.78861141   84.67279816    4.90999985    2.67000008
   12.79250050   85.13569641    4.90999985    2.69000006
   12.79638958   81.88919830    4.90999985    2.69000006
   12.80000019   82.83580017    4.90999985    2.69000006
   12.80333328   84.42690277    4.90999985    2.67000008
   12.80638885   78.20719910    4.90999985    2.67000008
   12.81250000   78.20719910    4.90999985    2.67000008
   12.81666660   92.63009644    4.90999985    2.69000006
   12.81999969   84.84590149    4.90999985    2.69000006
   12.82333374   87.51959991    4.90999985    2.69000006
   12.82611084   92.57879639    4.90999985    2.67000008
   12.82722187   91.77159882    4.90999985    2.59999990
   12.83083344   86.23229980    4.90999985    2.67000008
   12.83416653   82.50029755    4.90999985    2.69000006
   12.83749962   83.23400116    4.90999985    2.66000009
   12.84166622   88.50509644    4.90999985    2.64000010
   12.84722233   77.05599976    4.90999985    2.71000004
   12.85222244   90.99520111    4.90999985    2.71000004
   12.85666752   76.91380310    4.90999985    2.69000006
   12.86277771   79.57240295    4.90999985    2.69000006
   12.86750031   79.57240295    4.90999985    2.69000006
   12.87277794   77.64749908    4.90999985    2.71000004
   12.87694454   82.94100189    4.90999985    2.71000004
   12.88249969   85.20259857    4.90999985    2.71000004
   12.88722229   92.01309967    4.90999985    2.71000004
   12.89249992   84.19629669    4.90999985    2.71000004
   12.89722252   75.57409668    4.90999985    2.73000002
   12.90138817   90.05120087    4.90999985    2.71000004
   12.90499973   86.15440369    4.90999985    2.71000004
   12.90972137   83.05490112    4.90999985    2.71000004
   12.91361046   87.94619751    4.90999985    2.71000004
   12.91916656   87.94619751    4.90999985    2.73000002
   12.92361164   85.13279724    4.90999985    2.71000004
   12.92694473   80.06620026    4.90999985    2.71000004
   12.92777824   81.03119659    4.90999985    2.69000006
   12.93111134   77.34200287    4.90999985    2.71000004
   12.93444443   89.01419830    4.90999985    2.69000006
   12.93833351   83.33080292    4.90999985    2.71000004
   12.94166660   74.15740204    4.90999985    2.71000004
   12.94527817   88.46980286    4.90999985    2.71000004
   12.94888878   76.24179840    4.90999985    2.71000004
   12.95277786   80.15489960    4.90999985    2.73000002
   12.95611095   77.65889740    4.90999985    2.71000004
   12.95916653   90.17120361    4.90999985    2.71000004
   12.96249962   82.65080261    4.90999985    2.73000002
   12.96583271   83.09429932    4.90999985    2.71000004
   12.97055531   83.09429932    4.90999985    2.71000004
   12.97527695   90.93710327    4.90999985    2.73000002
   12.97777748   81.85189819    4.90999985    2.69000006
   12.97916603   82.01999664    4.90999985    2.71000004
   12.98249912   87.51850128    4.90999985    2.71000004
   12.98555565   78.60649872    4.90999985    2.71000004
   12.98888874   86.02700043    4.90999985    2.71000004
   12.99222279   84.87950134    4.90999985    2.69000006
   12.99555588   87.63210297    4.90999985    2.73000002
   12.99888897   81.82070160    4.90999985    2.73000002
   13.00222206   82.19480133    4.90999985    2.71000004
   13.00527763   87.56780243    4.90999985    2.73000002
   13.00861073   93.84510040    4.90999985    2.73000002
   13.01222229   90.71369934    4.90999985    2.71000004
   13.01527786   86.90959930    4.90999985    2.64000010
   13.02194405   86.90959930    4.90999985    2.59999990
   13.02611065   94.40689850    4.90999985    2.48000002
   13.02805519   89.02709961    4.90999985    2.57999992
   13.03027725   86.13999939    4.90999985    2.53999996
   13.03361130  107.14499664    4.90999985    2.50000000
   13.03694534  157.98199463    4.90999985    2.21000004
   13.04000092  164.86799622    4.90999985    2.25000000
   13.04333401  164.01899719    4.90999985    2.28999996
   13.04666710  112.59100342    4.90999985    2.26999998
   13.05000019  101.97699738    4.90999985    2.32999992
   13.05388927   83.64939880    4.90999985    2.03999996
   13.05749989   -1.00000000    4.90999985    2.19000006
   13.06138897   94.51309967    4.90999985    2.30999994
   13.06555557   84.65239716    4.90999985    2.59999990
   13.06972218   90.06680298    4.90999985    2.69000006
   13.07499981   90.06680298    4.90999985    2.71000004
   13.07999992   78.77970123    4.90999985    2.71000004
   13.08361053   82.87619781    4.90999985    2.69000006
   13.08749962   80.37879944    4.90999985    2.69000006
   13.09111118   81.16739655    4.90999985    2.71000004
   13.09499931   90.73719788    4.90999985    2.73000002
   13.09833336   87.99810028    4.90999985    2.73000002
   13.10222244   85.18699646    4.90999985    2.73000002
   13.10611153   87.92829895    4.90999985    2.73000002
   13.11000061   84.20839691    4.90999985    2.71000004
   13.11333370   80.54640198    4.90999985    2.71000004
   13.11722279   80.49199677    4.90999985    2.71000004
   13.12138939   79.00209808    4.90999985    2.71000004
   13.12638855   79.00209808    4.90999985    2.71000004
   13.13138866   97.35009766    4.90999985    2.73000002
   13.13527775   86.47329712    4.90999985    2.73000002
   13.13888836   87.36900330    4.90999985    2.71000004
   13.14249992   92.97209930    4.90999985    2.69000006
   13.14638901   91.34169769    4.90999985    2.69000006
   13.14999962   89.38500214    4.90999985    2.69000006
   13.15361118   89.68280029    4.90999985    2.59999990
   13.15722179   98.41169739    4.90999985    2.44000006
   13.16083336   98.96779633    4.90999985    2.44000006
   13.16444397  114.93499756    4.90999985    2.50000000
   13.16805553  123.38300323    4.90999985    2.32999992
   13.17166710   92.07360077    4.90999985    2.50000000
   13.17805576   92.07360077    4.90999985    2.48000002
   13.18277836   91.57440186    4.90999985    2.55999994
   13.18638897   95.32389832    4.90999985    2.55999994
   13.19027805   87.14179993    4.90999985    2.61999989
   13.19361115   88.11250305    4.90999985    2.67000008
   13.19722271   87.96990204    4.90999985    2.71000004
   13.20111084   88.71230316    4.90999985    2.75000000
   13.20499992   91.73269653    4.90999985    2.69000006
   13.20888901   97.38559723    4.90999985    2.66000009
   13.21277714   89.56420135    4.90999985    2.61999989
   13.21638870   95.03919983    4.90999985    2.69000006
   13.22027779   88.94960022    4.90999985    2.67000008
   13.22388840   84.59580231    4.90999985    2.71000004
   13.22944355   84.59580231    4.90999985    2.64000010
   13.23444462   93.72160339    4.90999985    2.64000010
   13.23805618   92.87920380    4.90999985    2.73000002
   13.24166679   81.51300049    4.90999985    2.73000002
   13.24555588   81.70020294    4.90999985    2.75000000
   13.24916649   87.11460114    4.90999985    2.73000002
   13.25305557   85.90200043    4.90999985    2.73000002
   13.25666714   92.16139984    4.90999985    2.73000002
   13.26027775   95.02279663    4.90999985    2.73000002
   13.26388931   96.97329712    4.90999985    2.57999992
   13.26749992   90.42910004    4.90999985    2.59999990
   13.27138901   94.06929779    4.90999985    2.53999996
   13.27527714   86.38249969    4.90999985    2.57999992
   13.28083324   86.38249969    4.90999985    2.73000002
   13.28555584  102.05300140    4.90999985    2.73000002
   13.28972244  100.76000214    4.90999985    2.75000000
   13.29361153   86.04560089    4.90999985    2.75000000
   13.29722309   87.54139709    4.90999985    2.75000000
   13.30111122   95.70079803    4.90999985    2.75000000
   13.30472279   84.63040161    4.90999985    2.73000002
   13.30833340   80.21140289    4.90999985    2.75000000
   13.31194496   84.55039978    4.90999985    2.71000004
   13.31527805   94.29900360    4.90999985    2.75000000
   13.31888866   90.28489685    4.90999985    2.76999998
   13.32277775   89.38009644    4.90999985    2.75000000
   13.32666683   89.79470062    4.90999985    2.75000000
   13.33361053   89.79470062    4.90999985    2.78999996
   13.33916664   94.15850067    4.90999985    2.75000000
   13.34305477   98.94969940    4.90999985    2.75000000
   13.34638882   88.75869751    4.90999985    2.75000000
   13.35027790   82.98889923    4.90999985    2.75000000
   13.35444450   85.03959656    4.90999985    2.75000000
   13.35833359   86.88469696    4.90999985    2.73000002
   13.36250019   86.41259766    4.90999985    2.73000002
   13.36666679   98.45800018    4.90999985    2.75000000
   13.36999989   92.07910156    4.90999985    2.76999998
   13.37500000   99.26809692    4.90999985    2.76999998
   13.38500023   99.26809692    4.90999985    2.76999998
   13.39000034   80.21379852    4.90999985    2.76999998
   13.39388847   95.64129639    4.90999985    2.76999998
   13.39805508   89.88939667    4.90999985    2.75000000
   13.40194416   90.79389954    4.90999985    2.78999996
   13.40555477   92.03639984    4.90999985    2.76999998
   13.40972137   82.74939728    4.90999985    2.76999998
   13.41305542  100.32599640    4.90999985    2.78999996
   13.41777802   97.94460297    4.90999985    2.73000002
   13.42222214   87.71910095    4.90999985    2.73000002
   13.42583370   95.30909729    4.90999985    2.69000006
   13.42916679  101.85399628    4.90999985    2.69000006
   13.43972206  101.85399628    4.90999985    2.75000000
   13.44861126   88.47029877    4.90999985    2.76999998
   13.45499992   85.20770264    4.90999985    2.76999998
   13.46194458   84.96389771    4.90999985    2.76999998
   13.47694397   81.44000244    4.90999985    2.78999996
   13.48416710   80.36029816    4.90999985    2.78999996
   13.48944473   80.36029816    4.90999985    2.78999996
   13.49361134   93.88999939    4.90999985    2.78999996
   13.49722290   81.59590149    4.90999985    2.78999996
   13.50055599   96.45580292    4.90999985    2.78999996
   13.50388908   85.25679779    4.90999985    2.78999996
   13.50722218   89.25879669    4.90999985    2.78999996
   13.51055527   98.47260284    4.90999985    2.78999996
   13.51388931   83.07630157    4.90999985    2.78999996
   13.51694393   85.36019897    4.90999985    2.78999996
   13.52027798   95.48169708    4.90999985    2.78999996
   13.52361107   88.27700043    4.90999985    2.78999996
   13.52666664   87.54740143    4.90999985    2.78999996
   13.52999973   85.14959717    4.90999985    2.78999996
   13.53333378   90.42160034    4.90999985    2.75000000
   13.53944492   90.42160034    4.90999985    2.80999994
   13.54361153   88.74140167    4.90999985    2.59999990
   13.54694462   91.48760223    4.90999985    2.76999998
   13.55027771   83.72889709    4.90999985    2.75000000
   13.55333328   93.38700104    4.90999985    2.75000000
   13.55666733   89.63510132    4.90999985    2.76999998
   13.56000042   95.71250153    4.90999985    2.69000006
   13.56305599   94.50180054    4.90999985    2.71000004
   13.56638908   97.92600250    4.90999985    2.80999994
   13.56972218   84.65509796    4.90999985    2.80999994
   13.57277775   92.30030060    4.88999987    2.78999996
   13.57611084   90.06300354    4.86999989    2.78999996
   13.57916641   83.29799652    4.90999985    2.78999996
   13.58249950   86.17819977    4.90999985    2.78999996
   13.58583260   90.86579895    4.90999985    2.78999996
   13.59083271   90.86579895    4.88999987    2.78999996
   13.59472179   89.43979645    4.90999985    2.80999994
   13.59805489   92.08270264    4.90999985    2.78999996
   13.60138893   81.11579895    4.90999985    2.78999996
   13.60444450   86.22200012    4.90999985    2.78999996
   13.60777855   91.49079895    4.90999985    2.78999996
   13.61111164   88.48799896    4.90999985    2.80999994
   13.61416721   86.29329681    4.82999992    2.82999992
   13.61750031   87.70770264    4.73999977    2.80999994
   13.62055588   86.77890015    4.65999985    2.82999992
   13.62388897   89.33630371    4.61999989    2.80999994
   13.62722206   85.06800079    4.59999990    2.80999994
   13.63027763   85.51049805    4.55999994    2.80999994
   13.63361073   87.62830353    4.53999996    2.80999994
   13.63694477   85.98490143    4.55999994    2.80999994
   13.64194393   85.98490143    4.84999990    2.80999994
   13.64611053   89.24520111    4.90999985    2.80999994
   13.64916611   88.00229645    4.90999985    2.78999996
   13.65249920   84.20110321    4.90999985    2.78999996
   13.65583324   86.77729797    4.90999985    2.78999996
   13.65888882   91.64749908    4.90999985    2.80999994
   13.66222191   82.86560059    4.90999985    2.78999996
   13.66555500   85.05549622    4.90999985    2.78999996
   13.66861153   87.63050079    4.90999985    2.80999994
   13.67194462   94.12840271    4.90999985    2.78999996
   13.67527771   92.37300110    4.90999985    2.80999994
   13.67833328   85.39369965    4.90999985    2.78999996
   13.68166733   88.33860016    4.90999985    2.78999996
   13.68472195   82.46199799    4.90999985    2.76999998
   13.68805599   85.97740173    4.90999985    2.80999994
   13.69305515   85.97740173    4.90999985    2.80999994
   13.69722271   87.28610229    4.90999985    2.80999994
   13.70055580   87.84420013    4.90999985    2.80999994
   13.70361137   79.98449707    4.90999985    2.80999994
   13.70694447   90.24600220    4.90999985    2.82999992
   13.71000004   90.69360352    4.90999985    2.80999994
   13.71333313   83.09799957    4.88999987    2.80999994
   13.71666622   88.81230164    4.88999987    2.80999994
   13.71972179   84.50520325    4.88999987    2.82999992
   13.72305489   82.48380280    4.88999987    2.82999992
   13.72638798   77.75180054    4.88999987    2.82999992
   13.72944355   89.99829865    4.90999985    2.80999994
   13.73277760   82.66940308    4.90999985    2.80999994
   13.73583317   83.78379822    4.90999985    2.82999992
   13.73916721   80.79340363    4.90999985    2.82999992
   13.74416733   80.79340363    4.90999985    2.80999994
   13.74833393   87.96939850    4.90999985    2.80999994
   13.75166702   91.86930084    4.90999985    2.80999994
   13.75472260   80.18170166    4.90999985    2.80999994
   13.75805569   78.92019653    4.90999985    2.80999994
   13.76138878   76.02519989    4.90999985    2.82999992
   13.76472187   91.21070099    4.90999985    2.80999994
   13.76777744   91.53630066    4.90999985    2.80999994
   13.77111053   92.06199646    4.86999989    2.80999994
   13.77416611   87.06610107    4.86999989    2.80999994
   13.77750015   91.00270081    4.86999989    2.82999992
   13.79805565   91.00270081    4.88999987    2.80999994
   13.80222225   82.68650055    4.90999985    2.80999994
   13.80555534   83.42970276    4.90999985    2.82999992
   13.80888939   80.06980133    4.90999985    2.80999994
   13.81194496   93.89859772    4.90999985    2.80999994
   13.81527805   87.80960083    4.90999985    2.80999994
   13.81833363   85.62079620    4.90999985    2.80999994
   13.82166672   82.28790283    4.90999985    2.80999994
   13.82499981   80.42810059    4.90999985    2.80999994
   13.82805538   76.09269714    4.90999985    2.82999992
   13.83138847   81.80529785    4.90999985    2.82999992
   13.83472157   81.62149811    4.90999985    2.82999992
   13.83777714   75.46640015    4.90999985    2.82999992
   13.84111118   78.16159821    4.90999985    2.82999992
   13.84416676   77.08570099    4.90999985    2.80999994
   13.84916592   77.08570099    4.90999985    2.80999994
   13.85333347   82.63300323    4.90999985    2.82999992
   13.85666752   88.31199646    4.90999985    2.82999992
   13.85972214   85.48410034    4.90999985    2.82999992
   13.86305618   79.70570374    4.90999985    2.82999992
   13.86638927   78.86219788    4.90999985    2.82999992
   13.86944485   83.36419678    4.90999985    2.82999992
   13.87277794   96.83029938    4.86999989    2.82999992
   13.87611103   84.69439697    4.84999990    2.82999992
   13.87916660   89.89369965    4.82999992    2.82999992
   13.88249969   84.16159821    4.82999992    2.82999992
   13.88555527   84.26370239    4.80999994    2.82999992
   13.88888836   82.96230316    4.80999994    2.82999992
   13.89222240   75.14669800    4.80999994    2.82999992
   13.89527798   74.56749725    4.80999994    2.84999990
   13.89694405   78.84349823    4.80999994    2.82999992
   13.90111065   78.84349823    4.78000021    2.82999992
   13.90499973   72.50409698    4.80000019    2.82999992
   13.90833282   81.05190277    4.80000019    2.84999990
   13.91166592   78.52490234    4.80000019    2.82999992
   13.91472149   79.74299622    4.78000021    2.84999990
   13.91805553   80.40450287    4.78000021    2.84999990
   13.92111111   79.65419769    4.78000021    2.82999992
   13.92444515   72.59030151    4.80999994    2.82999992
   13.92777824   79.46559906    4.80999994    2.84999990
   13.93083382   83.49629974    4.80000019    2.84999990
   13.93416691   87.69879913    4.80999994    2.82999992
   13.93750000   81.08260345    4.80999994    2.84999990
   13.94055557   81.48079681    4.80999994    2.84999990
   13.94388866   80.23370361    4.78000021    2.82999992
   13.94694424   78.37169647    4.76000023    2.84999990
   13.94750023   83.83650208    4.76000023    2.84999990
   13.95222187   83.83650208    4.78000021    2.82999992
   13.95638847   75.61550140    4.76000023    2.84999990
   13.95944405   77.07679749    4.78000021    2.82999992
   13.96277714   80.85099792    4.82999992    2.84999990
   13.96583271   75.65080261    4.82999992    2.84999990
   13.96916580   74.15390015    4.86999989    2.86999989
   13.97249985   80.21369934    4.88999987    2.84999990
   13.97555542   81.55729675    4.90999985    2.84999990
   13.97888851   80.06739807    4.90999985    2.82999992
   13.98222160   78.07279968    4.90999985    2.82999992
   13.98527813   81.10289764    4.90999985    2.84999990
   13.98861122   79.18470001    4.90999985    2.82999992
   13.99166679   76.87740326    4.90999985    2.84999990
   13.99499989   75.19809723    4.90999985    2.82999992
   13.99694443   79.70570374    4.90999985    2.82999992
   13.99861145   80.69529724    4.90999985    2.84999990
   14.00333309   80.69529724    4.90999985    2.82999992
   14.00749969   97.66200256    4.90999985    2.82999992
   14.01055527   77.54779816    4.90999985    2.82999992
   14.01388931   82.64369965    4.90999985    2.84999990
   14.01722240   83.85959625    4.90999985    2.82999992
   14.02027798   83.58260345    4.90999985    2.84999990
   14.02361107   79.95169830    4.90999985    2.84999990
   14.02694416   85.74019623    4.90999985    2.84999990
   14.02999973   88.21340179    4.90999985    2.84999990
   14.03333378   83.57820129    4.90999985    2.84999990
   14.03638935   73.43920135    4.90999985    2.84999990
   14.03972244   73.80500031    4.90999985    2.84999990
   14.04305553   87.26820374    4.90999985    2.84999990
   14.04611111   85.89459991    4.90999985    2.84999990
   14.04694462   81.26550293    4.90999985    2.84999990
   14.04972267   96.38790131    4.90999985    2.82999992
   14.05444431   96.38790131    4.90999985    2.84999990
   14.05861092   80.01589966    4.90999985    2.84999990
   14.06194496   89.74780273    4.90999985    2.84999990
   14.06500053   81.36360168    4.90999985    2.82999992
   14.06833363   87.16860199    4.90999985    2.84999990
   14.07166672   80.55059814    4.90999985    2.84999990
   14.07472229   75.56909943    4.90999985    2.84999990
   14.07805538   75.72959900    4.90999985    2.86999989
   14.08111095   76.75589752    4.90999985    2.84999990
   14.08444405   82.90460205    4.88999987    2.84999990
   14.08777714   81.76670074    4.88999987    2.84999990
   14.09083271   82.26339722    4.88999987    2.84999990
   14.09416676   77.60289764    4.90999985    2.84999990
   14.09694386   81.81359863    4.90999985    2.82999992
   14.09777737   76.64610291    4.90999985    2.84999990
   14.10111141   79.55960083    4.90999985    2.84999990
   14.10555553   79.55960083    4.90999985    2.84999990
   14.10972214   80.13050079    4.90999985    2.82999992
   14.11305618   86.34670258    4.90999985    2.82999992
   14.11638927   80.53679657    4.90999985    2.80999994
   14.11944485   83.95490265    4.90999985    2.84999990
   14.12277794   87.79669952    4.90999985    2.82999992
   14.12583351   88.73370361    4.90999985    2.80999994
   14.12916660   82.11910248    4.90999985    2.71000004
   14.13249969   96.24320221    4.90999985    2.69000006
   14.13555527   88.35359955    4.90999985    2.71000004
   14.13888836   86.45220184    4.90999985    2.75000000
   14.14222240   85.37860107    4.90999985    2.78999996
   14.14527798   85.81030273    4.90999985    2.84999990
   14.14694405   73.34539795    4.90999985    2.82999992
   14.14888859   86.82019806    4.90999985    2.84999990
   14.15222168   85.77559662    4.90999985    2.84999990
   14.15694427   85.77559662    4.90999985    2.84999990
   14.16111088   81.08609772    4.90999985    2.84999990
   14.16416645   90.30280304    4.90999985    2.84999990
   14.16750050   84.17759705    4.90999985    2.84999990
   14.17055607   83.85500336    4.90999985    2.84999990
   14.17388916   84.55319977    4.90999985    2.84999990
   14.17722225   81.35980225    4.88999987    2.84999990
   14.18027782   83.50859833    4.88999987    2.86999989
   14.18361092   88.02890015    4.88999987    2.86999989
   14.18694496   85.90540314    4.90999985    2.84999990
   14.19000053   84.55560303    4.90999985    2.86999989
   14.19333363   81.96309662    4.90999985    2.84999990
   14.19638920   98.30570221    4.88999987    2.84999990
   14.19694424   88.46399689    4.88999987    2.84999990
   14.20027733   82.39160156    4.90999985    2.84999990
   14.20361137   87.56629944    4.88999987    2.84999990
   14.20805550   87.56629944    4.86999989    2.86999989
   14.21222210   80.21450043    4.84999990    2.84999990
   14.21527767   82.76679993    4.82999992    2.84999990
   14.21861076   78.54730225    4.82999992    2.84999990
   14.22194386   87.56759644    4.84999990    2.82999992
   14.22499943   86.16280365    4.84999990    2.86999989
   14.22833252   87.93710327    4.82999992    2.84999990
   14.23166656   87.86129761    4.84999990    2.86999989
   14.23472214   79.34049988    4.82999992    2.86999989
   14.23805618   81.08719635    4.82999992    2.84999990
   14.24111176   87.25540161    4.84999990    2.86999989
   14.24444485   82.46499634    4.82999992    2.84999990
   14.24694443   82.52140045    4.82999992    2.84999990
   14.24805546   88.31900024    4.80999994    2.86999989
   14.25138855   85.61689758    4.80999994    2.86999989
   14.25444412   77.62460327    4.80000019    2.86999989
   14.25916672   77.62460327    4.76000023    2.86999989
   14.26333332   91.76499939    4.73999977    2.86999989
   14.26666641   74.73110199    4.71999979    2.86999989
   14.26972198   78.78019714    4.71999979    2.86999989
   14.27305508   87.39129639    4.78000021    2.86999989
   14.27638817   93.75450134    4.90999985    2.86999989
   14.27944374   94.19680023    4.90999985    2.84999990
   14.28277779   78.00409698    4.90999985    2.76999998
   14.28583336   90.48320007    4.90999985    2.89000010
   14.28916740   88.02459717    4.90999985    2.80999994
   14.29250050   86.02780151    4.90999985    2.78999996
   14.29555607  108.38300323    4.90999985    2.78999996
   14.29694462  113.16200256    4.90999985    2.80999994
   14.29916668  116.20600128    4.90999985    2.78999996
   14.30249977  123.66799927    4.90999985    2.78999996
   14.30555534  145.79400635    4.90999985    2.89000010
   14.31027794  145.79400635    4.90999985    2.80999994
   14.31444454   -1.00000000    4.69999981    2.86999989
   14.31777763   -1.00000000    4.53000021    2.89000010
   14.32111073   -1.00000000    4.48999977    2.86999989
   14.32416630   -1.00000000    4.44999981    2.86999989
   14.32750034   -1.00000000    4.38999987    2.86999989
   14.33055592   -1.00000000    4.38999987    2.86999989
   14.33388901   -1.00000000    4.42999983    2.89000010
   14.33722210   -1.00000000    4.42999983    2.86999989
   14.34027767   -1.00000000    4.44999981    2.89000010
   14.34361076   -1.00000000    4.46999979    2.86999989
   14.34694386   -1.00000000    4.51000023    2.86999989
   14.35055637   -1.00000000    4.53999996    2.84999990
   14.35361195   -1.00000000    4.59999990    2.86999989
   14.35694504   -1.00000000    4.65999985    2.89000010
   14.36555576   -1.00000000    4.76000023    2.86999989
   14.36888885   -1.00000000    4.67999983    2.86999989
   14.37194443   -1.00000000    4.65999985    2.86999989
   14.37527752   -1.00000000    4.61999989    2.86999989
   14.37861156   -1.00000000    4.61999989    2.86999989
   14.38166714   -1.00000000    4.71999979    2.86999989
   14.38500023   -1.00000000    4.71999979    2.86999989
   14.38833332   -1.00000000    4.69999981    2.86999989
   14.39138889   -1.00000000    4.65999985    2.86999989
   14.39472198   -1.00000000    4.61999989    2.86999989
   14.39833355   -1.00000000    4.57999992    2.86999989
   14.40138817   -1.00000000    4.57999992    2.86999989
   14.40472221   -1.00000000    4.55999994    2.86999989
   14.40805531   -1.00000000    4.53999996    2.86999989
   14.41277695   -1.00000000    4.53000021    2.86999989
   14.41694450   87.07389832    4.55999994    2.86999989
   14.42000008   91.05650330    4.61999989    2.89000010
   14.42333412  104.35700226    4.61999989    2.86999989
   14.42666721   90.97329712    4.63999987    2.86999989
   14.42972279   93.08280182    4.61999989    2.86999989
   14.43305588   80.61319733    4.73999977    2.86999989
   14.43638897   89.94200134    4.90999985    2.86999989
   14.43944454   98.42320251    4.84999990    2.86999989
   14.44277763   84.85099792    4.65999985    2.86999989
   14.44611073  102.15799713    4.59999990    2.86999989
   14.44750023   85.28350067    4.57999992    2.89000010
   14.44944477   91.61370087    4.53999996    2.86999989
   14.45277786   83.17919922    4.53999996    2.86999989
   14.45583344   87.81020355    4.57999992    2.86999989
   14.45916653   89.75939941    4.57999992    2.89000010
   14.46388912   89.75939941    4.53000021    2.86999989
   14.46805477   80.03099823    4.48999977    2.86999989
   14.47138882   84.23950195    4.48999977    2.89000010
   14.47444439   97.94799805    4.51000023    2.89000010
   14.47777748   95.90660095    4.51000023    2.86999989
   14.48111057   86.54100037    4.46999979    2.89000010
   14.48416710   82.62020111    4.53999996    2.89000010
   14.48750019   87.15309906    4.48999977    2.89000010
   14.49055576   93.44029999    4.46999979    2.86999989
   14.49388885  100.51100159    4.55999994    2.86999989
   14.49722290  100.00000000    4.53999996    2.86999989
   14.49777794   86.20279694    4.53999996    2.86999989
   14.50083351   94.96569824    4.53000021    2.86999989
   14.50416660  101.72100067    4.51000023    2.89000010
   14.50722218   99.64209747    4.51000023    2.89000010
   14.51055527   86.37100220    4.55999994    2.86999989
   14.51500034   86.37100220    4.61999989    2.86999989
   14.51916599   86.16190338    4.55999994    2.86999989
   14.52250004   86.99909973    4.55999994    2.86999989
   14.52583313   90.24579620    4.69999981    2.89000010
   14.52888870   89.57209778    4.86999989    2.86999989
   14.53222179   88.73320007    4.67999983    2.86999989
   14.53527832   88.45559692    4.86999989    2.89000010
   14.53861141   90.52590179    4.90999985    2.84999990
   14.54194450   82.49379730    4.69999981    2.89000010
   14.54500008   84.92189789    4.48999977    2.89000010
   14.54777813   80.62519836    4.90999985    2.84999990
   14.54861164   78.24790192    4.90999985    2.84999990
   14.55194473   88.06860352    4.90999985    2.86999989
   14.55527782   82.59950256    4.80000019    2.86999989
   14.55833340   94.57640076    4.65999985    2.86999989
   14.56166649   75.83280182    4.57999992    2.86999989
   14.56638908   75.83280182    4.57999992    2.89000010
   14.57055569   81.88860321    4.59999990    2.86999989
   14.57361126   87.18049622    4.61999989    2.86999989
   14.57694435   89.89550018    4.55999994    2.86999989
   14.57999992   78.83950043    4.53000021    2.86999989
   14.58333302   82.40889740    4.51000023    2.86999989
   14.58666611   82.79640198    4.51000023    2.86999989
   14.58972168   77.22699738    4.44999981    2.86999989
   14.59305477   83.93350220    4.38999987    2.89000010
   14.59638882   94.59210205    4.28999996    2.89000010
   14.59777737   89.26020050    4.26999998    2.86999989
   14.60000038   87.37619781    4.26000023    2.89000010
   14.60305595   85.25440216    4.90999985    2.86999989
   14.60638905   85.99720001    4.90999985    2.86999989
   14.60944462   85.03019714    4.90999985    2.86999989
   14.61277771   84.80599976    4.51000023    2.91000009
   14.61750031   84.80599976    4.65999985    2.89000010
   14.62166691   85.44069672    4.90999985    2.86999989
   14.62472248   92.88069916    4.90999985    2.78999996
   14.62805557   96.49770355    4.90999985    2.69000006
   14.63138866   97.10749817    4.90999985    2.80999994
   14.63444424   84.55039978    4.90999985    2.76999998
   14.63777733   84.71600342    4.90999985    2.71000004
   14.64083290   90.66310120    4.90999985    2.73000002
   14.64416695   94.17320251    4.90999985    2.73000002
   14.64750004   95.78359985    4.90999985    2.73000002
   14.64805508   86.62270355    4.90999985    2.71000004
   14.65111065   94.91809845    4.90999985    2.76999998
   14.65444374   97.75199890    4.90999985    2.75000000
   14.65749931   81.74279785    4.90999985    2.73000002
   14.66083336   85.56900024    4.90999985    2.82999992
   14.66416645  102.08899689    4.90999985    2.76999998
   14.66861153  102.08899689    4.90999985    2.73000002
   14.67277813   81.83260345    4.90999985    2.82999992
   14.67611122   93.28540039    4.90999985    2.82999992
   14.67916679   84.79270172    4.90999985    2.78999996
   14.68249989   85.38790131    4.90999985    2.86999989
   14.68555546   86.58560181    4.90999985    2.80999994
   14.68888855   89.82679749    4.90999985    2.73000002
   14.69222260   88.74340057    4.90999985    2.71000004
   14.69527817   97.91110229    4.90999985    2.78999996
   14.69805527   91.95770264    4.90999985    2.75000000
   14.69888878   93.00659943    4.90999985    2.73000002
   14.70222187   98.05639648    4.90999985    2.69000006
   14.70555496  106.87400055    4.90999985    2.66000009
   14.70861053  103.08899689    4.90999985    2.59999990
   14.71194458   98.36900330    4.90999985    2.67000008
   14.71527767  102.68199921    4.90999985    2.67000008
   14.71972179  102.68199921    4.90999985    2.84999990
   14.72388840   85.87660217    4.90999985    2.86999989
   14.72722149   85.37879944    4.90999985    2.76999998
   14.73027706   97.54850006    4.90999985    2.82999992
   14.73361111   88.70780182    4.90999985    2.82999992
   14.73694515   84.28579712    4.90999985    2.86999989
   14.74000072   82.15579987    4.90999985    2.86999989
   14.74333382   84.28160095    4.90999985    2.86999989
   14.74666691   85.87400055    4.88999987    2.89000010
   14.74805546   89.11070251    4.90999985    2.86999989
   14.75027752   74.43199921    4.90999985    2.80999994
   14.75333309   89.08830261    4.90999985    2.80999994
   14.75666714   72.99099731    4.90999985    2.73000002
   14.75972176   98.93849945    4.90999985    2.75000000
   14.76305580   90.72059631    4.90999985    2.84999990
   14.76638889   81.21649933    4.40999985    2.89000010
   14.77111053   81.21649933    4.59999990    2.91000009
   14.77499962   80.03340149    4.55999994    2.89000010
   14.77833271   86.20520020    4.76000023    2.89000010
   14.78166676   90.47339630    4.84999990    2.91000009
   14.78472233   84.15650177    4.48999977    2.91000009
   14.78805637   87.70200348    4.38999987    2.91000009
   14.79138947   89.62740326    4.03999996    2.91000009
   14.79444504   86.99019623    4.05999994    2.89000010
   14.81138897   83.92939758    4.90999985    2.86999989
   14.81416702   81.66950226    4.90999985    2.84999990
   14.81750011   80.65429688    4.90999985    2.86999989
   14.82250023   80.65429688    4.40999985    2.91000009
   14.82638836   81.42259979    4.90999985    2.80999994
   14.82972240   93.33750153    4.90999985    2.86999989
   14.83305550   74.52770233    4.90999985    2.84999990
   14.83611107   79.71299744    4.90999985    2.84999990
   14.83944416   91.12640381    4.90999985    2.86999989
   14.84277725   80.01930237    4.90999985    2.86999989
   14.84583282   76.62000275    4.90999985    2.86999989
   14.84916592   77.88710022    4.90999985    2.86999989
   14.85222244   88.58020020    4.90999985    2.86999989
   14.85555553   78.98449707    4.90999985    2.84999990
   14.85888958   75.60610199    4.90999985    2.93000007
   14.86138916   80.15399933    4.82999992    2.89000010
   14.86250019   74.81169891    4.67999983    2.89000010
   14.86583328   73.96080017    4.21999979    2.89000010
   14.86888885   77.48699951    4.13999987    2.91000009
   14.87361145   77.48699951    4.76000023    2.91000009
   14.87777805   72.19280243    4.17999983    2.91000009
   14.88083363   83.77359772    4.21999979    2.91000009
   14.88416672   80.66410065    4.40999985    2.91000009
   14.88749981   76.68969727    4.38999987    2.91000009
   14.89055538   75.23249817    4.19999981    2.91000009
   14.89388847   77.74420166    4.88999987    2.89000010
   14.89694405   77.35679626    4.59999990    2.91000009
   14.90027714   73.89179993    4.05999994    2.91000009
   14.90361118   78.70269775    4.07999992    2.91000009
   14.90666676   79.30059814    4.01999998    2.91000009
   14.90999985   76.43309784    3.97000003    2.91000009
   14.91138840   82.63040161    3.97000003    2.91000009
   14.91361046   78.06279755    3.97000003    2.89000010
   14.91694450   77.46150208    4.15999985    2.91000009
   14.92000008   81.44100189    4.55999994    2.89000010
   14.92472267   81.44100189    4.40999985    2.91000009
   14.92888927   77.05049896    4.69999981    2.89000010
   14.93222237   80.14540100    4.90999985    2.86999989
   14.93527794   76.21019745    4.90999985    2.89000010
   14.93861103   80.12940216    4.90999985    2.86999989
   14.94166660   82.75569916    4.90999985    2.82999992
   14.94499969   78.52729797    4.90999985    2.84999990
   14.94833374   79.63459778    4.90999985    2.89000010
   14.95166683   77.52919769    4.67999983    2.89000010
   14.95472240   82.82869720    4.90999985    2.84999990
   14.95805550   89.35489655    4.90999985    2.78999996
   14.96111107   97.59110260    4.90999985    2.75000000
   14.96166611   95.29399872    4.90999985    2.80999994
   14.96500015   83.97139740    4.90999985    2.86999989
   14.96833324   80.89019775    4.90999985    2.80999994
   14.97138882   92.34580231    4.90999985    2.78999996
   14.97583294   92.34580231    4.90999985    2.86999989
   14.97999954   91.79810333    4.90999985    2.75000000
   14.98333359   92.73580170    4.90999985    2.84999990
   14.98638916   84.93119812    4.90999985    2.86999989
   14.98972225   80.48229980    4.90999985    2.91000009
   14.99305534   78.95220184    4.90999985    2.91000009
   14.99611092   87.89659882    4.90999985    2.89000010
   14.99944496   83.30690002    4.90999985    2.80999994
   15.00249958   82.84320068    4.90999985    2.84999990
   15.00583363   90.37729645    4.90999985    2.75000000
   15.00916672   88.44000244    4.90999985    2.82999992
   15.01166630   83.95200348    4.90999985    2.82999992
   15.01277733   89.29859924    4.90999985    2.80999994
   15.01611137   79.39929962    4.90999985    2.82999992
   15.01916599   83.23829651    4.90999985    2.82999992
   15.02250004   85.70690155    4.90999985    2.84999990
   15.02722168   85.70690155    4.90999985    2.82999992
   15.03111076   79.49179840    4.90999985    2.78999996
   15.03444481   76.92900085    4.90999985    2.89000010
   15.03777790   81.68550110    3.89000010    2.91000009
   15.04083347   84.24420166    3.80999994    2.91000009
   15.04416752   82.57700348    3.76999998    2.93000007
   15.04722309   76.41449738    3.78999996    2.89000010
   15.05055618   83.16400146    3.80999994    2.93000007
   15.05388927   91.13749695    3.76999998    2.91000009
   15.05694485   83.67030334    3.55999994    2.93000007
   15.06027794   89.05829620    3.59999990    2.93000007
   15.06166649   78.02420044    3.57999992    2.93000007
   15.06388950   91.43710327    3.41000009    2.93000007
   15.06722260   70.66760254    3.46000004    2.93000007
   15.07027817   89.92520142    3.66000009    2.93000007
   15.07361126   76.28839874    3.76999998    2.93000007
   15.07833290   76.28839874    3.84999990    2.91000009
   15.08249950   88.74469757    4.76000023    2.93000007
   15.08555508   81.86750031    4.90999985    2.86999989
   15.08888817   82.70089722    4.90999985    2.89000010
   15.09194374   84.71209717    4.90999985    2.93000007
   15.09527779   71.19370270    4.90999985    2.86999989
   15.09861088   78.30750275    4.26000023    2.93000007
   15.10166740   77.11779785    4.90999985    2.91000009
   15.10500050   85.02510071    4.90999985    2.86999989
   15.10833359   83.63430023    4.90999985    2.91000009
   15.11138916   81.23329926    4.90999985    2.84999990
   15.11194515   81.70760345    4.90999985    2.84999990
   15.11527824   85.50730133    3.72000003    2.93000007
   15.11833382   83.66929626    3.86999989    2.91000009
   15.12166691   81.66519928    4.57999992    2.91000009
   15.12500000   82.23789978    4.90999985    2.84999990
   15.12944412   82.23789978    4.90999985    2.91000009
   15.13361073   80.16950226    4.90999985    2.91000009
   15.13666630   85.36789703    4.90999985    2.89000010
   15.14000034   82.86049652    4.90999985    2.84999990
   15.14333344   87.99780273    4.90999985    2.75000000
   15.14638901   79.53469849    4.90999985    2.75000000
   15.14972210   86.16059875    4.90999985    2.80999994
   15.15305519   75.48040009    4.90999985    2.82999992
   15.15611076   94.84909821    4.90999985    2.76999998
   15.15944386   88.29620361    4.90999985    2.76999998
   15.16194439   86.23149872    4.90999985    2.82999992
   15.16305542   83.40019989    4.90999985    2.82999992
   15.16638851   73.57820129    4.90999985    2.86999989
   15.16944504   73.63099670    4.90999985    2.84999990
   15.17277813   78.74759674    4.90999985    2.86999989
   15.17583370   79.72380066    4.90999985    2.86999989
   15.18055630   79.72380066    4.90999985    2.69000006
   15.18472195   88.07209778    4.90999985    2.78999996
   15.18805599   82.11799622    4.90999985    2.89000010
   15.19111156   94.89769745    4.90999985    2.78999996
   15.19444466   86.30899811    4.90999985    2.78999996
   15.19777775   84.37850189    4.90999985    2.78999996
   15.20083332   83.21330261    4.90999985    2.86999989
   15.20416641   84.72509766    4.90999985    2.86999989
   15.20749950   83.86239624    4.90999985    2.91000009
   15.21055508   87.12020111    4.90999985    2.89000010
   15.21194458   90.15039825    4.90999985    2.89000010
   15.21416664   85.52600098    4.90999985    2.86999989
   15.21749973   84.42880249    4.90999985    2.91000009
   15.22055531   78.57990265    4.90999985    2.86999989
   15.22388840   82.87889862    4.90999985    2.84999990
   15.22722149   88.12010193    4.90999985    2.82999992
   15.23166656   88.12010193    4.90999985    2.84999990
   15.23583317   86.32319641    4.90999985    2.76999998
   15.23916721   81.55930328    4.90999985    2.84999990
   15.24250031   96.38839722    4.90999985    2.89000010
   15.24555588   82.20929718    4.90999985    2.91000009
   15.24888897   86.98079681    4.90999985    2.91000009
   15.25194454   88.16040039    4.05999994    2.93000007
   15.25527763   76.02570343    3.46000004    2.93000007
   15.25861073   75.66269684    3.21000004    2.93000007
   15.37083340   -1.00000000   -1.00000000   -1.00000000
   15.46583271   -1.00000000   -1.00000000   -1.00000000
   15.56444454   -1.00000000   -1.00000000   -1.00000000
   15.65611076   -1.00000000   -1.00000000   -1.00000000
   15.76416683   -1.00000000   -1.00000000   -1.00000000
   15.91583252   -1.00000000   -1.00000000   -1.00000000
   15.96305561   74.13739777    3.73000002    2.94000006
   15.96638870   75.39589691    3.66000009    2.94000006
   15.96972179   80.03170013    3.61999989    2.94000006
   15.97277737   77.08100128    3.68000007    2.94000006
   15.97611046   79.17230225    3.68000007    2.93000007
   15.97916603   75.63819885    3.68000007    2.94000006
   15.98249912   72.36260223    3.66000009    2.94000006
   15.98583317   75.12560272    3.68000007    2.94000006
   15.99166679   75.12560272    3.41000009    2.93000007
   15.99583340   76.36569977    3.46000004    2.93000007
   15.99888897   72.38379669    3.48000002    2.93000007
   16.00222206   74.31919861    3.50000000    2.94000006
   16.00555611   75.04049683    3.53999996    2.93000007
   16.00861168   74.93060303    3.53999996    2.91000009
   16.01194382   75.45629883    3.59999990    2.93000007
   16.01305580   80.93890381    3.57999992    2.93000007
   16.01555634   82.12920380    3.48000002    2.93000007
   16.01861000   86.67870331    3.39000010    2.94000006
   16.02249908   80.50219727    0.00000000    0.00000000
   16.02638817   79.28829956    0.00000000    0.00000000
   16.03027725   79.17209625    0.00000000    0.00000000
   16.03416634   79.26989746    0.00000000    0.00000000
   16.03805542   77.24659729    0.00000000    0.00000000
   16.04333305   77.24659729    0.00000000    0.00000000
   16.04805565   80.36350250    0.00000000    0.00000000
   16.05194283   83.50679779    0.00000000    0.00000000
   16.05555534   79.81330109    3.39000010    2.94000006
   16.05888748   79.72779846    3.39000010    2.94000006
   16.06194305   82.18650055    3.39000010    2.94000006
   16.06305504   90.96109772    3.39000010    2.94000006
   16.06583214   86.17430115    3.39000010    2.94000006
   16.06888962   86.95390320    3.39000010    2.94000006
   16.07222366   82.21499634    3.39000010    2.94000006
   16.07555580   76.39730072    3.39000010    2.94000006
   16.07861137   87.47360229    3.39000010    2.94000006
   16.08194542   82.57340240    3.39000010    2.94000006
   16.08500099   79.88980103    3.39000010    2.94000006
   16.08833313   84.70050049    3.39000010    2.94000006
   16.09388924   84.70050049    3.39000010    2.94000006
   16.09805679   81.19170380    3.39000010    2.94000006
   16.10138893   89.31269836    3.39000010    2.94000006
   16.10472298   79.98069763    3.39000010    2.94000006
   16.10777855   86.12909698    3.39000010    2.94000006
   16.11111069   81.05690002    3.39000010    2.94000006
   16.11305618   77.62640381    3.39000010    2.94000006
   16.11472321   83.53520203    3.39000010    2.94000006
   16.11777878   78.96009827    3.39000010    2.94000006
   16.12111092   77.31800079    3.39000010    2.94000006
   16.12444496   81.89040375    3.39000010    2.94000006
   16.12750053   81.87550354    3.39000010    2.94000006
   16.13083267   81.20629883    3.39000010    2.94000006
   16.13388824   79.13980103    3.39000010    2.94000006
   16.13722229   81.36090088    3.39000010    2.94000006
   16.14055634   77.37359619    3.39000010    2.94000006
   16.14527702   77.37359619    3.39000010    2.94000006
   16.14944458   82.82730103    3.39000010    2.94000006
   16.15250015   81.04730225    3.32999992    2.94000006
   16.15583229   82.60569763    0.13000000    0.07000000
   16.15888786   81.50810242    0.13000000    0.07000000
   16.16222191   83.51730347    0.13000000    0.07000000
   16.16305542   80.09870148    0.13000000    0.07000000
   16.16583252   84.05039978    0.13000000    0.07000000
   16.16888809   89.88529968    4.90999985    2.91000009
   16.17222214   79.90560150    4.90999985    2.89000010
   16.17555428   82.16929626    4.90999985    2.89000010
   16.17860985   79.78489685    4.90999985    2.89000010
   16.18194389   89.90450287    4.90999985    2.89000010
   16.18527603   85.60050201    4.71999979    2.91000009
   16.18833160   85.19059753    4.90999985    2.89000010
   16.19166565   90.86350250    4.90999985    2.89000010
   16.19638824   90.86350250    4.71999979    2.91000009
   16.20055580   80.80329895    4.90999985    2.91000009
   16.20361137   83.13950348    4.90999985    2.86999989
   16.20694542   79.42900085    4.90999985    2.89000010
   16.21027946   87.52269745    4.90999985    2.86999989
   16.21305656   76.67639923    4.90999985    2.89000010
   16.21389008   79.73079681    4.90999985    2.89000010
   16.21694565   76.06649780    4.90999985    2.89000010
   16.22027779   79.55010223    4.90999985    2.89000010
   16.22361183   87.38030243    4.90999985    2.89000010
   16.22666740   85.67990112    4.90999985    2.89000010
   16.23000145   84.37220001    4.90999985    2.91000009
   16.23333359   81.20249939    4.90999985    2.86999989
   16.23638916   89.21309662    4.90999985    2.89000010
   16.23972321   90.29789734    4.90999985    2.91000009
   16.24277878   94.65139771    4.82999992    2.91000009
   16.24749947   94.65139771    4.28999996    2.91000009
   16.25166702   84.60690308    4.00000000    2.93000007
   16.25499916   82.64600372    4.07999992    2.93000007
   16.25805473   87.35399628    4.26000023    2.91000009
   16.26138878   85.46029663    4.53999996    2.91000009
   16.26305580   80.58660126    4.71999979    2.91000009
   16.26499939   80.63459778    4.67999983    2.91000009
   16.26805496   87.42870331    4.42999983    2.91000009
   16.27138901   80.19339752    4.15999985    2.91000009
   16.27472115   83.07369995    4.00000000    2.93000007
   16.27777672   80.33999634    3.93000007    2.93000007
   16.28111076   86.44539642    3.86999989    2.93000007
   16.28444481   82.14430237    3.84999990    2.93000007
   16.28750038   74.40509796    3.82999992    2.93000007
   16.29083252   83.87799835    3.84999990    2.93000007
   16.29388809   82.30030060    3.82999992    2.93000007
   16.29861069   82.30030060    3.89000010    2.93000007
   16.30277634   88.17019653    3.99000001    2.93000007
   16.30611038   75.96320343    4.00000000    2.93000007
   16.30944443   80.92430115    3.95000005    2.93000007
   16.31250000   79.22209930    3.93000007    2.93000007
   16.31305504   83.77629852    3.91000009    2.94000006
   16.31611061   79.13490295    3.89000010    2.93000007
   16.31944466   79.36599731    3.99000001    2.93000007
   16.32250023   74.56089783    3.89000010    2.93000007
   16.32583427   76.49739838    3.84999990    2.93000007
   16.32888985   78.56510162    3.84999990    2.94000006
   16.33222389   75.08280182    3.80999994    2.93000007
   16.33555603   77.34230042    3.75000000    2.93000007
   16.33861160   79.83020020    3.76999998    2.93000007
   16.34194565   77.54100037    3.76999998    2.93000007
   16.34527779   71.29720306    3.89000010    2.93000007
   16.35000038   71.29720306    3.91000009    2.93000007
   16.35416794   81.13529968    4.00000000    2.91000009
   16.35722351   80.84809875    4.11999989    2.93000007
   16.36055565   74.07450104    3.72000003    2.93000007
   16.36305618   77.02670288    3.73000002    2.93000007
   16.36416626   77.97170258    3.73000002    2.93000007
   16.36750031   83.96320343    3.73000002    2.93000007
   16.37055588   75.77359772    3.57999992    2.94000006
   16.37388992   86.79560089    3.68000007    2.93000007
   16.37694550   83.59680176    3.72000003    2.94000006
   16.38027763   79.24579620    3.55999994    2.93000007
   16.38361168   79.26080322    3.59999990    2.93000007
   16.38666725   79.83000183    3.72000003    2.93000007
   16.38999939   80.86430359    3.64000010    2.93000007
   16.39333344   88.43939972    3.55999994    2.93000007
   16.39638901   82.87169647    3.48000002    2.93000007
   16.40111160   82.87169647    3.72000003    2.93000007
   16.40527725   82.37590027    3.89000010    2.93000007
   16.40833282   87.95719910    4.13999987    2.93000007
   16.41166687   81.88169861    4.13999987    2.93000007
   16.41305542   90.49890137    4.07999992    2.93000007
   16.41527748   87.11239624    3.91000009    2.93000007
   16.41860962   86.45339966    3.70000005    2.94000006
   16.42166519   79.10410309    3.82999992    2.93000007
   16.42499924   81.33129883    3.80999994    2.93000007
   16.42805481   90.15889740    3.59999990    2.93000007
   16.43138885   84.46360016    3.45000005    2.94000006
   16.43472099   85.30670166    3.34999990    2.93000007
   16.43777657   85.80149841    3.39000010    2.94000006
   16.44111061   80.85050201    3.46000004    2.94000006
   16.44444275   81.61620331    3.57999992    2.94000006
   16.44749832   82.21669769    3.64000010    2.93000007
   16.45222282   82.21669769    3.55999994    2.93000007
   16.45639038   92.08940125    3.50000000    2.93000007
   16.45972252   76.69380188    3.46000004    2.93000007
   16.46277809   82.96739960    3.46000004    2.94000006
   16.46333504   80.54840088    3.45000005    2.94000006
   16.46638870   98.05760193    3.43000007    2.93000007
   16.46972275   86.80259705    3.36999989    2.93000007
   16.47277832  101.05400085    3.26999998    2.94000006
   16.47611237   93.83080292    3.32999992    2.94000006
   16.47916794   85.14649963    3.51999998    2.94000006
   16.48250008   77.27159882    3.75000000    2.93000007
   16.48583412   84.61470032    3.95000005    2.93000007
   16.48888969   87.59539795    3.93000007    2.94000006
   16.49222183   85.20680237    3.95000005    2.93000007
   16.49555588   92.31439972    4.05999994    2.93000007
   16.49861145   81.32360077    4.40999985    2.93000007
   16.50333405   81.32360077    4.90999985    2.89000010
   16.50749969   84.15170288    4.90999985    2.86999989
   16.51083374   86.44940186    4.90999985    2.82999992
   16.51333427   91.68509674    4.90999985    2.82999992
   16.51444435   88.87169647    4.90999985    2.82999992
   16.51777840   90.39479828    4.90999985    2.89000010
   16.52083397   86.26989746    4.90999985    2.89000010
   16.52416611   92.21360016    4.90999985    2.86999989
   16.52722168   98.86569977    4.90999985    2.84999990
   16.53055573   83.54260254    4.90999985    2.82999992
   16.53388786   93.79270172    4.90999985    2.84999990
   16.53694344   87.54570007    4.90999985    2.84999990
   16.54027748   85.43569946    4.90999985    2.84999990
   16.54361153   83.66259766    4.90999985    2.89000010
   16.54666710   94.84390259    4.90999985    2.89000010
   16.54999924   84.86190033    4.90999985    2.91000009
   16.55472183   84.86190033    4.90999985    2.82999992
   16.55888748   90.23860168    4.90999985    2.93000007
   16.56194305   82.81520081    4.61999989    2.91000009
   16.56333351   97.61000061    4.63999987    2.89000010
   16.56555557   95.00170135    4.61999989    2.91000009
   16.56888962   95.30449677    4.07999992    2.91000009
   16.57194519   76.38839722    3.61999989    2.94000006
   16.57527924   85.31210327    3.41000009    2.93000007
   16.57861137   76.52580261    3.34999990    2.93000007
   16.58166695   80.81629944    3.57999992    2.93000007
   16.58500099   82.42649841    3.80999994    2.91000009
   16.58805656   92.81659698    3.75000000    2.94000006
   16.59138870   89.83390045    3.36999989    2.94000006
   16.59472275   92.41670227    3.25000000    2.94000006
   16.59777832   88.94589996    3.23000002    2.94000006
   16.60111237   87.97139740    3.36999989    2.93000007
   16.60583305   87.97139740    3.20000005    2.94000006
   16.61000061   93.47609711    3.07999992    2.94000006
   16.61305618   80.35820007    3.01999998    2.94000006
   16.61361122   87.16429901    3.00000000    2.94000006
   16.61694527  109.76300049    3.01999998    2.96000004
   16.62027740   94.71540070    3.07999992    2.94000006
   16.62333298   86.78929901    3.21000004    2.94000006
   16.62666702   72.36599731    3.25000000    2.94000006
   16.62972260   82.50039673    3.25000000    2.94000006
   16.63305473   81.26370239    3.45000005    2.94000006
   16.63638878   79.95490265    3.61999989    2.94000006
   16.63944435   83.66020203    3.95000005    2.91000009
   16.64277840   73.41739655    3.78999996    2.93000007
   16.64611053   73.83059692    3.59999990    2.93000007
   16.64916611   75.42220306    3.55999994    2.93000007
   16.65250015   76.57309723    3.32999992    2.94000006
   16.65694427   76.57309723    4.17999983    2.93000007
   16.66110992   82.00199890    4.90999985    2.91000009
   16.66361046   85.84950256    4.90999985    2.84999990
   16.66472244   77.93170166    4.90999985    2.80999994
   16.66805458   84.65550232    4.90999985    2.89000010
   16.67111015   87.15920258    3.97000003    2.91000009
   16.67444420   88.50170135    3.75000000    2.93000007
   16.67749977   77.62259674    3.66000009    2.93000007
   16.68083191   75.97070313    3.55999994    2.93000007
   16.68416595   78.04460144    3.45000005    2.93000007
   16.68722153   76.11789703    3.51999998    2.93000007
   16.69055557   79.76969910    3.59999990    2.94000006
   16.69388771   79.49449921    3.34999990    2.96000004
   16.69694328   81.93360138    3.14000010    2.94000006
   16.70027924   81.77850342    3.18000007    2.94000006
   16.70333481   84.47910309    4.42999983    2.94000006
   16.70805550   84.47910309    2.96000004    2.94000006
   16.71222305   87.26850128    2.86999989    2.94000006
   16.71361160   88.89389801    2.86999989    2.94000006
   16.71583366   87.12500000    2.91000009    2.94000006
   16.71916771   89.33930206    3.00000000    2.94000006
   16.72222328   81.48190308    2.84999990    2.94000006
   16.72555542   81.11869812    3.01999998    2.94000006
   16.72888947   86.47869873    3.80999994    2.94000006
   16.73194504   80.62979889    4.67999983    2.91000009
   16.73527718   85.36650085    4.82999992    2.91000009
   16.73833275   87.17569733    3.84999990    2.93000007
   16.74166679   86.63510132    3.55999994    2.94000006
   16.74500084   82.73300171    3.41000009    2.94000006
   16.74805641   74.53430176    3.28999996    2.94000006
   16.75138855   89.38909912    3.26999998    2.93000007
   16.75472260   82.49780273    3.23000002    2.94000006
   16.75944519   82.49780273    3.00000000    2.94000006
   16.76361084   81.12419891    2.94000006    2.94000006
   16.76388931   87.59819794    2.91000009    2.94000006
   16.76722145   82.30120087    2.93000007    2.94000006
   16.77055550   88.53500366    2.93000007    2.94000006
   16.77361107   77.69069672    2.98000002    2.94000006
   16.77694511   81.55139923    2.94000006    2.94000006
   16.78027725   85.21800232    2.96000004    2.96000004
   16.78333282   96.42739868    3.20000005    2.93000007
   16.78666687   91.47000122    3.30999994    2.93000007
   16.78999901   82.09230042    3.26999998    2.93000007
   16.79305458   82.43409729    3.43000007    2.96000004
   16.79638863   91.18699646    3.14000010    2.93000007
   16.79972076   88.40940094    3.28999996    2.96000004
   16.80277634   82.21320343    2.84999990    2.94000006
   16.80611038   79.50430298    2.55999994    2.96000004
   16.81055450   79.50430298    2.66000009    2.94000006
   16.81472206   83.47399902    2.71000004    2.94000006
   16.81777954   84.21140289    2.78999996    2.94000006
   16.82111168   85.83129883    2.78999996    2.96000004
   16.82444572   82.60500336    2.69000006    2.94000006
   16.82750130   80.06369781    2.67000008    2.94000006
   16.83083344   81.38439941    2.73000002    2.96000004
   16.83416748   80.34700012    2.73000002    2.94000006
   16.83722305   83.00180054    2.69000006    2.94000006
   16.84055710   82.20310211    2.71000004    2.94000006
   16.84361267   83.35829926    2.71000004    2.94000006
   16.84694481   82.51290131    2.71000004    2.94000006
   16.85027885   84.83979797    2.76999998    2.94000006
   16.85333443   88.93900299    2.73000002    2.96000004
   16.85666656   85.06759644    2.64000010    2.96000004
   16.86166763   85.06759644    2.66000009    2.96000004
   16.86583328   86.15830231    2.51999998    2.94000006
   16.86916733   89.28929901    2.55999994    2.96000004
   16.87222290   88.36579895    2.53999996    2.94000006
   16.87555504   86.37960052    2.57999992    2.96000004
   16.87888908   81.83090210    2.73000002    2.96000004
   16.88194466   85.62280273    2.80999994    2.96000004
   16.88527679   89.75620270    2.80999994    2.94000006
   16.88833237   85.29499817    2.80999994    2.94000006
   16.89166641   80.15429688    2.78999996    2.94000006
   16.89500046   89.77639771    2.89000010    2.94000006
   16.89805603   82.30870056    2.89000010    2.94000006
   16.90138817   82.36930084    2.78999996    2.94000006
   16.90472221   85.32530212    2.64000010    2.94000006
   16.90777779   82.71350098    2.61999989    2.96000004
   16.91277695   82.71350098    2.64000010    2.96000004
   16.91694450   80.38410187    2.67000008    2.96000004
   16.92027664   77.66030121    2.71000004    2.94000006
   16.92361069   81.99800110    2.69000006    2.94000006
   16.92666626   86.91729736    2.57999992    2.96000004
   16.93000031   81.56909943    2.42000008    2.96000004
   16.93305397   80.79329681    2.44000006    2.96000004
   16.93638802   80.54419708    2.67000008    2.94000006
   16.93972206   85.91510010    2.50000000    2.96000004
   16.94277763   84.51830292    2.30999994    2.96000004
   16.94610977   84.93820190    2.23000002    2.96000004
   16.94944382   87.12779999    2.26999998    2.96000004
   16.95250130   81.05500031    2.26999998    2.96000004
   16.95583344   87.29109955    2.32999992    2.96000004
   16.95888901   79.22339630    2.36999989    2.96000004
   16.98055649   84.96250153    2.51999998    2.96000004
   16.98083305   79.21179962    2.51999998    2.96000004
   16.98416710   88.41909790    2.53999996    2.96000004
   16.98750114   81.77290344    2.59999990    2.96000004
   16.99055672   85.29830170    2.73000002    2.96000004
   16.99388885   83.66310120    2.86999989    2.94000006
   16.99694443   85.99649811    3.09999990    2.94000006
   17.00027847   89.22219849    3.32999992    2.94000006
   17.00361061   79.56430054    3.34999990    2.94000006
   17.00666618   85.08360291    3.30999994    2.94000006
   17.01000023   85.79360199    3.59999990    2.94000006
   17.01527786   85.79360199    4.11999989    2.94000006
   17.01944351   87.42050171    4.15999985    2.93000007
   17.02277756   85.04360199    4.26000023    2.91000009
   17.02583313   83.80400085    4.00000000    2.93000007
   17.02916718   81.83309937    3.61999989    2.94000006
   17.03027725   86.59570313    3.36999989    2.94000006
   17.03277779   79.31790161    3.34999990    2.94000006
   17.03610992   88.00630188    3.20000005    2.93000007
   17.03916550   78.00399780    3.16000009    2.94000006
   17.04249954   86.27359772    3.28999996    2.94000006
   17.04583359   77.84809875    3.16000009    2.94000006
   17.04888916   81.64009857    3.25000000    2.94000006
   17.05222130   82.62570190    3.64000010    2.94000006
   17.05527687   83.58350372    3.89000010    2.93000007
   17.05861092   83.13030243    3.95000005    2.93000007
   17.06194305   83.69750214    3.91000009    2.93000007
   17.06666756   83.69750214    4.57999992    2.93000007
   17.07055664   83.91269684    4.86999989    2.93000007
   17.07389069   81.30950165    4.90999985    2.89000010
   17.07722282   85.91490173    4.90999985    2.86999989
   17.08027840   79.75550079    4.90999985    2.91000009
   17.08083344   85.10620117    4.90999985    2.91000009
   17.08416748   83.68430328    4.90999985    2.91000009
   17.08722305   76.89489746    4.90999985    2.93000007
   17.09055710   79.25650024    4.90999985    2.93000007
   17.09388924   81.60209656    4.90999985    2.91000009
   17.09694481   85.37709808    4.90999985    2.91000009
   17.10027885   87.19640350    4.90999985    2.91000009
   17.10333443   88.02330017    4.90999985    2.89000010
   17.10666656   79.51640320    4.90999985    2.93000007
   17.11000061   81.02380371    4.13999987    2.93000007
   17.11305618   78.28479767    4.32999992    2.93000007
   17.11777878   78.28479767    4.23999977    2.93000007
   17.12194443   83.48359680    3.95000005    2.93000007
   17.12500000   81.52320099    3.76999998    2.94000006
   17.12833405   83.39109802    3.59999990    2.94000006
   17.13027763   82.70189667    3.51999998    2.94000006
   17.13194466   78.81999969    3.68000007    2.94000006
   17.13527679   77.62909698    4.05999994    2.93000007
   17.13833237   93.86710358    3.99000001    2.93000007
   17.14166641   80.28800201    4.03999996    2.91000009
   17.14500046   83.57209778    3.91000009    2.94000006
   17.14805603   80.00890350    3.76999998    2.94000006
   17.15138817   75.88359833    3.99000001    2.94000006
   17.15472221   89.60610199    4.23999977    2.94000006
   17.15777779   83.43900299    4.69999981    2.93000007
   17.16110992   89.47470093    4.90999985    2.91000009
   17.16416550   85.69640350    4.90999985    2.89000010
   17.16888809   85.69640350    4.90999985    2.89000010
   17.17305565   86.31420135    4.90999985    2.91000009
   17.17638779   80.69989777    4.80999994    2.91000009
   17.17944336   83.96549988    4.90999985    2.89000010
   17.18027687   81.51470184    4.90999985    2.91000009
   17.18305397   82.08969879    4.90999985    2.89000010
   17.18638802   85.98110199    4.90999985    2.93000007
   17.18944359   82.12100220    4.90999985    2.91000009
   17.19277763   88.20449829    4.90999985    2.89000010
   17.19610977   88.40619659    4.90999985    2.91000009
   17.19916534   90.16179657    4.90999985    2.84999990
   17.20250130   91.81839752    4.90999985    2.84999990
   17.20583344   90.02690125    4.90999985    2.91000009
   17.20888901   87.37390137    4.90999985    2.91000009
   17.21222305   92.48370361    4.90999985    2.91000009
   17.21527863   87.16819763    4.90999985    2.91000009
   17.22000122   87.16819763    3.80999994    2.93000007
   17.22416687   79.46489716    3.80999994    2.94000006
   17.22750092   88.52839661    3.34999990    2.94000006
   17.23055649   84.84149933    3.30999994    2.94000006
   17.23111153   89.13719940    3.30999994    2.94000006
   17.23444557   77.03649902    3.39000010    2.93000007
   17.23750114   83.35449982    3.26999998    2.94000006
   17.24083328   83.97949982    3.00000000    2.94000006
   17.24416733   79.25289917    2.96000004    2.94000006
   17.24722290   80.39600372    2.86999989    2.94000006
   17.25055504   78.23570251    2.64000010    2.94000006
   17.25361061   84.18389893    2.53999996    2.96000004
   17.25694466   79.20079803    2.57999992    2.96000004
   17.26027870   87.24690247    2.61999989    2.96000004
   17.26333427   86.63020325    2.76999998    2.96000004
   17.26666641   78.24060059    2.78999996    2.94000006
   17.27138901   78.24060059    2.67000008    2.94000006
   17.27555466   86.16480255    2.73000002    2.94000006
   17.27861023   81.53220367    2.66000009    2.94000006
   17.28055573   84.66000366    2.66000009    2.94000006
   17.28222275   88.12750244    2.69000006    2.94000006
   17.28555489   87.07019806    2.71000004    2.94000006
   17.28861046   81.10489655    2.80999994    2.94000006
   17.29194450   85.03209686    2.86999989    2.94000006
   17.29527664   77.23729706    2.86999989    2.96000004
   17.29833221   77.23210144    2.75000000    2.94000006
   17.30166626   85.02580261    2.66000009    2.94000006
   17.30499840   82.78340149    2.67000008    2.96000004
   17.30805397   86.71459961    2.78999996    2.94000006
   17.31138802   85.49400330    2.73000002    2.94000006
   17.31444359   81.07769775    2.69000006    2.94000006
   17.31777954   87.61199951    2.69000006    2.94000006
   17.32250023   87.61199951    2.51999998    2.96000004
   17.32666779   82.04149628    2.42000008    2.96000004
   17.32972336   80.62249756    2.55999994    2.94000006
   17.33055687   89.65200043    2.59999990    2.96000004
   17.33333397   79.31390381    2.91000009    2.94000006
   17.33666801   87.75890350    2.76999998    2.94000006
   17.33972359   80.02610016    3.03999996    2.94000006
   17.34305573   77.10679626    3.34999990    2.94000006
   17.34638977   79.41880035    2.86999989    2.94000006
   17.34944534   80.69719696    2.75000000    2.94000006
   17.35277748   83.22070313    2.61999989    2.96000004
   17.35611153   82.54740143    2.51999998    2.96000004
   17.35916710   82.90809631    2.48000002    2.96000004
   17.36250114   95.06860352    2.42000008    2.96000004
   17.36555672   84.25170135    2.36999989    2.96000004
   17.36888885   93.83390045    2.40000010    2.96000004
   17.37361145   93.83390045    2.46000004    2.94000006
   17.37777710   78.88369751    2.50000000    2.96000004
   17.38055611   88.80049896    2.66000009    2.96000004
   17.38138962   78.75710297    2.69000006    2.93000007
   17.38472176   87.37969971    2.67000008    2.94000006
   17.38777733   94.07949829    2.71000004    2.96000004
   17.39111137   87.31150055    2.86999989    2.94000006
   17.39444351   86.95549774    2.93000007    2.94000006
   17.39749908   86.38559723    2.89000010    2.94000006
   17.40083313   84.55599976    2.89000010    2.94000006
   17.40416718   78.68270111    2.89000010    2.94000006
   17.40722275   84.75749969    2.96000004    2.94000006
   17.41055489   81.63909912    3.00000000    2.93000007
   17.41361046   82.61879730    3.03999996    2.94000006
   17.41694450   82.10639954    2.96000004    2.93000007
   17.42027664   80.72329712    2.75000000    2.94000006
   17.42472076   80.72329712    2.73000002    2.94000006
   17.42888832   87.47399902    2.75000000    2.94000006
   17.43083191   79.91480255    2.78999996    2.94000006
   17.43249893   88.03230286    2.82999992    2.94000006
   17.43583298   79.07869720    2.89000010    2.94000006
   17.43888855   82.35279846    2.91000009    2.94000006
   17.44222069   87.97409821    2.86999989    2.94000006
   17.44555473   87.08499908    2.80999994    2.94000006
   17.44861031   89.85959625    2.75000000    2.94000006
   17.45194435   86.23899841    2.64000010    2.94000006
   17.45527840   89.12180328    2.51999998    2.96000004
   17.45833397   84.02899933    2.44000006    2.94000006
   17.46166801   87.34069824    2.36999989    2.96000004
   17.46472359   78.38179779    2.32999992    2.96000004
   17.46805573   90.35019684    2.34999990    2.96000004
   17.47138977   86.33850098    2.44000006    2.94000006
   17.47611237   86.33850098    2.50000000    2.94000006
   17.48027802   87.11979675    2.51999998    2.94000006
   17.48083305   88.92459869    2.51999998    2.96000004
   17.48361206   92.29139709    2.55999994    2.94000006
   17.48694420   85.68379974    2.66000009    2.94000006
   17.48999977   83.09559631    2.80999994    2.94000006
   17.49333382   88.12999725    2.94000006    2.94000006
   17.49666786   86.19200134    3.05999994    2.93000007
   17.49972153   83.28440094    3.07999992    2.94000006
   17.50305557   83.11560059    3.21000004    2.94000006
   17.50638962   82.46869659    3.51999998    2.94000006
   17.50944519   83.13189697    3.50000000    2.94000006
   17.51277733   83.27290344    3.25000000    2.94000006
   17.51583290   85.63639832    3.14000010    2.93000007
   17.51916695   83.48300171    3.18000007    2.94000006
   17.52249908   75.35019684    3.23000002    2.93000007
   17.52722168   75.35019684    3.28999996    2.93000007
   17.53138924   82.88800049    3.26999998    2.94000006
   17.53444481   87.94899750    3.21000004    2.94000006
   17.53777695   80.03739929    3.18000007    2.93000007
   17.54111099   87.12359619    3.16000009    2.93000007
   17.54416656   82.12049866    3.07999992    2.94000006
   17.54749870   82.70020294    2.96000004    2.94000006
   17.55083275   89.96779633    2.89000010    2.94000006
   17.55388832   84.03340149    2.82999992    2.94000006
   17.55722237   84.93569946    2.84999990    2.94000006
   17.56027794   88.83580017    2.91000009    2.94000006
   17.56361008   79.35970306    2.96000004    2.93000007
   17.56694603   80.69080353    2.89000010    2.94000006
   17.57000160   82.92680359    2.78999996    2.94000006
   17.57333374   85.33280182    2.82999992    2.94000006
   17.57833481   85.33280182    2.86999989    2.94000006
   17.58250046   86.18029785    2.76999998    2.94000006
   17.58583450   82.73169708    2.73000002    2.94000006
   17.58889008   84.31809998    2.73000002    2.94000006
   17.59222221   90.02559662    2.69000006    2.94000006
   17.59555626   82.51119995    2.71000004    2.94000006
   17.59861183   89.42209625    2.73000002    2.94000006
   17.60194397   88.12449646    2.76999998    2.94000006
   17.60499954   75.65540314    2.82999992    2.94000006
   17.60833359   85.83159637    2.93000007    2.94000006
   17.61166763   83.72509766    2.98000002    2.94000006
   17.61472321   87.34899902    2.98000002    2.94000006
   17.61805534   82.02739716    2.94000006    2.94000006
   17.62138939   78.40380096    2.94000006    2.94000006
   17.62444496   81.52050018    2.82999992    2.94000006
   17.62944412   81.52050018    2.69000006    2.94000006
   17.63361168   81.65280151    2.66000009    2.96000004
   17.63694382   85.69889832    2.73000002    2.94000006
   17.64027786   83.11160278    2.76999998    2.94000006
   17.64333344   77.71510315    2.84999990    2.96000004
   17.64666748   78.73860168    2.80999994    2.94000006
   17.64999962   80.89800262    2.73000002    2.94000006
   17.65305519   81.08670044    2.69000006    2.94000006
   17.65638924   85.62000275    2.69000006    2.94000006
   17.65972137   85.68409729    2.57999992    2.94000006
   17.66277695   76.98179626    2.64000010    2.94000006
   17.66611099   77.49379730    2.75000000    2.94000006
   17.66916656   74.27200317    2.75000000    2.94000006
   17.67249870   83.21019745    2.69000006    2.94000006
   17.67583275   81.56860352    2.51999998    2.96000004
   17.68083191   81.56860352    2.51999998    2.94000006
   17.68499947   90.90820313    2.64000010    2.94000006
   17.68805504   86.43129730    2.73000002    2.94000006
   17.69138718   89.46980286    2.78999996    2.94000006
   17.69444275   77.52909851    2.86999989    2.94000006
   17.69777679   80.01450348    2.91000009    2.94000006
   17.70111275   83.24909973    2.91000009    2.94000006
   17.70416832   76.85649872    2.91000009    2.94000006
   17.70750046   84.94940186    2.80999994    2.94000006
   17.71083450   84.26380157    2.67000008    2.94000006
   17.71389008   78.01640320    2.69000006    2.94000006
   17.71722221   80.56349945    2.71000004    2.94000006
   17.72055626   78.87619781    2.67000008    2.94000006
   17.72361183   85.06759644    2.59999990    2.94000006
   17.72694588   81.24819946    2.55999994    2.96000004
   17.73194504   81.24819946    2.46000004    2.94000006
   17.73611069   78.91609955    2.46000004    2.96000004
   17.73916626   83.62169647    2.42000008    2.96000004
   17.74250031   80.86329651    2.36999989    2.96000004
   17.74583435   79.56600189    2.42000008    2.96000004
   17.74888992   77.51000214    2.53999996    2.96000004
   17.75222206   81.63210297    2.57999992    2.94000006
   17.75527763   84.09999847    2.59999990    2.94000006
   17.75861168   73.16529846    2.64000010    2.94000006
   17.76194382   77.01750183    4.55999994    2.96000004
   17.76499939   75.03610229    4.90999985    2.98000002
   17.76833344   -1.00000000    4.90999985    2.50000000
   17.77166557   94.90809631    4.90999985    1.80999994
   17.77472115   92.82700348    4.90999985    1.80999994
   17.77805519   88.73739624    4.90999985    2.67000008
   17.78305435   88.73739624    4.90999985    2.84999990
   17.78722191   81.28489685    4.90999985    2.76999998
   17.79055595   83.80020142    4.90999985    2.84999990
   17.79361153   79.48799896    4.26000023    2.94000006
   17.79694366   77.36139679    2.67000008    2.94000006
   17.79999924   79.92970276    2.51999998    2.94000006
   17.80333328   77.66619873    2.53999996    2.94000006
   17.80666542   78.87599945    2.51999998    2.94000006
   17.80972099   80.47470093    2.40000010    2.96000004
   17.81305504   82.62830353    2.36999989    2.94000006
   17.81638718   78.16560364    2.36999989    2.94000006
   17.81944466   86.96579742    2.28999996    2.96000004
   17.82277870   89.42520142    2.44000006    2.94000006
   17.82611275   81.82610321    2.50000000    2.94000006
   17.82916832   77.87390137    2.55999994    2.94000006
   17.83416748   77.87390137    2.53999996    2.94000006
   17.83833313   92.79830170    2.46000004    2.94000006
   17.84166718   85.41049957    2.34999990    2.94000006
   17.84472275   88.84870148    2.39000010    2.94000006
   17.84805679   94.50730133    2.44000006    2.96000004
   17.85138893   78.42739868    2.51999998    2.94000006
   17.85444450   83.73829651    2.57999992    2.94000006
   17.85777855   80.70200348    2.55999994    2.94000006
   17.86111069   81.69560242    2.53999996    2.94000006
   17.86416626   86.55670166    2.51999998    2.94000006
   17.86750031   91.12210083    2.55999994    2.96000004
   17.87055588   86.60410309    2.67000008    2.94000006
   17.87388992   83.58460236    2.91000009    2.94000006
   17.87722206   79.38999939    3.11999989    2.93000007
   17.88027763   79.69689941    3.34999990    2.93000007
   17.88555527   79.69689941    3.03999996    2.94000006
   17.88972282   77.36630249    3.00000000    2.94000006
   17.89277840   85.16100311    4.01999998    2.89000010
   17.89611053  107.69100189    4.90999985    2.73000002
   17.89916611   87.87580109    4.90999985    2.55999994
   17.90250015   96.02600098    4.90999985    2.55999994
   17.90583229  108.16600037    4.90999985    2.67000008
   17.90888786   87.89160156    4.90999985    2.42000008
   17.91222191  176.53100586    4.90999985    2.53999996
   17.91555595  272.03500366    4.90999985    2.34999990
   17.91860962  181.13900757    4.90999985    1.94000006
   17.92194366  114.60299683    4.90999985    2.09999990
   17.92499924  115.98200226    4.90999985    2.09999990
   17.92833328   80.98259735    4.90999985    2.57999992
   17.93166542   83.39839935    2.34999990    2.96000004
   17.93666649   83.39839935    2.40000010    2.96000004
   17.94083214   83.53659821    2.39000010    2.96000004
   17.94388771   81.36679840    2.36999989    2.96000004
   17.94722176   84.95339966    2.36999989    2.96000004
   17.95055580   76.51129913    2.32999992    2.96000004
   17.95361137   80.35430145    2.23000002    2.96000004
   17.95694542   82.01869965    2.23000002    2.96000004
   17.96027946   85.60279846    2.28999996    2.94000006
   17.96333504   80.08350372    2.23000002    2.96000004
   17.96666718   82.34079742    2.40000010    2.96000004
   17.96972275   82.50340271    2.48000002    2.96000004
   17.97305679   81.08879852    2.59999990    2.94000006
   17.97638893   79.18699646    2.59999990    2.96000004
   17.97944450   77.92189789    2.51999998    2.94000006
   18.00055504   77.92189789    1.91999996    2.98000002
   18.00472260   81.76999664    1.86000001    2.98000002
   18.00805473   80.42659760    1.86000001    2.98000002
   18.01111031   82.96489716    1.85000002    2.98000002
   18.01444435   82.79109955    1.85000002    2.98000002
   18.01777840   83.48570251    1.89999998    2.96000004
   18.02083397   77.68029785    1.91999996    2.98000002
   18.02416611   81.02249908    1.89999998    2.98000002
   18.02750015   78.20110321    1.91999996    2.98000002
   18.03055573   79.53050232    1.86000001    2.96000004
   18.03388786   84.28240204    1.88000000    2.98000002
   18.03694344   83.19239807    1.78999996    2.98000002
   18.04027748   78.29789734    1.71000004    2.98000002
   18.04361153   75.59889984    1.69000006    3.00000000
   18.04666710   85.85430145    1.64999998    2.98000002
   18.04805565   84.37300110    1.71000004    2.98000002
   18.05222130   84.37300110    1.85000002    2.96000004
   18.05638885   96.54139709    1.89999998    2.98000002
   18.05972099   96.78340149    1.94000006    2.98000002
   18.06277657   88.63659668    2.00000000    2.98000002
   18.06611061   82.26660156    2.05999994    2.98000002
   18.06916809   92.14379883    2.05999994    2.98000002
   18.07250023   84.24030304    2.00000000    2.98000002
   18.07583427   84.79389954    1.98000002    2.98000002
   18.07888985   81.04519653    2.28999996    2.96000004
   18.08222389   85.78639984    2.39000010    2.98000002
   18.08555603   92.61499786    3.11999989    2.96000004
   18.08861160   82.93070221    3.59999990    2.96000004
   18.09194565   79.89600372    4.80999994    2.94000006
   18.09500122   85.64510345    2.71000004    2.96000004
   18.09805679   88.07939911    2.75000000    2.96000004
   18.09889030   84.88259888    2.76999998    2.96000004
   18.10333443   84.88259888    2.69000006    2.96000004
   18.10750008   97.88749695    3.39000010    2.96000004
   18.11083412   90.55000305    4.90999985    2.75000000
   18.11388969   86.65480042    4.90999985    2.91000009
   18.11722183   99.69609833    4.90999985    2.44000006
   18.12055588  119.62599945    4.90999985    2.46000004
   18.12361145   -1.00000000    4.90999985    1.64999998
   18.12694550   -1.00000000    4.90999985    1.76999998
   18.13027763   -1.00000000    4.90999985    1.38000000
   18.13333321   -1.00000000    4.90999985    0.52999997
   18.13666725   -1.00000000    4.90999985    1.07000005
   18.13972282   97.83010101    4.90999985    2.34999990
   18.14305496   97.40329742    4.90999985    2.55999994
   18.14638901   89.08209991    4.90999985    2.94000006
   18.14805603   86.59770203    3.46000004    2.94000006
   18.14999962   88.93119812    3.48000002    2.93000007
   18.15472221   88.93119812    3.75000000    2.93000007
   18.15861130   81.73739624    3.97000003    2.93000007
   18.16194344   87.11389923    3.89000010    2.93000007
   18.16527748   78.22250366    4.09999990    2.93000007
   18.16833305   91.97100067    4.90999985    2.91000009
   18.17166519   82.00689697    4.90999985    2.91000009
   18.17499924   83.32060242    4.90999985    2.93000007
   18.17805481   88.16400146    4.90999985    2.93000007
   18.18138885   81.68240356    4.90999985    2.94000006
   18.18444443   79.25180054    4.19999981    2.93000007
   18.18777657   77.21600342    3.61999989    2.94000006
   18.19111061   82.82350159    3.57999992    2.93000007
   18.19416618   79.72789764    3.32999992    2.93000007
   18.19749832   80.55210114    3.18000007    2.94000006
   18.19805527   83.69309998    3.18000007    2.94000006
   18.20111275   79.33159637    3.05999994    2.93000007
   18.20583344   79.33159637    2.78999996    2.94000006
   18.21000099   84.46720123    2.67000008    2.94000006
   18.21305656   81.92829895    2.61999989    2.94000006
   18.21638870   82.21779633    2.55999994    2.94000006
   18.21972275   84.97769928    2.50000000    2.96000004
   18.22277832   91.50569916    2.53999996    2.96000004
   18.22611237   92.97039795    2.59999990    2.96000004
   18.22916794   94.20490265    2.71000004    2.96000004
   18.23250008   89.55470276    2.51999998    2.94000006
   18.23583412   87.28220367    2.53999996    2.96000004
   18.23888969   89.80960083    2.75000000    2.94000006
   18.24222183   91.38140106    3.16000009    2.94000006
   18.24555588   88.15059662    2.78999996    2.96000004
   18.24805641   84.40149689    2.67000008    2.96000004
   18.24916649   83.83660126    2.75000000    2.96000004
   18.25250053   92.98799896    3.72000003    2.93000007
   18.25694466   92.98799896    4.40999985    2.86999989
   18.26111031  221.12899780    4.90999985    2.86999989
   18.26444435  100.66500092    4.90999985    2.84999990
   18.26749992  210.35299683    4.90999985    2.78999996
   18.27083397  137.08099365    4.90999985    1.85000002
   18.27388954  101.74400330    4.90999985    2.69000006
   18.27722168   91.72239685    4.90999985    2.96000004
   18.28055573   86.28189850    4.90999985    2.94000006
   18.28361130   97.09220123    4.90999985    2.96000004
   18.28694344   81.10399628    4.90999985    2.98000002
   18.29027748   97.31749725    4.61999989    2.96000004
   18.29333305   88.63240051    4.90999985    2.94000006
   18.29666710   86.46060181    4.40999985    2.94000006
   18.29805565   88.75789642    4.01999998    2.94000006
   18.30027771   85.45230103    3.03999996    2.96000004
   18.30360985   81.22540283    2.67000008    2.96000004
   18.30805397   81.22540283    2.69000006    2.94000006
   18.31222153   88.87500000    2.94000006    2.94000006
   18.31555557   86.12300110    2.82999992    2.94000006
   18.31861115   84.61840057    2.76999998    2.94000006
   18.32194519   83.22619629    2.73000002    2.94000006
   18.32527924   83.13919830    2.76999998    2.94000006
   18.32833481   80.36820221    2.80999994    2.94000006
   18.33166695   84.98010254    2.86999989    2.94000006
   18.33500099   78.60720062    2.86999989    2.94000006
   18.33805656   81.18129730    2.98000002    2.94000006
   18.34138870   92.63960266    3.00000000    2.94000006
   18.34444427   84.48780060    3.09999990    2.94000006
   18.34777832   89.27259827    3.20000005    2.93000007
   18.34833336   78.85209656    3.18000007    2.93000007
   18.35166740   91.47070313    3.18000007    2.93000007
   18.35472298   82.00789642    3.14000010    2.94000006
   18.35944557   82.00789642    2.98000002    2.94000006
   18.36333466   91.20210266    3.00000000    2.93000007
   18.36666679   79.66539764    2.96000004    2.94000006
   18.37000084   93.97389984    2.91000009    2.94000006
   18.37305641   83.29869843    3.03999996    2.94000006
   18.37638855   86.86219788    3.26999998    2.93000007
   18.37972260   78.84619904    3.30999994    2.93000007
   18.38277817   84.56800079    3.23000002    2.93000007
   18.38611031   79.90239716    3.14000010    2.93000007
   18.38916588   80.05249786    3.16000009    2.93000007
   18.39249992   82.84169769    3.20000005    2.93000007
   18.39583397   85.23719788    3.16000009    2.94000006
   18.39833260   84.54229736    3.01999998    2.94000006
   18.39944458   85.46230316    2.98000002    2.94000006
   18.40250015   80.24069977    2.93000007    2.93000007
   18.40583229   99.21269989    2.93000007    2.94000006
   18.41055489   99.21269989    3.07999992    2.93000007
   18.41472244   79.83760071    3.09999990    2.93000007
   18.41777802   83.81330109    3.11999989    2.94000006
   18.42111015   83.97599792    2.98000002    2.94000006
   18.42444420   83.94529724    2.96000004    2.94000006
   18.42749977   86.63059998    2.94000006    2.94000006
   18.43083191   87.78540039    2.98000002    2.94000006
   18.43388748   82.80750275    3.01999998    2.94000006
   18.43722153   85.19329834    3.05999994    2.94000006
   18.44055557   80.81289673    3.01999998    2.93000007
   18.44361115   79.83719635    3.07999992    2.94000006
   18.44694328   83.08630371    3.09999990    2.93000007
   18.44833183   84.76180267    3.05999994    2.94000006
   18.45055580   83.55069733    3.00000000    2.93000007
   18.45361137   82.22730255    3.05999994    2.93000007
   18.45694542   79.97650146    3.03999996    2.93000007
   18.46166801   79.97650146    3.05999994    2.94000006
   18.46583366   81.03240204    3.00000000    2.94000006
   18.46916771   77.70469666    3.03999996    2.94000006
   18.47222328   77.98539734    3.05999994    2.94000006
   18.47555542   81.87120056    3.07999992    2.94000006
   18.47861099   81.17549896    3.09999990    2.94000006
   18.48194504   84.67199707    3.16000009    2.94000006
   18.48527718   82.39360046    3.61999989    2.93000007
   18.48833275   88.86460114    4.90999985    2.91000009
   18.49166679   78.96050262    4.90999985    2.91000009
   18.49500084   81.15239716    4.90999985    2.91000009
   18.49805641   88.71279907    4.90999985    2.91000009
   18.49861145   80.54840088    4.90999985    2.91000009
   18.50194359   77.27110291    4.09999990    2.93000007
   18.50499916   81.71790314    4.90999985    2.94000006
   18.50833321   83.97290039    4.90999985    2.91000009
   18.51277733   83.97290039    4.90999985    2.93000007
   18.51694489   80.65090179    3.23000002    2.93000007
   18.52027702   79.06510162    3.30999994    2.93000007
   18.52333260   74.56569672    3.34999990    2.93000007
   18.52666664   80.13249969    3.57999992    2.93000007
   18.53000069   78.13189697    4.80999994    2.93000007
   18.53305435   83.43289948    4.67999983    2.91000009
   18.53638840   78.16069794    4.11999989    2.91000009
   18.53972244   78.41790009    3.75000000    2.93000007
   18.54277802   84.19020081    3.51999998    2.94000006
   18.54611015   81.53469849    3.59999990    2.93000007
   18.54861069   84.20760345    3.43000007    2.93000007
   18.54972076   81.61280060    3.41000009    2.93000007
   18.55277634   81.18470001    3.80999994    2.91000009
   18.55611038   83.29799652    4.26999998    2.93000007
   18.55944443   86.60060120    4.90999985    2.91000009
   18.56416512   86.60060120    4.86999989    2.89000010
   18.56805611   82.59359741    4.26000023    2.93000007
   18.57139015  100.93699646    4.90999985    2.71000004
   18.57472229   81.64179993    4.90999985    2.89000010
   18.57777786   86.80799866    4.90999985    2.93000007
   18.58111191   83.59909821    3.80999994    2.93000007
   18.58444595  100.98799896    3.80999994    2.93000007
   18.58750153   83.26380157    3.66000009    2.93000007
   18.59083366   85.69000244    3.76999998    2.93000007
   18.59416771   86.52989960    3.89000010    2.93000007
   18.59722328   84.13690186    3.80999994    2.93000007
   18.59861183   81.02159882    3.78999996    2.93000007
   18.60083389   82.66169739    3.78999996    2.93000007
   18.60388947   82.79499817    3.66000009    2.93000007
   18.60722351   79.29900360    3.72000003    2.93000007
   18.61055565   81.83850098    3.68000007    2.93000007
   18.61527824   81.83850098    3.55999994    2.93000007
   18.61944389   73.21199799    3.51999998    2.93000007
   18.62249947   84.67420197    3.45000005    2.93000007
   18.62583351   81.05609894    3.21000004    2.93000007
   18.62916756   82.47149658    3.26999998    2.93000007
   18.63222313   78.62879944    3.14000010    2.93000007
   18.63555527   81.20539856    3.14000010    2.94000006
   18.63861084   88.73059845    3.09999990    2.94000006
   18.64194489   90.21720123    3.09999990    2.94000006
   18.64527702   91.18659973    3.18000007    2.94000006
   18.64833260   93.33280182    3.21000004    2.93000007
   18.64888954   92.84359741    3.21000004    2.94000006
   18.65222168   80.99949646    3.21000004    2.93000007
   18.65527725   82.10880280    3.20000005    2.93000007
   18.65861130   88.31130219    3.14000010    2.93000007
   18.66194344   85.69319916    2.98000002    2.94000006
   18.66638756   85.69319916    2.94000006    2.94000006
   18.67055511   81.71610260    2.86999989    2.94000006
   18.67388916   80.95590210    2.73000002    2.94000006
   18.67694473   78.95020294    2.61999989    2.94000006
   18.68027687   83.77030182    2.73000002    2.94000006
   18.68333244   80.59940338    2.80999994    2.93000007
   18.68666649   86.07160187    2.86999989    2.94000006
   18.68999863   76.55200195    2.82999992    2.94000006
   18.69305420   80.66850281    3.61999989    2.94000006
   18.69638824   82.65750122    4.90999985    2.91000009
   18.69888878   88.89209747    4.90999985    2.89000010
   18.70000076   85.12239838    4.90999985    2.91000009
   18.70333481   89.96410370    4.90999985    2.86999989
   18.70639038   94.36579895    4.90999985    2.84999990
   18.70972252   99.83709717    4.90999985    2.61999989
   18.71305656  226.46899414    4.90999985    2.55999994
   18.71750069  226.46899414    4.90999985    2.46000004
   18.72166634   -1.00000000    4.90999985    1.80999994
   18.72500038  172.30799866    4.90999985    2.19000006
   18.72805595   97.61799622    4.90999985    2.53999996
   18.73139000   87.96700287    4.90999985    2.69000006
   18.73472214   99.44719696    4.90999985    2.75000000
   18.73777771   90.47129822    4.90999985    2.80999994
   18.74111176   83.78810120    4.90999985    2.78999996
   18.74444389   86.60649872    4.90999985    2.80999994
   18.74749947   86.59609985    4.90999985    2.86999989
   18.74888992   89.39119720    4.90999985    2.86999989
   18.75111198   89.17500305    4.90999985    2.86999989
   18.75444412  109.05200195    4.90999985    2.84999990
   18.75749969  366.13400269    4.90999985    2.64000010
   18.75972176   94.79879761    4.90999985    2.28999996
   18.75972176   90.47129822    4.90999985    2.80999994
   18.75972176   83.78810120    4.90999985    2.78999996
   18.76000023   86.60649872    4.90999985    2.80999994
   18.76000023   86.59609985    4.90999985    2.86999989
   18.76000023   89.17500305    4.90999985    2.86999989
   18.76027870  109.05200195    4.90999985    2.84999990
   18.76027870  366.13400269    4.90999985    2.64000010
   18.76027870   87.96700287    4.90999985    2.69000006
   18.76055527   99.44719696    4.90999985    2.75000000
   18.76250076   85.48760223    4.90999985    2.93000007
   18.76555634   94.86039734    4.90999985    2.78999996
   18.76888847   85.12409973    4.90999985    2.76999998
   18.77222252   90.05509949    4.90999985    2.76999998
   18.77527809   89.12609863    4.90999985    2.80999994
   18.77861023   88.97229767    4.90999985    2.86999989
   18.78194427   93.75319672    4.90999985    2.80999994
   18.78499985   92.98229980    4.90999985    2.78999996
   18.78916550   92.98229980    4.90999985    2.89000010
   18.79333305   85.86219788    4.90999985    2.84999990
   18.79666710   85.36070251    4.90999985    2.91000009
   18.79972076   85.83460236    4.90999985    2.86999989
   18.80305481   83.38279724    4.90999985    2.82999992
   18.80611038   92.99919891    4.90999985    2.86999989
   18.80944443  145.86900330    4.90999985    2.93000007
   18.81305504   -1.00000000    4.90999985    0.25000000
   18.81638718   73.50219727    4.90999985    0.55000001
   18.81944466   73.44539642    4.90999985    2.96000004
   18.82277870   83.81130219    3.53999996    2.94000006
   18.82583427   86.01249695    3.20000005    2.93000007
   18.82916832   83.76730347    3.28999996    2.93000007
   18.83250046   82.62689972    3.51999998    2.93000007
   18.83555603   79.93890381    3.50000000    2.93000007
   18.84027863   79.93890381    3.03999996    2.94000006
   18.84444427  197.47700500    2.69000006    2.94000006
   18.84777832   82.33650208    2.59999990    2.94000006
   18.85083389   82.07579803    2.51999998    2.94000006
   18.85416794   80.24500275    2.46000004    2.94000006
   18.85750008   80.81079865    2.48000002    2.94000006
   18.86027908   81.00119781    2.67000008    2.94000006
   18.86111069   82.47640228    2.69000006    2.94000006
   18.86444473   82.68840027    2.69000006    2.94000006
   18.86750031   76.66600037    3.32999992    2.94000006
   18.87083435   82.21209717    3.14000010    2.94000006
   18.87416649   82.02570343    3.18000007    2.93000007
   18.87722206   73.68000031    3.28999996    2.93000007
   18.88055611   84.32070160    3.30999994    2.93000007
   18.88388824   83.82420349    3.28999996    2.93000007
   18.88694382   82.97470093    3.16000009    2.94000006
   18.89166641   82.97470093    2.84999990    2.94000006
   18.89555550   85.67579651    2.94000006    2.94000006
   18.89888954   81.54709625    2.89000010    2.94000006
   18.90222168   82.56620026    2.96000004    2.94000006
   18.90527725   86.79709625    3.34999990    2.93000007
   18.90861130   84.98459625    3.64000010    2.93000007
   18.91027832   77.35600281    3.72000003    2.93000007
   18.91222191   77.95919800    3.75000000    2.93000007
   18.91555595   80.51599884    3.73000002    2.93000007
   18.91888809   76.42669678    3.57999992    2.93000007
   18.92194366   78.46080017    3.43000007    2.93000007
   18.92527771   79.08599854    3.53999996    2.93000007
   18.92833328   81.14669800    4.69999981    2.93000007
   18.93166542   78.20549774    4.90999985    2.89000010
   18.93499947   79.80879974    4.90999985    2.89000010
   18.93805504   80.38169861    4.90999985    2.89000010
   18.94277763   80.38169861    4.90999985    2.84999990
   18.94694328   77.12139893    4.90999985    2.86999989
   18.95000076   85.07900238    4.90999985    2.89000010
   18.95333481   76.40789795    4.90999985    2.86999989
   18.95666695   82.66649628    4.90999985    2.86999989
   18.95972252   85.59809875    4.90999985    2.86999989
   18.96027946   82.54570007    4.90999985    2.84999990
   18.96361160   82.82869720    4.90999985    2.91000009
   18.96694565   88.00700378    4.90999985    2.89000010
   18.97000122   89.28559875    4.90999985    2.89000010
   18.97333336   85.80039978    4.90999985    2.89000010
   18.97638893   84.04239655    4.90999985    2.91000009
   18.97972298   79.84980011    4.90999985    2.94000006
   18.98305511   79.28869629    1.61000001    2.96000004
   18.98611069   83.13089752    0.13000000    0.20999999
   18.98944473   80.45950317    0.13000000    0.20999999
   18.99388885   80.45950317    0.13000000    0.20999999
   19.01416588   82.68080139    0.13000000    0.20999999
   19.01749992   77.38670349    0.13000000    0.20999999
   19.02055550   85.60260010    0.13000000    0.20999999
   19.02388954   81.38580322    0.13000000    0.20999999
   19.02722168  125.05999756    0.13000000    0.20999999
   19.03027725   -1.00000000    0.13000000    0.20999999
   19.03361130   -1.00000000    0.13000000    0.20999999
   19.03694344   -1.00000000    0.13000000    0.20999999
   19.03999901   -1.00000000    0.13000000    0.20999999
   19.04944420   -1.00000000    0.13000000    0.20999999
   19.05249977   -1.00000000    0.13000000    0.20999999
   19.05583191   -1.00000000    0.13000000    0.20999999
   19.05916595   -1.00000000    0.13000000    0.20999999
   19.06222153   -1.00000000    0.13000000    0.20999999
   19.06583214   -1.00000000    0.13000000    0.20999999
   19.06888962   -1.00000000    0.13000000    0.20999999
   19.07222366   -1.00000000    0.13000000    0.20999999
   19.07527924   -1.00000000    0.13000000    0.20999999
   19.07861137   -1.00000000    0.13000000    0.20999999
   19.08194542   -1.00000000    0.13000000    0.20999999
   19.08500099   -1.00000000    0.13000000    0.20999999
   19.08833313   -1.00000000    0.13000000    0.20999999
   19.09166718   -1.00000000    0.13000000    0.20999999
   19.09638977   -1.00000000    0.13000000    0.20999999
   19.10055542   -1.00000000    0.13000000    0.20999999
   19.10388947   -1.00000000    0.13000000    0.20999999
   19.10722351  155.17999268    0.13000000    0.20999999
   19.11027908  102.58999634    0.13000000    0.20999999
   19.11361122  146.76100159    0.13000000    0.20999999
   19.11416626   97.59899902    0.13000000    0.20999999
   19.11694527  172.86399841    0.13000000    0.20999999
   19.12027740   -1.00000000    0.13000000    0.20999999
   19.12361145   97.87660217    0.13000000    0.20999999
   19.12666702  302.65399170    0.13000000    0.20999999
   19.13000107   -1.00000000    0.13000000    0.20999999
   19.13305473   86.24340057    0.13000000    0.20999999
   19.13638878  104.76699829    0.13000000    0.20999999
   19.13972282  108.05999756    0.13000000    0.20999999
   19.14277840  123.72299957    0.13000000    0.20999999
   19.14777756  123.72299957    0.13000000    0.20999999
   19.15194321   -1.00000000    0.13000000    0.20999999
   19.15499878   -1.00000000    0.13000000    0.20999999
   19.15833282  184.41400146    0.13000000    0.20999999
   19.16138840   -1.00000000    0.13000000    0.20999999
   19.16416550  116.46499634    0.13000000    0.20999999
   19.16499901   92.13529968    0.13000000    0.20999999
   19.16833305   94.03209686    0.13000000    0.20999999
   19.17166519   85.85130310    0.13000000    0.20999999
   19.17472076   94.28140259    0.13000000    0.20999999
   19.17805481   88.13410187    0.13000000    0.20999999
   19.18111038   94.52140045    0.13000000    0.20999999
   19.18444443   98.30100250    0.13000000    0.20999999
   19.18777657   94.67030334    0.13000000    0.20999999
   19.19083214   94.48249817    0.13000000    0.20999999
   19.19416618   91.29920197    0.13000000    0.20999999
   19.19888878   91.29920197    0.13000000    0.20999999
   19.20305634   80.07879639    0.13000000    0.20999999
   19.20611191   83.83789825    0.13000000    0.20999999
   19.20944595   84.23410034    0.13000000    0.20999999
   19.21277809   87.93419647    0.13000000    0.20999999
   19.21416664   86.08830261    0.13000000    0.20999999
   19.21638870   89.21920013    0.13000000    0.20999999
   19.21944427   88.56269836    0.13000000    0.20999999
   19.22277832   94.67759705    0.13000000    0.20999999
   19.22611237   85.94259644    0.13000000    0.20999999
   19.22916794   87.43499756    0.13000000    0.20999999
   19.23250008   84.78820038    0.13000000    0.20999999
   19.23555565   86.82350159    0.13000000    0.20999999
   19.23888969   86.39589691    0.13000000    0.20999999
   19.24222183   91.36360168    0.13000000    0.20999999
   19.24527740   91.01490021    0.13000000    0.20999999
   19.25000000   91.01490021    0.13000000    0.20999999
   19.25416756  100.80999756    0.13000000    0.20999999
   19.25749969   85.07260132    0.13000000    0.20999999
   19.26055527   84.62629700    0.13000000    0.20999999
   19.26388931   85.49949646    0.13000000    0.20999999
   19.26444435   83.99220276    0.13000000    0.20999999
   19.26777840   81.41449738    0.13000000    0.20999999
   19.27083397   90.76770020    0.13000000    0.20999999
   19.27416611   94.14150238    0.13000000    0.20999999
   19.27722168   84.88439941    0.13000000    0.20999999
   19.28055573   87.85690308    0.13000000    0.20999999
   19.28388786   80.66819763    0.13000000    0.20999999
   19.28694344   87.65280151    0.13000000    0.20999999
   19.29027748   71.83190155    0.13000000    0.20999999
   19.29361153   79.73850250    0.13000000    0.20999999
   19.29666710  113.34899902    0.13000000    0.20999999
   19.30138779  113.34899902    0.13000000    0.20999999
   19.30527687   95.71869659    0.13000000    0.20999999
   19.30861092   80.21459961    0.13000000    0.20999999
   19.31194305   84.88790131    0.13000000    0.20999999
   19.31444359   92.00070190    0.13000000    0.20999999
   19.31555557   82.41870117    0.13000000    0.20999999
   19.31861115   81.83080292    0.13000000    0.20999999
   19.32194519   86.75070190    0.13000000    0.20999999
   19.32500076   82.84929657    0.13000000    0.20999999
   19.32833481   79.69879913    0.13000000    0.20999999
   19.33166695   91.28119659    0.13000000    0.20999999
   19.33472252   88.66719818    0.13000000    0.20999999
   19.33805656   82.25679779    0.13000000    0.20999999
   19.34138870   97.35910034    0.13000000    0.20999999
   19.34444427   84.43370056    0.13000000    0.20999999
   19.34777832   91.78500366    0.13000000    0.20999999
   19.35639000   -1.00000000    0.13000000    0.20999999
   19.35972214   -1.00000000    0.13000000    0.20999999
   19.36305618   82.65160370    0.13000000    0.20999999
   19.36444473   71.88310242    0.13000000    0.20999999
   19.36666679   93.00229645    0.13000000    0.20999999
   19.36972237   85.06990051    0.13000000    0.20999999
   19.37305641   83.15560150    0.13000000    0.20999999
   19.37638855   88.31770325    0.13000000    0.20999999
   19.37944412   85.99079895    0.13000000    0.20999999
   19.38277817   80.10610199    0.13000000    0.20999999
   19.38583374   88.17189789    0.13000000    0.20999999
   19.38916588   83.94439697    0.13000000    0.20999999
   19.39249992   82.81710052    0.13000000    0.20999999
   19.39555550   86.34870148    0.13000000    0.20999999
   19.39888954   80.86190033    0.13000000    0.20999999
   19.40361023   80.86190033    0.13000000    0.20999999
   19.40777779   90.12069702    0.13000000    0.20999999
   19.41110992   91.70179749    0.13000000    0.20999999
   19.41416550   82.33630371    0.13000000    0.20999999
   19.41472244   88.01229858    0.13000000    0.20999999
   19.41805458   79.35600281    0.13000000    0.20999999
   19.42111015   84.05539703    0.13000000    0.20999999
   19.42444420   86.35299683    0.13000000    0.20999999
   19.42777634   76.76640320    0.13000000    0.20999999
   19.43083191   84.42199707    0.13000000    0.20999999
   19.43416595   82.57800293    0.13000000    0.20999999
   19.43722153   88.40840149    0.13000000    0.20999999
   19.44055557   87.37290192    0.13000000    0.20999999
   19.44388771   85.73470306    0.13000000    0.20999999
   19.44694328   87.26010132    0.13000000    0.20999999
   19.45027924   89.24510193    0.13000000    0.20999999
   19.45472336   89.24510193    0.13000000    0.20999999
   19.45888901   90.34459686    0.13000000    0.20999999
   19.46222305   81.96440125    0.13000000    0.20999999
   19.46472359   87.46869659    0.13000000    0.20999999
   19.46583366   85.48789978    0.13000000    0.20999999
   19.46888924   84.79930115    0.13000000    0.20999999
   19.47222328   84.49109650    0.13000000    0.20999999
   19.47555542   81.03029633    0.13000000    0.20999999
   19.47861099   89.17520142    0.13000000    0.20999999
   19.48194504   82.65380096    0.13000000    0.20999999
   19.48500061   85.49530029    0.13000000    0.20999999
   19.48833275   88.34709930    0.13000000    0.20999999
   19.49166679  101.92900085    0.13000000    0.20999999
   19.49472237   83.26360321    0.13000000    0.20999999
   19.49805641   85.59140015    0.13000000    0.20999999
   19.50138855   83.55419922    0.13000000    0.20999999
   19.50611115   83.55419922    0.13000000    0.20999999
   19.51000023   81.15010071    0.13000000    0.20999999
   19.51333427   78.67610168    0.13000000    0.20999999
   19.51472282   82.54599762    0.13000000    0.20999999
   19.51694489   82.33560181    0.13000000    0.20999999
   19.52000046   85.75630188    0.13000000    0.20999999
   19.52333260   78.78009796    0.13000000    0.20999999
   19.52666664   83.15540314    0.13000000    0.20999999
   19.52972221   90.54280090    0.13000000    0.20999999
   19.53305435   84.63829803    0.13000000    0.20999999
   19.53638840   88.80329895    0.13000000    0.20999999
   19.53944397   85.35759735    0.13000000    0.20999999
   19.54277802   84.88050079    0.13000000    0.20999999
   19.54583359   83.74400330    0.13000000    0.20999999
   19.54916573   88.68499756    0.13000000    0.20999999
   19.55249977   93.10739899    0.13000000    0.20999999
   19.55722237   93.10739899    0.13000000    0.20999999
   19.56138802   90.55280304    0.13000000    0.20999999
   19.56444359  100.19799805    0.13000000    0.20999999
   19.56499863  109.13999939    0.13000000    0.20999999
   19.56833458   95.54840088    0.13000000    0.20999999
   19.57139015   95.92520142    0.13000000    0.20999999
   19.57472229  103.31900024    0.13000000    0.20999999
   19.57805634   86.61550140    0.13000000    0.20999999
   19.58139038  110.28600311    0.13000000    0.20999999
   19.58444595   83.64360046    0.13000000    0.20999999
   19.58777809   83.00630188    0.13000000    0.20999999
   19.59083366   82.02030182    0.13000000    0.20999999
   19.59416771   92.25489807    0.13000000    0.20999999
   19.59749985  115.95700073    0.13000000    0.20999999
   19.60055542   82.54969788    0.13000000    0.20999999
   19.60388947   91.74169922    0.13000000    0.20999999
   19.60833359   91.74169922    0.13000000    0.20999999
   19.61250114   72.14019775    0.13000000    0.20999999
   19.61499977   73.55059814    0.13000000    0.20999999
   19.61611176   78.71130371    0.13000000    0.20999999
   19.61944389   80.04669952    0.13000000    0.20999999
   19.62249947   87.38819885    0.13000000    0.20999999
   19.62583351   84.63269806    0.13000000    0.20999999
   19.62888908   81.42810059    0.13000000    0.20999999
   19.63222313   85.10089874    0.13000000    0.20999999
   19.63555527   79.07550049    0.13000000    0.20999999
   19.63861084   87.46540070    0.13000000    0.20999999
   19.64194489   85.38159943    0.13000000    0.20999999
   19.64527702   80.19550323    0.13000000    0.20999999
   19.64833260   79.29460144    0.13000000    0.20999999
   19.65166664   79.75859833    0.13000000    0.20999999
   19.65472221   80.21299744    0.13000000    0.20999999
   19.65944481   80.21299744    0.13000000    0.20999999
   19.66361046   83.45919800    0.13000000    0.20999999
   19.66499901   80.14150238    0.13000000    0.20999999
   19.66722107   80.26930237    0.13000000    0.20999999
   19.67055511   94.94899750    0.13000000    0.20999999
   19.67361069   88.16929626    0.13000000    0.20999999
   19.67694473   86.37180328    0.13000000    0.20999999
   19.68000031   78.79290009    0.13000000    0.20999999
   19.68333244   81.28880310    0.13000000    0.20999999
   19.68666649   86.25910187    0.13000000    0.20999999
   19.68972206   85.55090332    0.13000000    0.20999999
   19.69305420   80.92610168    0.13000000    0.20999999
   19.69638824   85.61109924    0.13000000    0.20999999
   19.69944382   85.36550140    0.13000000    0.20999999
   19.70277786   94.83439636    0.13000000    0.20999999
   19.70583344  141.02900696    0.13000000    0.20999999
   19.71472359   -1.00000000    0.13000000    0.20999999
   19.71833420  187.59100342    0.13000000    0.20999999
   19.72166634  183.01300049    0.13000000    0.20999999
   19.72500038   -1.00000000    0.13000000    0.20999999
   19.72805595  127.50399780    0.13000000    0.20999999
   19.73139000   83.37329865    0.13000000    0.20999999
   19.73444557   94.34269714    0.13000000    0.20999999
   19.73777771  130.50000000    0.13000000    0.20999999
   19.74111176   90.01129913    0.13000000    0.20999999
   19.74416733   87.81240082    0.13000000    0.20999999
   19.74749947   89.73509979    0.13000000    0.20999999
   19.75083351   82.40869904    0.13000000    0.20999999
   19.75388908   87.36239624    0.13000000    0.20999999
   19.75722313   90.72509766    0.13000000    0.20999999
   19.76194382   90.72509766    0.13000000    0.20999999
   19.76611137   89.91670227    0.13000000    0.20999999
   19.76916695   91.17949677    0.13000000    0.20999999
   19.77249908   99.70300293    0.13000000    0.20999999
   19.77583313   89.39140320    0.13000000    0.20999999
   19.77888870   84.94709778    0.13000000    0.20999999
   19.78222275  157.24499512    0.13000000    0.20999999
   19.78527641  154.93899536    0.13000000    0.20999999
   19.78861046   -1.00000000    0.13000000    0.20999999
   19.79194450  256.98901367    0.13000000    0.20999999
   19.79500008   -1.00000000    0.13000000    0.20999999
   19.79833221   -1.00000000    0.13000000    0.20999999
   19.80166626   -1.00000000    0.13000000    0.20999999
   19.80472183   -1.00000000    0.13000000    0.20999999
   19.80805397  169.90100098    0.13000000    0.20999999
   19.81305504  169.90100098    0.13000000    0.20999999
   19.81722260  185.15800476    0.13000000    0.20999999
   19.82055664   -1.00000000    0.13000000    0.20999999
   19.82361221   -1.00000000    0.13000000    0.20999999
   19.82694626   -1.00000000    0.13000000    0.20999999
   19.83000183   -1.00000000    0.13000000    0.20999999
   19.83333397   -1.00000000    0.13000000    0.20999999
   19.83666801   -1.00000000    0.13000000    0.20999999
   19.83972359   -1.00000000    0.13000000    0.20999999
   19.84305573   -1.00000000    0.13000000    0.20999999
   19.84638977   -1.00000000    0.13000000    0.20999999
   19.84944534   -1.00000000    0.13000000    0.20999999
   19.85277748   -1.00000000    0.13000000    0.20999999
   19.85583305   -1.00000000    0.13000000    0.20999999
   19.85916710   -1.00000000    0.13000000    0.20999999
   19.86416626   -1.00000000    0.13000000    0.20999999
   19.86833382   -1.00000000    0.13000000    0.20999999
   19.87166595   -1.00000000    0.13000000    0.20999999
   19.87472153  121.69200134    0.13000000    0.20999999
   19.87805557  128.53700256    0.13000000    0.20999999
   19.88138962  108.15100098    0.13000000    0.20999999
   19.88444519  133.86900330    0.13000000    0.20999999
   19.88777733  123.25800323    0.13000000    0.20999999
   19.89111137   -1.00000000    0.13000000    0.20999999
   19.89416695   -1.00000000    0.13000000    0.20999999
   19.89749908   -1.00000000    0.13000000    0.20999999
   19.90055466   -1.00000000    0.13000000    0.20999999
   19.90388870   -1.00000000    0.13000000    0.20999999
   19.90722275   -1.00000000    0.13000000    0.20999999
   19.91027832  154.31100464    0.13000000    0.20999999
   19.91555595  154.31100464    0.13000000    0.20999999
   19.91944313   91.44909668    0.13000000    0.20999999
   19.92277718   90.19080353    0.13000000    0.20999999
   19.92611122   90.15000153    0.13000000    0.20999999
   19.92916679   86.52919769    0.13000000    0.20999999
   19.93249893   85.79669952    0.13000000    0.20999999
   19.93583298  107.46800232    0.13000000    0.20999999
   19.93888855   86.89510345    0.13000000    0.20999999
   19.94222069  101.68299866    0.13000000    0.20999999
   19.94555473   -1.00000000    0.13000000    0.20999999
   19.94861031   -1.00000000    0.13000000    0.20999999
   19.95194435  103.38600159    0.13000000    0.20999999
   19.95499992  101.31400299    0.13000000    0.20999999
   19.95833397  107.60700226    0.13000000    0.20999999
   19.96166801  116.13999939    0.13000000    0.20999999
   19.96666718  116.13999939    0.13000000    0.20999999
   19.97083473  102.25099945    0.13000000    0.20999999
   19.97389030   87.57299805    0.13000000    0.20999999
   19.97722244   86.86959839    0.13000000    0.20999999
   19.98055649   84.10359955    0.13000000    0.20999999
   19.98361206   79.39659882    0.13000000    0.20999999
   19.98694420   81.54640198    0.13000000    0.20999999
   19.98999977   80.12509918    0.13000000    0.20999999
   19.99333382   80.74289703    0.13000000    0.20999999
   19.99666786   80.76020050    0.13000000    0.20999999
   19.99972153   -1.00000000    0.13000000    0.20999999
   20.00305557   74.40550232    0.13000000    0.20999999
   20.00638962  140.19099426    0.13000000    0.20999999
   20.00944519  182.19700623    0.13000000    0.20999999
   20.01277733   -1.00000000    0.13000000    0.20999999
   20.03333282   98.71099854    0.13000000    0.20999999
   20.03666687   -1.00000000    0.13000000    0.20999999
   20.03999901   -1.00000000    0.13000000    0.20999999
   20.04305458   -1.00000000    0.13000000    0.20999999
   20.04638863   -1.00000000    0.13000000    0.20999999
   20.04972076   -1.00000000    0.13000000    0.20999999
   20.05277634   -1.00000000    0.13000000    0.20999999
   20.05611038   -1.00000000    0.13000000    0.20999999
   20.05916595   94.97689819    0.13000000    0.20999999
   20.06250000   78.04010010    0.13000000    0.20999999
   20.06888962   78.04010010    0.13000000    0.20999999
   20.07305717  212.10899353    0.13000000    0.20999999
   20.07638931   -1.00000000    0.13000000    0.20999999
   20.07944489   -1.00000000    0.13000000    0.20999999
   20.08166695  196.85899353    0.13000000    0.20999999
   20.08333397   -1.00000000    0.13000000    0.20999999
