    HOUR (UT)   FLARE FACTOR    SKY TESTER    SUN TESTER
   11.15722179   -1.00000000   -1.00000000   -1.00000000
   11.21555519  185.40600586    1.28999996    2.23000002
   11.21888828  197.11799622    1.26999998    2.23000002
   11.22194386  195.42500305    1.26999998    2.23000002
   11.22527695  193.74400330    1.26999998    2.23000002
   11.22861099  200.38000488    1.26999998    2.23000002
   11.23166656  197.66000366    1.26999998    2.25000000
   11.23583317  197.66000366    1.26999998    2.25000000
   11.24000072  194.40600586    1.25000000    2.25000000
   11.24333382  186.78500366    1.25000000    2.25000000
   11.24638939  188.95100403    1.25000000    2.25000000
   11.24888897  182.94700623    1.25000000    2.25000000
   11.25027752  195.35299683    1.25000000    2.25000000
   11.25361156  203.27000427    1.25000000    2.25000000
   11.25694466  203.74800110    1.25000000    2.26999998
   11.26000023  191.88900757    1.25000000    2.26999998
   11.26333332  203.20599365    1.25000000    2.26999998
   11.26638889  212.30099487    1.23000002    2.26999998
   11.27055550  212.30099487    1.23000002    2.26999998
   11.27472210  196.14599609    1.25000000    2.26999998
   11.27805519  212.21299744    1.25000000    2.26999998
   11.28111076  190.18099976    1.23000002    2.28999996
   11.28249931  200.83000183    1.23000002    2.28999996
   11.28472233  200.26699829    1.23000002    2.28999996
   11.28805637  205.54699707    1.23000002    2.28999996
   11.29166698  191.20899963    1.23000002    2.28999996
   11.29472256  211.97799683    1.23000002    2.28999996
   11.29805565  197.50599670    1.23000002    2.28999996
   11.30138874  174.29699707    1.23000002    2.28999996
   11.30555534  174.29699707    1.21000004    2.28999996
   11.30944443  192.30599976    1.21000004    2.28999996
   11.31277752  185.24899292    1.23000002    2.30999994
   11.31583309  190.36599731    1.23000002    2.30999994
   11.31638908  182.23399353    1.21000004    2.30999994
   11.31972218  184.82899475    1.21000004    2.30999994
   11.32305527  185.77200317    1.21000004    2.30999994
   11.32611084  188.83799744    1.21000004    2.30999994
   11.32944393  187.76499939    1.21000004    2.30999994
   11.33277798  183.05299377    1.21000004    2.30999994
   11.33583260  194.99400330    1.19000006    2.30999994
   11.34000015  194.99400330    1.19000006    2.30999994
   11.34416676  171.38299561    1.19000006    2.32999992
   11.34749985  183.44700623    1.19000006    2.32999992
   11.34916592  184.77699280    1.19000006    2.32999992
   11.35111141  176.53399658    1.19000006    2.32999992
   11.35416698  172.48599243    1.19000006    2.32999992
   11.35750008  180.57299805    1.19000006    2.32999992
   11.36055565  181.06700134    1.16999996    2.32999992
   11.36388969  182.77400208    1.16999996    2.32999992
   11.36722279  194.64199829    1.16999996    2.34999990
   11.37027836  184.01300049    1.16999996    2.34999990
   11.37444496  184.01300049    1.14999998    2.34999990
   11.37861156  187.34899902    1.14999998    2.34999990
   11.38194466  208.24200439    1.16999996    2.34999990
   11.38249969  221.40499878    1.16999996    2.34999990
   11.38555527  189.76199341    1.14999998    2.34999990
   11.38861084  181.68699646    1.14999998    2.36999989
   11.39194393  188.46600342    1.14999998    2.36999989
   11.39499950  194.54299927    1.13000000    2.34999990
   11.39833355  193.09100342    1.13000000    2.34999990
   11.40166664  197.29899597    1.14999998    2.34999990
   11.40472221  185.13800049    1.13000000    2.36999989
   11.40916634  185.13800049    1.13000000    2.36999989
   11.41305542  186.83099365    1.13000000    2.36999989
   11.41583252  200.80200195    1.13000000    2.36999989
   11.41694450  180.25700378    1.13000000    2.36999989
   11.42000008  197.89300537    1.13000000    2.36999989
   11.42333412  200.69000244    1.14999998    2.36999989
   11.42638874  187.11099243    1.13000000    2.39000010
   11.42972279  196.95899963    1.13000000    2.36999989
   11.43305588  192.01300049    1.13000000    2.39000010
   11.43611145  188.73199463    1.13000000    2.39000010
   11.43944454  183.73599243    1.11000001    2.39000010
   11.44361115  183.73599243    1.11000001    2.39000010
   11.44777775  187.65100098    1.11000001    2.39000010
   11.44916630  197.55400085    1.11000001    2.39000010
   11.45138836  179.22799683    1.11000001    2.39000010
   11.45444393  190.44500732    1.11000001    2.39000010
   11.45777798  186.91600037    1.11000001    2.39000010
   11.46083355  189.34300232    1.11000001    2.39000010
   11.46416664  194.75599670    1.09000003    2.40000010
   11.46749973  178.03900146    1.09000003    2.40000010
   11.47055531  187.56500244    1.09000003    2.40000010
   11.47388840  203.76499939    1.09000003    2.40000010
   11.47805500  203.76499939    1.07000005    2.40000010
   11.48222160  180.09300232    1.07000005    2.40000010
   11.48277760  178.38499451    1.07000005    2.40000010
   11.48583317  174.47999573    1.07000005    2.40000010
   11.48916721  190.69599915    1.05999994    2.40000010
   11.49250031  176.19599915    1.05999994    2.42000008
   11.49555588  190.85200500    1.05999994    2.42000008
   11.49888897  199.03900146    1.05999994    2.42000008
   11.50222206  188.94999695    1.05999994    2.42000008
   11.50527763  176.46099854    1.03999996    2.42000008
   11.50861073  188.90600586    1.03999996    2.42000008
   11.51277733  188.90600586    1.03999996    2.44000006
   11.51694393  187.16999817    1.03999996    2.42000008
   11.51999950  197.90499878    1.03999996    2.42000008
   11.52333355  174.02699280    1.01999998    2.42000008
   11.52666664  178.16000366    1.01999998    2.42000008
   11.52972221  170.79299927    1.01999998    2.44000006
   11.53305531  173.31100464    1.01999998    2.44000006
   11.53611183  179.81399536    1.01999998    2.44000006
   11.53944492  183.66700745    1.01999998    2.44000006
   11.54277802  191.97999573    1.01999998    2.44000006
   11.54722309  191.97999573    1.01999998    2.44000006
   11.55138874  181.24000549    1.01999998    2.46000004
   11.55472279  190.82699585    1.01999998    2.46000004
   11.55777836  192.95899963    1.01999998    2.46000004
   11.56111145  199.88299561    1.01999998    2.46000004
   11.56416702  203.83900452    1.01999998    2.46000004
   11.56750011  202.21600342    1.01999998    2.46000004
   11.57083321  207.09199524    1.01999998    2.46000004
   11.57388878  215.16000366    1.00000000    2.46000004
   11.57722187  259.02899170    1.01999998    2.46000004
   11.58166695  259.02899170    1.00000000    2.46000004
   11.58583260  309.60198975    1.00000000    2.46000004
   11.58777714  302.91101074    0.98000002    2.46000004
   11.58916664  301.56399536    1.00000000    2.46000004
   11.59055519  291.81100464    1.00000000    2.46000004
   11.59194374  303.23300171    0.98000002    2.46000004
   11.59333324  325.96798706    0.98000002    2.46000004
   11.59472179  303.32400513    1.00000000    2.46000004
   11.59611034  295.40301514    0.98000002    2.46000004
   11.59749985  315.91299438    0.98000002    2.46000004
   11.59888840  307.35998535    0.98000002    2.46000004
   11.60027790  328.61898804    1.00000000    2.46000004
   11.60166740  310.90499878    0.98000002    2.46000004
   11.60305595  314.22601318    0.98000002    2.48000002
   11.60444450  298.15600586    0.98000002    2.48000002
   11.60583401  308.39401245    0.98000002    2.46000004
   11.60722256  333.94299316    0.98000002    2.48000002
   11.60861111  305.64801025    1.00000000    2.48000002
   11.61000061  314.98199463    1.00000000    2.48000002
   11.61138916  294.76501465    1.00000000    2.46000004
   11.61277771  300.74600220    1.00000000    2.46000004
   11.61416721  310.19198608    0.98000002    2.48000002
   11.61555576  303.50698853    0.98000002    2.48000002
   11.61694431  289.36599731    0.98000002    2.48000002
   11.61833382  300.43499756    0.98000002    2.48000002
   11.61972237  313.95599365    0.98000002    2.48000002
   11.62111092  303.26699829    0.98000002    2.48000002
   11.62250042  300.08200073    0.98000002    2.46000004
   11.62388897  291.05300903    0.98000002    2.48000002
   11.62527752  290.45599365    0.98000002    2.48000002
   11.62666702  283.36401367    0.98000002    2.48000002
   11.62805557  284.35101318    0.98000002    2.48000002
   11.62944412  265.66598511    0.98000002    2.48000002
   11.63083363  267.78201294    0.98000002    2.48000002
   11.63222218  302.30099487    0.98000002    2.48000002
   11.63361073  279.34500122    0.95999998    2.48000002
   11.63500023  297.47601318    0.98000002    2.48000002
   11.63638878  288.31900024    0.98000002    2.48000002
   11.63777733  280.50000000    0.98000002    2.48000002
   11.63916683  266.09100342    0.98000002    2.48000002
   11.64055538  277.17599487    0.95999998    2.48000002
   11.64194393  280.13500977    0.98000002    2.50000000
   11.64333344  285.84899902    0.98000002    2.50000000
   11.64472198  275.66400146    0.95999998    2.50000000
   11.64611053  274.68099976    0.95999998    2.50000000
   11.64750004  279.82000732    0.95999998    2.50000000
   11.64888859  284.38101196    0.95999998    2.50000000
   11.65027714  263.32101440    0.95999998    2.50000000
   11.65166664  273.14300537    0.95999998    2.50000000
   11.65305519  287.01098633    0.95999998    2.50000000
   11.65444374  286.83300781    0.95999998    2.50000000
   11.65583324  280.60699463    0.95999998    2.48000002
   11.65722179  284.42999268    0.95999998    2.50000000
   11.65861034  271.22698975    0.95999998    2.50000000
   11.65999985  273.59698486    0.95999998    2.50000000
   11.66138840  271.27999878    0.94000000    2.50000000
   11.66277695  271.50000000    0.95999998    2.50000000
   11.66416645  286.41900635    0.95999998    2.50000000
   11.66555500  261.27398682    0.95999998    2.50000000
   11.66694450  277.01000977    0.95999998    2.50000000
   11.66833401  271.38598633    0.95999998    2.50000000
   11.66972256  212.03900146    0.95999998    2.50000000
   11.67000008  203.83900452    1.01999998    2.46000004
   11.67000008  202.21600342    1.01999998    2.46000004
   11.67000008  207.09199524    1.01999998    2.46000004
   11.67027855  215.16000366    1.00000000    2.46000004
   11.67027855  259.02899170    1.01999998    2.46000004
   11.67027855  309.60198975    1.00000000    2.46000004
   11.67055607  190.82699585    1.01999998    2.46000004
   11.67055607  192.95899963    1.01999998    2.46000004
   11.67055607  199.88299561    1.01999998    2.46000004
   11.67111111  270.55999756    0.95999998    2.50000000
   11.67444515  264.74301147    0.95999998    2.50000000
   11.67750072  278.94400024    0.95999998    2.50000000
   11.68083382  275.49398804    0.95999998    2.51999998
   11.68416691  255.86599731    0.95999998    2.51999998
   11.69055557  255.86599731    0.95999998    2.50000000
   11.69472218  237.58900452    0.95999998    2.50000000
   11.69805527  217.89900208    0.95999998    2.51999998
   11.70111084  246.25199890    0.95999998    2.51999998
   11.70361137  251.86399841    0.95999998    2.51999998
   11.70499992  242.77200317    0.94000000    2.51999998
   11.70805550  243.73800659    0.94000000    2.51999998
   11.71138859  251.78100586    0.94000000    2.51999998
   11.71472168  250.97399902    0.94000000    2.51999998
   11.71777725  247.25799561    0.94000000    2.51999998
   11.72111034  258.18301392    0.94000000    2.51999998
   11.72527695  258.18301392    0.94000000    2.51999998
   11.72944355  260.87799072    0.94000000    2.53999996
   11.73249912  256.46398926    0.94000000    2.51999998
   11.73583317  242.22200012    0.94000000    2.51999998
   11.73694515  257.70599365    0.94000000    2.51999998
   11.73944473  239.68899536    0.94000000    2.51999998
   11.74250031  227.33599854    0.95999998    2.51999998
   11.74583340  232.91099548    0.94000000    2.53999996
   11.74916649  238.50500488    0.95999998    2.51999998
   11.75222206  221.26600647    0.95999998    2.53999996
   11.75555515  228.16400146    0.95999998    2.53999996
   11.75972176  228.16400146    0.94000000    2.53999996
   11.76388931  197.94400024    0.94000000    2.53999996
   11.76694393  222.86999512    0.94000000    2.53999996
   11.77027798  207.33599854    0.92000002    2.53999996
   11.77083302  201.85800171    0.92000002    2.53999996
   11.77388859  203.74000549    0.92000002    2.53999996
   11.77722168  211.13600159    0.92000002    2.55999994
   11.78055573  215.95399475    0.92000002    2.55999994
   11.78361130  207.27400208    0.92000002    2.55999994
   11.78694534  214.24899292    0.92000002    2.55999994
   11.79027843  232.28399658    0.92000002    2.53999996
   11.79416752  232.28399658    0.92000002    2.55999994
   11.79833412  218.69700623    0.92000002    2.55999994
   11.80166721  206.43699646    0.89999998    2.55999994
   11.80361176  210.63800049    0.89999998    2.53999996
   11.80527782  215.81900024    0.89999998    2.55999994
   11.80833340  199.62800598    0.89999998    2.55999994
   11.81166649  211.62100220    0.92000002    2.55999994
   11.81500053  204.28500366    0.92000002    2.55999994
   11.81805515  205.53900146    0.89999998    2.55999994
   11.82138920  190.75799561    0.89999998    2.55999994
   11.82472229  209.10000610    0.89999998    2.57999992
   11.82888889  209.10000610    0.89999998    2.55999994
   11.83305550  209.26800537    0.89999998    2.55999994
   11.83611107  191.25700378    0.89999998    2.55999994
   11.83694458  199.24000549    0.89999998    2.55999994
   11.83972168  183.10800171    0.88000000    2.57999992
   11.84305477  188.88000488    0.88000000    2.57999992
   11.84611034  196.69099426    0.88000000    2.57999992
   11.84944439  226.26800537    0.88000000    2.57999992
   11.85249996  213.11900330    0.88000000    2.57999992
   11.85583401  199.39900208    0.86000001    2.57999992
   11.85916710  199.50900269    0.86000001    2.57999992
   11.86333370  199.50900269    0.88000000    2.57999992
   11.86750031  200.78900146    0.88000000    2.57999992
   11.87027836  196.00799561    0.88000000    2.57999992
   11.87111092  200.49400330    0.88000000    2.57999992
   11.87444496  210.78100586    0.88000000    2.57999992
   11.87750053  191.41700745    0.89999998    2.59999990
   11.88083363  190.95300293    0.88000000    2.57999992
   11.88388920  196.86199951    0.89999998    2.59999990
   11.88722229  186.83900452    0.89999998    2.57999992
   11.89055538  197.65400696    0.89999998    2.57999992
   11.89361095  199.02900696    0.89999998    2.59999990
   11.89777756  199.02900696    0.88000000    2.57999992
   11.90194416  188.05200195    0.88000000    2.59999990
   11.90361118  197.20199585    0.88000000    2.59999990
   11.90555477  182.06500244    0.88000000    2.59999990
   11.90888882  176.41200256    0.88000000    2.59999990
   11.91194439  181.73300171    0.88000000    2.59999990
   11.91527748  184.77900696    0.88000000    2.59999990
   11.91833401  195.19700623    0.88000000    2.59999990
   11.92166710  198.52600098    0.88000000    2.59999990
   11.92500019  191.22399902    0.88000000    2.59999990
   11.92805576  186.03799438    0.88000000    2.59999990
   11.93222237  186.03799438    0.88000000    2.59999990
   11.93638897  190.85499573    0.88000000    2.59999990
   11.93694496  178.14100647    0.88000000    2.59999990
   11.94000053  190.11099243    0.88000000    2.59999990
   11.94333363  170.17999268    0.88000000    2.59999990
   11.94638920  186.99200439    0.88000000    2.59999990
   11.94972229  186.40499878    0.88000000    2.59999990
   11.95277786  176.42199707    0.88000000    2.61999989
   11.95611095  181.80000305    0.86000001    2.61999989
   11.95944405  181.90199280    0.86000001    2.59999990
   11.96249962  182.21499634    0.86000001    2.61999989
   11.96694374  182.21499634    0.83999997    2.61999989
   11.97111034  167.63699341    0.81999999    2.61999989
   11.97416592  180.33399963    0.83999997    2.61999989
   11.97749996  169.87899780    0.81999999    2.61999989
   11.98055553  173.49200439    0.81999999    2.61999989
   11.98388958  172.53100586    0.81999999    2.61999989
   11.98722267  175.90899658    0.81999999    2.61999989
   11.99027824  172.19200134    0.81999999    2.61999989
   11.99361134  187.47999573    0.80000001    2.64000010
   11.99694443  181.10000610    0.81999999    2.61999989
   12.00222206  181.10000610    0.80000001    2.61999989
   12.00638866  176.47700500    0.81999999    2.61999989
   12.00972176  174.67599487    0.80000001    2.64000010
   12.01277733  182.81300354    0.80000001    2.64000010
   12.01611137  171.23699951    0.81999999    2.64000010
   12.01944447  177.29800415    0.81999999    2.64000010
   12.02250004  177.10400391    0.81999999    2.64000010
   12.02583313  173.34500122    0.81999999    2.64000010
   12.03027725  173.59700012    0.81999999    2.64000010
   12.03638935  173.59700012    0.81999999    2.64000010
   12.04055595  179.88400269    0.81999999    2.64000010
   12.04527855  171.47599792    0.81999999    2.64000010
   12.04972267  172.06900024    0.81999999    2.64000010
   12.05388927  174.63400269    0.83999997    2.64000010
   12.05722237  176.07699585    0.81999999    2.64000010
   12.06138897  169.39399719    0.81999999    2.64000010
   12.06555557  172.88200378    0.81999999    2.64000010
   12.07111073  172.88200378    0.83999997    2.64000010
   12.07611084  161.04299927    0.83999997    2.64000010
   12.07999992  160.23500061    0.81999999    2.66000009
   12.08416653  153.60499573    0.81999999    2.66000009
   12.08749962  160.00700378    0.81999999    2.66000009
   12.09083271  164.11599731    0.81999999    2.66000009
   12.09694386  158.74099731    0.80000001    2.67000008
   12.10027790  168.31100464    0.81999999    2.66000009
   12.10500050  168.31100464    0.81999999    2.66000009
   12.10916710  160.32000732    0.81999999    2.66000009
   12.11222267  157.32200623    0.80000001    2.66000009
   12.11555576  196.58299255    0.80000001    2.66000009
   12.11888885  164.26199341    0.80000001    2.66000009
   12.12194443  177.52499390    0.80000001    2.66000009
   12.12527752  168.28500366    0.80000001    2.66000009
   12.12861156  176.84700012    0.80000001    2.66000009
   12.13194466  162.04699707    0.81999999    2.67000008
   12.13527775  164.77600098    0.80000001    2.67000008
   12.13944435  164.77600098    0.80000001    2.66000009
   12.14388847  180.78900146    0.79000002    2.67000008
   12.14722252  165.51100159    0.80000001    2.67000008
   12.15055561  174.13299561    0.80000001    2.67000008
   12.15388870  162.81100464    0.80000001    2.67000008
   12.15694427  169.58999634    0.80000001    2.67000008
   12.16027737  171.64900208    0.79000002    2.67000008
   12.16361046  159.36199951    0.79000002    2.67000008
   12.16666698  169.54899597    0.79000002    2.67000008
   12.17000008  164.93499756    0.79000002    2.67000008
   12.17416668  164.93499756    0.79000002    2.67000008
   12.17833328  163.68299866    0.79000002    2.67000008
   12.18166733  167.41799927    0.79000002    2.67000008
   12.18472195  161.73699951    0.79000002    2.67000008
   12.18805599  163.78500366    0.76999998    2.67000008
   12.19111156  162.74299622    0.76999998    2.67000008
   12.19444466  175.65299988    0.76999998    2.67000008
   12.19777775  173.28199768    0.76999998    2.67000008
   12.20083332  159.40199280    0.76999998    2.67000008
   12.20416641  167.32800293    0.76999998    2.69000006
   12.20861053  167.32800293    0.76999998    2.69000006
   12.21277714  169.66700745    0.75000000    2.69000006
   12.21611118  181.39700317    0.75000000    2.69000006
   12.23555565  164.61700439    0.75000000    2.69000006
   12.23888874  164.69000244    0.75000000    2.69000006
   12.24333382  164.69000244    0.75000000    2.71000004
   12.24750042  161.54299927    0.75000000    2.69000006
   12.25083351  156.53199768    0.76999998    2.69000006
   12.25388908  152.08000183    0.75000000    2.69000006
   12.25722218  159.72599792    0.75000000    2.69000006
   12.26055527  164.73399353    0.75000000    2.69000006
   12.26361084  170.40100098    0.75000000    2.69000006
   12.26694393  161.60499573    0.75000000    2.69000006
   12.27027798  170.95100403    0.75000000    2.69000006
   12.27333355  165.02200317    0.76999998    2.71000004
   12.27805519  165.02200317    0.75000000    2.71000004
   12.28194427  157.60600281    0.75000000    2.71000004
   12.28527832  166.59199524    0.76999998    2.71000004
   12.28861141  158.19000244    0.76999998    2.69000006
   12.29166698  161.52400208    0.76999998    2.69000006
   12.29500008  172.01300049    0.76999998    2.71000004
   12.29833412  159.95300293    0.76999998    2.69000006
   12.30138874  168.93200684    0.75000000    2.71000004
   12.30472279  152.23500061    0.75000000    2.71000004
   12.30777836  173.93099976    0.75000000    2.71000004
   12.31250000  173.93099976    0.75000000    2.71000004
   12.31666660  176.64599609    0.75000000    2.71000004
   12.31972218  165.07600403    0.73000002    2.71000004
   12.32305527  173.75100708    0.73000002    2.71000004
   12.32638836  162.25799561    0.73000002    2.71000004
   12.32944393  161.85699463    0.70999998    2.71000004
   12.33277798  160.97000122    0.70999998    2.71000004
   12.33583260  166.09700012    0.70999998    2.71000004
   12.33916664  155.71299744    0.69000000    2.71000004
   12.34249973  158.25500488    0.69000000    2.73000002
   12.34694386  158.25500488    0.69000000    2.73000002
   12.35111141  167.18299866    0.69000000    2.71000004
   12.35444450  168.44799805    0.70999998    2.71000004
   12.35750008  171.59800720    0.70999998    2.71000004
   12.36083412  167.14100647    0.70999998    2.73000002
   12.36388969  178.14799500    0.70999998    2.71000004
   12.36722279  164.84899902    0.70999998    2.73000002
   12.37055588  175.95500183    0.70999998    2.73000002
   12.37361145  181.56799316    0.73000002    2.71000004
   12.37694454  167.83700562    0.70999998    2.73000002
   12.38138866  167.83700562    0.70999998    2.71000004
   12.38555527  163.35499573    0.70999998    2.73000002
   12.38888836  168.56700134    0.70999998    2.73000002
   12.39194393  161.90699768    0.70999998    2.73000002
   12.39527798  157.81700134    0.73000002    2.73000002
   12.39861107  164.80200195    0.73000002    2.73000002
   12.40166664  161.24200439    0.73000002    2.73000002
   12.40499973  157.71400452    0.75000000    2.73000002
   12.40805531  158.94999695    0.73000002    2.73000002
   12.41138840  156.72300720    0.73000002    2.73000002
   12.41583252  156.72300720    0.73000002    2.73000002
   12.42000008  165.71400452    0.73000002    2.73000002
   12.42333412  165.33099365    0.73000002    2.75000000
   12.42666721  161.82899475    0.73000002    2.73000002
   12.42972279  157.00700378    0.73000002    2.75000000
   12.43305588  154.46400452    0.73000002    2.73000002
   12.43638897  154.44700623    0.73000002    2.75000000
   12.43944454  160.49800110    0.70999998    2.73000002
   12.44277763  162.44700623    0.70999998    2.73000002
   12.44583321  155.91999817    0.70999998    2.73000002
   12.45055580  155.91999817    0.73000002    2.73000002
   12.45472240  152.98300171    0.70999998    2.73000002
   12.45777798  150.44999695    0.70999998    2.75000000
   12.46111107  163.77099609    0.70999998    2.75000000
   12.46416664  170.59199524    0.70999998    2.73000002
   12.46749973  157.64399719    0.70999998    2.75000000
   12.47083282  164.70500183    0.70999998    2.75000000
   12.47388840  164.16099548    0.70999998    2.75000000
   12.47722149  157.66400146    0.69000000    2.73000002
   12.48055553  160.97399902    0.67000002    2.75000000
   12.48500061  160.97399902    0.67000002    2.75000000
   12.48916721  159.66400146    0.69000000    2.75000000
   12.49222279  167.34300232    0.67000002    2.75000000
   12.49555588  163.96400452    0.67000002    2.75000000
   12.49888897  159.10499573    0.67000002    2.75000000
   12.50194454  159.76800537    0.64999998    2.75000000
   12.50527763  159.92300415    0.64999998    2.75000000
   12.50861073  157.79299927    0.64999998    2.75000000
   12.51166630  162.66999817    0.64999998    2.75000000
   12.51500034  173.45700073    0.64999998    2.75000000
   12.51944447  173.45700073    0.64999998    2.75000000
   12.52361107  162.44500732    0.64999998    2.75000000
   12.52694416  170.24099731    0.64999998    2.76999998
   12.52999973  162.50500488    0.64999998    2.75000000
   12.53333378  175.70899963    0.64999998    2.75000000
   12.53666687  177.92500305    0.63000000    2.76999998
   12.53972244  159.60000610    0.63000000    2.75000000
   12.54305553  173.67100525    0.63000000    2.76999998
   12.54611111  175.85299683    0.63000000    2.75000000
   12.54944515  184.25799561    0.63000000    2.75000000
   12.55388927  184.25799561    0.63000000    2.75000000
   12.55805588  174.75399780    0.63000000    2.76999998
   12.56138897  181.74299622    0.63000000    2.76999998
   12.56472206  176.39799500    0.63000000    2.76999998
   12.56777763  182.80599976    0.63000000    2.76999998
   12.57111073  172.83999634    0.63000000    2.76999998
   12.57444477  176.31799316    0.63000000    2.75000000
   12.57750034  185.18400574    0.63000000    2.76999998
   12.58083344  175.09899902    0.63000000    2.76999998
   12.58388901  169.41099548    0.64999998    2.75000000
   12.58861065  169.41099548    0.63000000    2.76999998
   12.59249973  187.42599487    0.64999998    2.76999998
   12.59583282  182.29699707    0.63000000    2.76999998
   12.59916592  191.09500122    0.64999998    2.78999996
   12.60222244  169.24200439    0.64999998    2.78999996
   12.60555553  179.67399597    0.64999998    2.78999996
   12.60888958  182.11500549    0.64999998    2.76999998
   12.61194515  177.89700317    0.64999998    2.76999998
   12.61527824  176.92700195    0.64999998    2.76999998
   12.61861134  179.36599731    0.64999998    2.78999996
   12.62305546  179.36599731    0.64999998    2.76999998
   12.62722206  168.50100708    0.64999998    2.76999998
   12.63027763  174.72399902    0.64999998    2.76999998
   12.63361073  175.68299866    0.67000002    2.78999996
   12.63694477  174.07000732    0.64999998    2.78999996
   12.64000034  165.80099487    0.67000002    2.78999996
   12.64333344  168.20300293    0.64999998    2.78999996
   12.64638901  166.01800537    0.67000002    2.78999996
   12.64972210  159.93600464    0.67000002    2.78999996
   12.65305519  179.02799988    0.67000002    2.76999998
   12.65749931  179.02799988    0.67000002    2.78999996
   12.66166592  166.49000549    0.67000002    2.78999996
   12.66499996  166.46899414    0.67000002    2.78999996
   12.66805553  170.60200500    0.67000002    2.78999996
   12.67138958  161.15800476    0.69000000    2.76999998
   12.67444515  158.37600708    0.67000002    2.78999996
   12.67777824  168.67900085    0.67000002    2.78999996
   12.68111134  167.87100220    0.67000002    2.76999998
   12.68416691  150.96899414    0.67000002    2.78999996
   12.68750000  158.80499268    0.67000002    2.78999996
   12.69194412  158.80499268    0.67000002    2.78999996
   12.69611073  161.86999512    0.67000002    2.78999996
   12.69944477  160.99200439    0.67000002    2.78999996
   12.70249939  153.19700623    0.67000002    2.76999998
   12.70583344  166.47099304    0.67000002    2.78999996
   12.70916653  162.57200623    0.64999998    2.76999998
   12.71222210  171.01899719    0.67000002    2.78999996
   12.71555519  160.25199890    0.64999998    2.78999996
   12.71888828  168.91299438    0.64999998    2.78999996
   12.72194386  160.25999451    0.64999998    2.78999996
   12.72638798  160.25999451    0.64999998    2.78999996
   12.73055553  145.11399841    0.64999998    2.78999996
   12.73388958  155.71600342    0.64999998    2.78999996
   12.73722267  158.87600708    0.67000002    2.78999996
   12.74027824  156.32699585    0.64999998    2.78999996
   12.74361134  157.35499573    0.64999998    2.78999996
   12.74694443  160.45100403    0.64999998    2.78999996
   12.75000000  162.56100464    0.64999998    2.78999996
   12.75333309  167.67900085    0.64999998    2.78999996
   12.75638866  163.76699829    0.64999998    2.78999996
   12.76111126  163.76699829    0.64999998    2.78999996
   12.76527786  155.47300720    0.63000000    2.78999996
   12.76833344  155.78199768    0.63000000    2.78999996
   12.77166653  167.14199829    0.64999998    2.78999996
   12.77472210  168.35800171    0.64999998    2.78999996
   12.77805519  165.67799377    0.64999998    2.78999996
   12.78138828  155.33099365    0.63000000    2.80999994
   12.78444481  162.19999695    0.64999998    2.80999994
   12.78777790  158.72599792    0.64999998    2.80999994
   12.79111195  164.40400696    0.67000002    2.80999994
   12.79555607  164.40400696    0.64999998    2.80999994
   12.79972267  162.82499695    0.64999998    2.80999994
   12.80277824  159.25799561    0.64999998    2.80999994
   12.80611134  158.26499939    0.64999998    2.80999994
   12.80944443  163.93299866    0.64999998    2.80999994
   12.81250000  161.00999451    0.64999998    2.80999994
   12.81583309  163.39399719    0.64999998    2.80999994
   12.81916618  166.65600586    0.67000002    2.80999994
   12.82222176  165.60600281    0.64999998    2.80999994
   12.82555580  170.69200134    0.64999998    2.80999994
   12.82999992  170.69200134    0.64999998    2.80999994
   12.83416653  165.54299927    0.64999998    2.80999994
   12.83749962  168.90899658    0.64999998    2.80999994
   12.84055519  163.35099792    0.64999998    2.80999994
   12.84388828  159.22099304    0.64999998    2.80999994
   12.84722233  176.62899780    0.64999998    2.80999994
   12.85027790  163.15199280    0.64999998    2.80999994
   12.85361195  165.18400574    0.64999998    2.80999994
   12.85666752  161.30799866    0.67000002    2.80999994
   12.86000061  159.44099426    0.64999998    2.80999994
   12.86444473  159.44099426    0.64999998    2.80999994
   12.86861134  159.67500305    0.64999998    2.80999994
   12.87194443  170.28300476    0.64999998    2.80999994
   12.87527752  172.54100037    0.64999998    2.80999994
   12.87833309  160.27499390    0.64999998    2.80999994
   12.88166714  165.72999573    0.67000002    2.80999994
   12.88472176  162.05400085    0.63000000    2.80999994
   12.88805580  166.16200256    0.63000000    2.80999994
   12.89138889  158.84300232    0.63000000    2.80999994
   12.89444447  149.95799255    0.63000000    2.80999994
   12.89916611  149.95799255    0.63000000    2.82999992
   12.90305519  152.27600098    0.63000000    2.80999994
   12.90638828  165.40299988    0.63000000    2.82999992
   12.90972137  159.61799622    0.64999998    2.80999994
   12.91277695  162.61099243    0.64999998    2.82999992
   12.91611099  171.59199524    0.64999998    2.82999992
   12.91944504  159.83200073    0.64999998    2.80999994
   12.92250061  170.30700684    0.64999998    2.82999992
   12.92583370  166.83099365    0.64999998    2.82999992
   12.92888927  168.22799683    0.64999998    2.82999992
   12.93361092  168.22799683    0.64999998    2.82999992
   12.93777752  163.04100037    0.64999998    2.80999994
   12.94083309  171.90499878    0.64999998    2.80999994
   12.94416714  170.22599792    0.64999998    2.82999992
   12.94722271  163.69500732    0.63000000    2.80999994
   12.95055580  168.17700195    0.63000000    2.82999992
   12.95388889  164.29499817    0.63000000    2.82999992
   12.95694447  148.12800598    0.63000000    2.82999992
   12.96027756  159.19799805    0.64999998    2.82999992
   12.96361065  153.31100464    0.63000000    2.82999992
   12.96805477  153.31100464    0.63000000    2.82999992
   12.97222137  174.14900208    0.63000000    2.82999992
   12.97555542  163.55999756    0.63000000    2.82999992
   12.97861099  166.16799927    0.63000000    2.82999992
   12.98194408  170.47300720    0.63000000    2.82999992
   12.98500061  172.69999695    0.63000000    2.82999992
   12.98833370  167.99299622    0.63000000    2.82999992
   12.99166679  171.12199402    0.61000001    2.82999992
   12.99472237  162.97200012    0.61000001    2.82999992
   12.99805546  172.16299438    0.61000001    2.82999992
   13.00249958  172.16299438    0.63000000    2.82999992
   13.00666714  157.82099915    0.63000000    2.82999992
   13.01000023  166.71400452    0.61000001    2.82999992
   13.01305580  164.82400513    0.61000001    2.82999992
   13.01638889  165.15400696    0.61000001    2.82999992
   13.01972198  174.78399658    0.61000001    2.82999992
   13.02277756  166.05599976    0.61000001    2.82999992
   13.02611065  159.55400085    0.61000001    2.84999990
   13.02944374  163.76100159    0.61000001    2.84999990
   13.03249931  156.58700562    0.61000001    2.84999990
   13.03722286  156.58700562    0.61000001    2.82999992
   13.04138947  180.49800110    0.61000001    2.84999990
   13.04472256  180.83599854    0.61000001    2.84999990
   13.04777813  167.58099365    0.61000001    2.82999992
   13.05111122  169.91200256    0.61000001    2.84999990
   13.05416679  170.78500366    0.61000001    2.84999990
   13.05749989  166.70599365    0.61000001    2.84999990
   13.06083393  166.55200195    0.61000001    2.84999990
   13.06388950  163.38200378    0.58999997    2.84999990
   13.06722260  161.57299805    0.61000001    2.82999992
   13.07166672  161.57299805    0.58999997    2.84999990
   13.07583332  175.60400391    0.58999997    2.84999990
   13.07888889  172.21000671    0.58999997    2.82999992
   13.08222198  168.13800049    0.58999997    2.84999990
   13.08555508  155.06500244    0.56999999    2.84999990
   13.08861065  167.98899841    0.56999999    2.84999990
   13.09194374  171.35800171    0.58999997    2.84999990
   13.09499931  165.95500183    0.58999997    2.84999990
   13.09833336  164.55499268    0.58999997    2.84999990
   13.10166740  169.60800171    0.58999997    2.84999990
   13.10611153  169.60800171    0.58999997    2.84999990
   13.11027813  174.08099365    0.61000001    2.84999990
   13.11361122  168.72900391    0.61000001    2.84999990
   13.11666679  173.38900757    0.61000001    2.84999990
   13.11999989  157.02200317    0.63000000    2.84999990
   13.12305546  168.00000000    0.63000000    2.84999990
   13.12638855  170.59599304    0.61000001    2.84999990
   13.12972260  165.71299744    0.61000001    2.84999990
   13.13277817  170.83399963    0.61000001    2.84999990
   13.13611126  177.08799744    0.61000001    2.84999990
   13.14055538  177.08799744    0.61000001    2.84999990
   13.14472198  166.58799744    0.61000001    2.84999990
   13.14805508  168.64599609    0.63000000    2.84999990
   13.15111065  169.27799988    0.61000001    2.84999990
   13.15444374  159.04600525    0.61000001    2.84999990
   13.15777779  159.40499878    0.61000001    2.86999989
   13.16083336  173.83099365    0.61000001    2.86999989
   13.16416645  164.46600342    0.61000001    2.84999990
   13.16722298  159.13999939    0.61000001    2.84999990
   13.17055607  161.36500549    0.61000001    2.84999990
   13.17500019  161.36500549    0.61000001    2.84999990
   13.17916679  170.00900269    0.61000001    2.84999990
   13.18249989  160.34300232    0.58999997    2.84999990
   13.18583298  168.96000671    0.58999997    2.86999989
   13.18888855  166.54899597    0.61000001    2.84999990
   13.19222260  162.63400269    0.61000001    2.86999989
   13.19527817  164.19700623    0.58999997    2.86999989
   13.19861126  170.00700378    0.61000001    2.84999990
   13.20194435  160.07800293    0.61000001    2.86999989
   13.20499992  168.58599854    0.61000001    2.86999989
   13.20972157  168.58599854    0.61000001    2.84999990
   13.21388912  165.32200623    0.61000001    2.84999990
   13.21694374  163.88800049    0.61000001    2.84999990
   13.22027779  162.94799805    0.61000001    2.86999989
   13.22333336  155.89999390    0.61000001    2.84999990
   13.22666645  179.08099365    0.61000001    2.84999990
   13.22999954  158.19299316    0.61000001    2.84999990
   13.23305511  151.80299377    0.61000001    2.86999989
   13.25388908  151.80299377    0.58999997    2.86999989
   13.25805569  154.47700500    0.58999997    2.86999989
   13.26111126  163.83999634    0.58999997    2.86999989
   13.26444435  158.35800171    0.58999997    2.86999989
   13.26777744  161.61199951    0.58999997    2.86999989
   13.27083302  156.27499390    0.58999997    2.86999989
   13.27416611  164.79600525    0.58999997    2.86999989
   13.27722168  173.72900391    0.58999997    2.86999989
   13.28055573  160.15299988    0.58999997    2.86999989
   13.28388977  163.41400146    0.58999997    2.86999989
   13.28833389  163.41400146    0.61000001    2.86999989
   13.29250050  162.07499695    0.61000001    2.86999989
   13.29555607  158.40299988    0.61000001    2.86999989
   13.29888916  160.45399475    0.61000001    2.86999989
   13.30194473  164.33299255    0.58999997    2.86999989
   13.30527782  158.18499756    0.58999997    2.86999989
   13.30861092  160.20500183    0.58999997    2.86999989
   13.31166649  145.21600342    0.58999997    2.86999989
   13.31500053  161.28700256    0.58999997    2.89000010
   13.31833363  162.74600220    0.58999997    2.86999989
   13.32277775  162.74600220    0.61000001    2.86999989
   13.32694435  152.92799377    0.58999997    2.86999989
   13.32999992  162.67599487    0.58999997    2.86999989
   13.33333302  165.09100342    0.58999997    2.86999989
   13.33666611  166.56700134    0.58999997    2.86999989
   13.33972168  172.28799438    0.61000001    2.86999989
   13.34305477  158.90499878    0.61000001    2.86999989
   13.34638882  168.69599915    0.58999997    2.89000010
   13.34944439  160.37800598    0.58999997    2.86999989
   13.35277843  158.61099243    0.58999997    2.86999989
   13.35722256  158.61099243    0.58999997    2.86999989
   13.36138916  157.95100403    0.58999997    2.89000010
   13.36472225  160.14599609    0.56999999    2.86999989
   13.36777782  170.66499329    0.56999999    2.89000010
   13.37111092  172.10699463    0.56999999    2.89000010
   13.37416649  164.45599365    0.56999999    2.86999989
   13.37750053  171.78799438    0.56999999    2.89000010
   13.38083363  158.33000183    0.56999999    2.86999989
   13.38388920  177.27000427    0.55000001    2.89000010
   13.38722229  162.34199524    0.55000001    2.86999989
   13.39166641  162.34199524    0.55000001    2.86999989
   13.39583302  167.40199280    0.55000001    2.89000010
   13.39916611  179.39199829    0.55000001    2.86999989
   13.40222168  170.60299683    0.55000001    2.89000010
   13.40555477  176.77299500    0.55000001    2.89000010
   13.40888882  174.63000488    0.55000001    2.86999989
   13.41194439  171.42500305    0.55000001    2.89000010
   13.41527748  178.81700134    0.55000001    2.89000010
   13.41861153  187.52499390    0.55000001    2.86999989
   13.42166710  176.24600220    0.55000001    2.89000010
   13.42638874  176.24600220    0.56999999    2.89000010
   13.43027782  168.01400757    0.56999999    2.89000010
   13.43361092  160.11399841    0.55000001    2.86999989
   13.43694496  169.41499329    0.55000001    2.86999989
   13.44000053  169.44400024    0.55000001    2.89000010
   13.44333363  170.71699524    0.55000001    2.89000010
   13.44666672  172.26499939    0.55000001    2.89000010
   13.44972229  170.77699280    0.55000001    2.91000009
   13.45305538  172.34399414    0.52999997    2.89000010
   13.45611095  171.93299866    0.55000001    2.89000010
   13.46083355  171.93299866    0.55000001    2.89000010
   13.46500015  172.38900757    0.55000001    2.89000010
   13.46805477  181.04600525    0.55000001    2.89000010
   13.47138882  166.66700745    0.55000001    2.89000010
   13.47472191  173.85800171    0.55000001    2.89000010
   13.47777748  166.27200317    0.55000001    2.89000010
   13.48111057  174.88499451    0.55000001    2.89000010
   13.48444462  175.89399719    0.55000001    2.89000010
   13.48750019  175.35000610    0.55000001    2.91000009
   13.49083328  166.95199585    0.55000001    2.89000010
   13.49527836  166.95199585    0.55000001    2.89000010
   13.49944496  169.02799988    0.55000001    2.89000010
   13.50277805  174.19500732    0.55000001    2.91000009
   13.50583363  181.79499817    0.52999997    2.89000010
   13.50916672  161.66400146    0.52999997    2.89000010
   13.51222229  170.21099854    0.52999997    2.89000010
   13.51555538  166.51600647    0.51999998    2.91000009
   13.51888847  166.72000122    0.52999997    2.89000010
   13.52194405  169.22300720    0.52999997    2.89000010
   13.52527714  165.88400269    0.52999997    2.91000009
   13.52972221  165.88400269    0.51999998    2.89000010
   13.53388977  172.40600586    0.51999998    2.89000010
   13.53722286  170.99899292    0.52999997    2.89000010
   13.54027843  164.75799561    0.51999998    2.89000010
   13.54361153  175.53900146    0.52999997    2.89000010
   13.54694462  179.18400574    0.52999997    2.89000010
   13.55000019  182.62399292    0.52999997    2.89000010
   13.55333328  183.35600281    0.52999997    2.89000010
   13.55666733  173.43600464    0.52999997    2.89000010
   13.55972195  162.30299377    0.52999997    2.89000010
   13.56444454  162.30299377    0.52999997    2.89000010
   13.56861115  167.10099792    0.51999998    2.91000009
   13.57166672  165.79100037    0.51999998    2.91000009
   13.57499981  168.67399597    0.51999998    2.89000010
   13.57805538  170.90100098    0.52999997    2.89000010
   13.58138847  164.63600159    0.52999997    2.89000010
   13.58472157  172.00000000    0.52999997    2.91000009
   13.58777714  173.85699463    0.55000001    2.91000009
   13.59111118  168.20199585    0.52999997    2.91000009
   13.59416676  176.85499573    0.52999997    2.91000009
   13.59888840  176.85499573    0.52999997    2.91000009
   13.60305595  164.67300415    0.55000001    2.89000010
   13.60611153  167.10200500    0.55000001    2.89000010
   13.60944462  168.69999695    0.55000001    2.91000009
   13.61250019  162.15199280    0.55000001    2.91000009
   13.61583328  166.50199890    0.52999997    2.89000010
   13.61916637  176.52900696    0.55000001    2.91000009
   13.62222195  174.51100159    0.52999997    2.91000009
   13.62555599  173.46899414    0.55000001    2.91000009
   13.62888908  170.75799561    0.55000001    2.91000009
   13.63333321  170.75799561    0.55000001    2.91000009
   13.63749981  163.92599487    0.55000001    2.91000009
   13.64055538  166.32099915    0.56999999    2.91000009
   13.64388847  155.12399292    0.55000001    2.91000009
   13.64722252  175.58599854    0.55000001    2.91000009
   13.65027714  163.91600037    0.55000001    2.91000009
   13.65361118  168.00300598    0.52999997    2.91000009
   13.65694427  170.79100037    0.52999997    2.91000009
   13.65999985  177.17799377    0.55000001    2.91000009
   13.66333294  172.09800720    0.52999997    2.91000009
   13.66777802  172.09800720    0.52999997    2.91000009
   13.67194462  170.15100098    0.51999998    2.91000009
   13.67527771  164.64900208    0.51999998    2.91000009
   13.67833328  158.77499390    0.51999998    2.91000009
   13.68166733  167.81799316    0.52999997    2.91000009
   13.68500042  168.49400330    0.52999997    2.89000010
   13.68805599  168.45199585    0.51999998    2.91000009
   13.69138908  153.91499329    0.51999998    2.91000009
   13.69472218  162.16099548    0.52999997    2.91000009
   13.69777775  163.92999268    0.52999997    2.91000009
   13.70222187  163.92999268    0.55000001    2.91000009
   13.70638847  154.36500549    0.52999997    2.91000009
   13.70972157  163.72099304    0.55000001    2.91000009
   13.71305561  163.05499268    0.52999997    2.91000009
   13.71611118  164.54699707    0.52999997    2.91000009
   13.71944427  154.23699951    0.52999997    2.91000009
   13.72277737  162.42100525    0.52999997    2.91000009
   13.72583294  163.93299866    0.52999997    2.91000009
   13.72916603  151.74099731    0.55000001    2.91000009
   13.73222160  157.84500122    0.52999997    2.91000009
   13.73694515  157.84500122    0.52999997    2.91000009
   13.74111176  161.15600586    0.55000001    2.91000009
   13.74416733  157.67300415    0.55000001    2.91000009
   13.74750042  151.81199646    0.55000001    2.91000009
   13.75055599  158.19500732    0.55000001    2.91000009
   13.75388908  158.59800720    0.55000001    2.91000009
   13.75722218  160.54800415    0.55000001    2.91000009
   13.76027775  170.82600403    0.55000001    2.89000010
   13.76361084  158.59899902    0.55000001    2.91000009
   13.76694393  152.67799377    0.55000001    2.91000009
   13.77138901  152.67799377    0.55000001    2.91000009
   13.77555561  155.96200562    0.55000001    2.93000007
   13.77861118  160.87300110    0.55000001    2.93000007
   13.78194427  156.08700562    0.55000001    2.91000009
   13.78527832  159.66200256    0.55000001    2.93000007
   13.78833389  163.73100281    0.55000001    2.91000009
   13.79166698  164.02900696    0.55000001    2.91000009
   13.79500008  157.10200500    0.55000001    2.91000009
   13.79805565  167.14100647    0.56999999    2.93000007
   13.80138874  153.63499451    0.55000001    2.91000009
   13.80583382  153.63499451    0.55000001    2.91000009
   13.81000042  155.72900391    0.55000001    2.91000009
   13.81333351  160.11500549    0.55000001    2.93000007
   13.81638908  154.02400208    0.55000001    2.93000007
   13.81972218  163.95599365    0.55000001    2.91000009
   13.82305527  149.83700562    0.52999997    2.93000007
   13.82611084  157.39999390    0.52999997    2.93000007
   13.82944393  166.13000488    0.51999998    2.91000009
   13.83249950  146.05499268    0.51999998    2.93000007
   13.83583260  148.82000732    0.51999998    2.93000007
   13.84027767  148.82000732    0.51999998    2.93000007
   13.84444427  150.88600159    0.51999998    2.93000007
   13.84777737  151.09500122    0.50000000    2.91000009
   13.85111141  149.55299377    0.47999999    2.93000007
   13.85416698  149.60800171    0.47999999    2.93000007
   13.85750008  162.49200439    0.47999999    2.93000007
   13.86055565  149.54299927    0.47999999    2.93000007
   13.86388969  152.03399658    0.47999999    2.93000007
   13.86722279  149.00999451    0.47999999    2.93000007
   13.87027836  158.08700562    0.47999999    2.93000007
   13.87500000  158.08700562    0.47999999    2.93000007
   13.87916660  167.93299866    0.46000001    2.94000006
   13.88222218  153.95700073    0.46000001    2.93000007
   13.88555527  157.61799622    0.46000001    2.93000007
   13.88861084  161.23399353    0.46000001    2.93000007
   13.89194393  161.40600586    0.46000001    2.93000007
   13.89527798  157.44500732    0.46000001    2.94000006
   13.89833355  164.67799377    0.46000001    2.93000007
   13.90166664  159.47300720    0.46000001    2.93000007
   13.90499973  157.77499390    0.46000001    2.93000007
   13.90944386  157.77499390    0.44000000    2.93000007
   13.91361046  154.86000061    0.44000000    2.94000006
   13.91666698  151.52200317    0.44000000    2.93000007
   13.92000008  156.13600159    0.44000000    2.93000007
   13.92333412  168.47599792    0.44000000    2.93000007
   13.92638874  158.46000671    0.46000001    2.94000006
   13.92972279  161.24899292    0.46000001    2.93000007
   13.93277836  164.72799683    0.47999999    2.93000007
   13.93611145  157.71899414    0.47999999    2.94000006
   13.93944454  164.66000366    0.47999999    2.94000006
   13.94388866  164.66000366    0.50000000    2.93000007
   13.94805527  158.52000427    0.50000000    2.94000006
   13.95111084  152.55700684    0.50000000    2.93000007
   13.95444393  150.43800354    0.50000000    2.94000006
   13.95777798  157.83099365    0.50000000    2.93000007
   13.96083355  152.51300049    0.50000000    2.94000006
   13.96416664  161.81100464    0.50000000    2.93000007
   13.96749973  152.62500000    0.50000000    2.93000007
   13.97055531  153.49800110    0.47999999    2.93000007
   13.97388840  165.59199524    0.47999999    2.93000007
   13.97833252  165.59199524    0.47999999    2.93000007
   13.98249912  164.96299744    0.47999999    2.94000006
   13.98583317  167.82400513    0.50000000    2.94000006
   13.98888874  150.71299744    0.50000000    2.94000006
   13.99222279  157.78700256    0.50000000    2.94000006
   13.99555588  160.39399719    0.50000000    2.93000007
   13.99861145  149.34599304    0.50000000    2.94000006
   14.00194454  160.51899719    0.50000000    2.93000007
   14.00500011  157.46099854    0.47999999    2.93000007
   14.00833321  148.92500305    0.50000000    2.94000006
   14.01305580  148.92500305    0.47999999    2.93000007
   14.01694393  152.37600708    0.47999999    2.94000006
   14.02027798  154.22099304    0.47999999    2.94000006
   14.02361107  157.01699829    0.47999999    2.94000006
   14.02666664  169.44200134    0.47999999    2.94000006
   14.02999973  161.38699341    0.46000001    2.94000006
   14.03333378  157.43400574    0.46000001    2.94000006
   14.03638935  158.85499573    0.47999999    2.94000006
   14.03972244  144.47399902    0.47999999    2.94000006
   14.04277802  154.63900757    0.47999999    2.94000006
   14.04750061  154.63900757    0.47999999    2.93000007
   14.05166721  162.37300110    0.47999999    2.93000007
   14.05472279  162.98500061    0.47999999    2.94000006
   14.05805588  154.10699463    0.47999999    2.96000004
   14.06111145  154.07699585    0.46000001    2.94000006
   14.06444454  159.09199524    0.46000001    2.93000007
   14.06777763  160.45100403    0.47999999    2.94000006
   14.07083321  165.54400635    0.47999999    2.94000006
   14.07416630  161.52699280    0.47999999    2.94000006
   14.07750034  152.24400330    0.47999999    2.93000007
   14.08194447  152.24400330    0.47999999    2.94000006
   14.08611107  152.07499695    0.47999999    2.93000007
   14.08916664  142.73300171    0.47999999    2.94000006
   14.09249973  165.33999634    0.47999999    2.94000006
   14.09583282  154.16799927    0.47999999    2.94000006
   14.09888840  160.53599548    0.47999999    2.94000006
   14.10222244  156.66099548    0.47999999    2.94000006
   14.10555553  170.19000244    0.47999999    2.94000006
   14.10861111  171.95300293    0.47999999    2.94000006
   14.11194515  173.65199280    0.47999999    2.94000006
   14.11638927  173.65199280    0.47999999    2.94000006
   14.12055588  161.81399536    0.47999999    2.93000007
   14.12388897  164.69000244    0.50000000    2.94000006
   14.12694454  163.79200745    0.50000000    2.94000006
   14.13027763  164.49200439    0.50000000    2.94000006
   14.13361073  155.57099915    0.50000000    2.94000006
   14.13666630  159.96000671    0.50000000    2.94000006
   14.14000034  163.76400757    0.50000000    2.94000006
   14.14305496  168.32000732    0.50000000    2.94000006
   14.14638901  157.70700073    0.50000000    2.94000006
   14.15111065  157.70700073    0.50000000    2.94000006
   14.15499973  156.72500610    0.50000000    2.94000006
   14.15833282  152.67599487    0.50000000    2.94000006
   14.16166592  158.86599731    0.50000000    2.94000006
   14.16472149  152.00599670    0.50000000    2.94000006
   14.16805553  150.42399597    0.50000000    2.96000004
   14.17138958  153.00900269    0.50000000    2.94000006
   14.17444515  144.92399597    0.50000000    2.94000006
   14.17777824  144.17599487    0.51999998    2.94000006
   14.18083382  159.35099792    0.51999998    2.94000006
   14.18555546  159.35099792    0.52999997    2.94000006
   14.18944454  146.57699585    0.51999998    2.94000006
   14.19277763  154.30200195    0.52999997    2.94000006
   14.19611073  154.64700317    0.52999997    2.94000006
   14.19916630  152.08099365    0.52999997    2.94000006
   14.20249939  146.43600464    0.52999997    2.94000006
   14.20583344  154.35099792    0.52999997    2.94000006
   14.20888901  147.84199524    0.55000001    2.94000006
   14.21222210  147.54499817    0.55000001    2.94000006
   14.21555519  150.24099731    0.55000001    2.94000006
   14.21999931  150.24099731    0.55000001    2.96000004
   14.22416592  162.13600159    0.55000001    2.94000006
   14.22722149  159.63800049    0.55000001    2.94000006
   14.23055553  161.22300720    0.55000001    2.94000006
   14.23388958  156.99400330    0.55000001    2.94000006
   14.23694515  147.84700012    0.56999999    2.94000006
   14.24027824  143.11700439    0.55000001    2.94000006
   14.24361134  146.44900513    0.55000001    2.94000006
   14.24666691  154.93899536    0.56999999    2.94000006
   14.25000000  156.78500366    0.56999999    2.94000006
   14.27055550  156.78500366    0.58999997    2.96000004
   14.27472210  156.21400452    0.56999999    2.94000006
   14.27805519  153.25700378    0.58999997    2.94000006
   14.28111076  142.24699402    0.58999997    2.94000006
   14.28444481  149.66099548    0.58999997    2.94000006
   14.28750038  147.63900757    0.58999997    2.96000004
   14.29083347  159.67999268    0.58999997    2.94000006
   14.29416752  158.07800293    0.58999997    2.94000006
   14.29722309  149.90800476    0.58999997    2.94000006
   14.30055618  159.09800720    0.58999997    2.94000006
   14.30500031  159.09800720    0.58999997    2.96000004
   14.30916691  156.13200378    0.58999997    2.94000006
   14.31222248  151.88299561    0.58999997    2.94000006
   14.31555557  160.25300598    0.58999997    2.94000006
   14.31888866  157.16799927    0.58999997    2.94000006
   14.32194424  154.54800415    0.58999997    2.94000006
   14.32527733  158.34500122    0.58999997    2.94000006
   14.32861137  164.85600281    0.58999997    2.94000006
   14.33166695  159.41499329    0.56999999    2.94000006
   14.33500004  164.87800598    0.56999999    2.94000006
   14.33944416  164.87800598    0.56999999    2.94000006
   14.34361076  158.23300171    0.55000001    2.94000006
   14.34694386  158.24000549    0.55000001    2.94000006
   14.35000038  155.31300354    0.55000001    2.94000006
   14.35333347  154.39199829    0.58999997    2.96000004
   14.35666752  159.33700562    0.58999997    2.94000006
   14.35972214  159.66299438    0.58999997    2.96000004
   14.36305618  154.08299255    0.58999997    2.96000004
   14.36611176  151.33900452    0.58999997    2.94000006
   14.36944485  164.96800232    0.61000001    2.94000006
   14.37416649  164.96800232    0.61000001    2.94000006
   14.37833309  157.68099976    0.61000001    2.94000006
   14.38138866  151.83999634    0.61000001    2.96000004
   14.38472176  160.05999756    0.61000001    2.96000004
   14.38805580  162.11099243    0.61000001    2.94000006
   14.39111137  165.63800049    0.61000001    2.94000006
   14.39444447  155.62300110    0.61000001    2.94000006
   14.39777756  161.59599304    0.61000001    2.94000006
   14.40083313  162.57600403    0.56999999    2.94000006
   14.40416622  160.24000549    0.58999997    2.94000006
   14.40861034  160.24000549    0.56999999    2.96000004
   14.41249943  161.83500671    0.55000001    2.94000006
   14.41583252  150.99800110    0.55000001    2.96000004
   14.41916656  163.12699890    0.56999999    2.96000004
   14.42250061  165.18899536    0.56999999    2.96000004
   14.42555618  148.26800537    0.56999999    2.96000004
   14.42888927  155.08799744    0.58999997    2.96000004
   14.43222237  158.35899353    0.56999999    2.96000004
   14.43527794  157.69999695    0.58999997    2.94000006
   14.43861103  160.76300049    0.58999997    2.94000006
   14.44305515  160.76300049    0.56999999    2.96000004
   14.44722271  183.75799561    0.56999999    2.96000004
   14.45027733  183.27200317    0.56999999    2.94000006
   14.45361137  177.34599304    0.56999999    2.96000004
   14.45694447  186.91999817    0.56999999    2.96000004
   14.46000004  168.48599243    0.56999999    2.96000004
   14.46333313  183.93400574    0.58999997    2.96000004
   14.46638870  176.98199463    0.58999997    2.96000004
   14.46972179  173.46899414    0.61000001    2.94000006
   14.47305489  170.92999268    0.61000001    2.96000004
   14.47749996  170.92999268    0.61000001    2.96000004
   14.48166656  158.17999268    0.63000000    2.96000004
   14.48500061  153.52999878    0.64999998    2.98000002
   14.48805618  156.75599670    0.64999998    2.94000006
   14.49138927  157.19500732    0.64999998    2.96000004
   14.49444485  156.82400513    0.64999998    2.94000006
   14.49777794  163.41499329    0.67000002    2.96000004
   14.50111103  161.24000549    0.64999998    2.96000004
   14.50416660  166.74600220    0.67000002    2.96000004
   14.50749969  169.06199646    0.67000002    2.96000004
   14.51194477  169.06199646    0.67000002    2.96000004
   14.51611137  167.96600342    0.67000002    2.94000006
   14.51944447  169.41299438    0.69000000    2.94000006
   14.52250004  161.00900269    0.67000002    2.96000004
   14.52583313  171.94999695    0.67000002    2.94000006
   14.52916622  162.75300598    0.67000002    2.96000004
   14.53222179  169.88699341    0.67000002    2.94000006
   14.53555584  169.39900208    0.67000002    2.96000004
   14.53888893  173.33299255    0.67000002    2.96000004
   14.54194450  165.76199341    0.69000000    2.96000004
   14.54666710  165.76199341    0.67000002    2.96000004
   14.55055618  161.69900513    0.67000002    2.96000004
   14.55388927  163.20300293    0.69000000    2.96000004
   14.55722237  166.92799377    0.67000002    2.94000006
   14.56055546  159.63600159    0.67000002    2.96000004
   14.56361103  157.18899536    0.67000002    2.96000004
   14.56694412  156.48399353    0.67000002    2.96000004
   14.57027817  156.96600342    0.67000002    2.98000002
   14.57333374  155.10899353    0.67000002    2.96000004
   14.57666683  166.35800171    0.64999998    2.96000004
   14.58111095  166.35800171    0.63000000    2.96000004
   14.58527756  165.24000549    0.61000001    2.96000004
   14.58833313  151.52499390    0.58999997    2.96000004
   14.59166622  163.48599243    0.56999999    2.94000006
   14.59472179  159.30299377    0.55000001    2.96000004
   14.59805489  163.56700134    0.52999997    2.98000002
   14.60138893  162.45100403    0.55000001    2.98000002
   14.60444450  163.67500305    0.52999997    2.98000002
   14.60777855  170.16099548    0.52999997    2.98000002
   14.61111164  169.82099915    0.52999997    2.98000002
   14.61555576  169.82099915    0.52999997    2.96000004
   14.61972237  155.64500427    0.52999997    2.98000002
   14.62277794  172.61000061    0.51999998    2.96000004
   14.62611103  163.02600098    0.51999998    2.98000002
   14.62944412  166.60099792    0.51999998    2.96000004
   14.63249969  169.16600037    0.51999998    2.98000002
   14.63583279  156.29400635    0.51999998    2.96000004
   14.63916683  163.11700439    0.52999997    2.98000002
   14.64222240  162.14199829    0.52999997    2.98000002
   14.64555550  164.25900269    0.52999997    2.98000002
   14.64999962  164.25900269    0.52999997    2.98000002
   14.65416622  171.90199280    0.51999998    2.98000002
   14.65749931  161.23699951    0.51999998    2.98000002
   14.66055489  164.53100586    0.52999997    2.96000004
   14.66388893  153.44700623    0.52999997    2.96000004
   14.66722298  161.98199463    0.52999997    2.96000004
   14.67027855  150.55999756    0.52999997    2.96000004
   14.67361164  165.46200562    0.55000001    2.96000004
   14.67694473  162.69799805    0.55000001    2.98000002
   14.68000031  166.93600464    0.52999997    2.96000004
   14.68444443  166.93600464    0.51999998    2.96000004
   14.68861103  163.45500183    0.52999997    2.98000002
   14.69194412  169.14199829    0.51999998    2.96000004
   14.69527817  171.02799988    0.52999997    2.98000002
   14.69833374  158.58700562    0.52999997    2.96000004
   14.70166683  161.01199341    0.52999997    2.96000004
   14.70472240  163.82000732    0.52999997    2.96000004
   14.70805550  161.99200439    0.55000001    2.98000002
   14.71138859  176.91499329    0.56999999    2.98000002
   14.71444416  167.17700195    0.56999999    2.96000004
   14.71916580  167.17700195    0.56999999    2.96000004
   14.72333336  162.57899475    0.56999999    2.96000004
   14.72638798  166.37500000    0.56999999    2.98000002
   14.72972202  163.69799805    0.56999999    2.98000002
   14.73277760  168.96699524    0.56999999    2.98000002
   14.73611164  168.49099731    0.56999999    2.98000002
   14.73944473  165.47999573    0.56999999    2.96000004
   14.74250031  165.79499817    0.56999999    2.96000004
   14.74583340  175.90499878    0.55000001    2.96000004
   14.74916649  165.08299255    0.55000001    2.98000002
   14.75361156  165.08299255    0.56999999    2.96000004
   14.75777817  164.55200195    0.55000001    2.98000002
   14.76083374  157.07200623    0.55000001    2.96000004
   14.76416683  158.40199280    0.55000001    2.98000002
   14.76749992  160.91200256    0.56999999    2.98000002
   14.77055550  164.93899536    0.56999999    2.96000004
   14.77388859  157.56100464    0.56999999    2.96000004
   14.77694416  165.68200684    0.56999999    2.98000002
   14.78027725  157.31500244    0.56999999    2.96000004
   14.78361130  163.41200256    0.55000001    2.98000002
   14.78805637  163.41200256    0.56999999    2.96000004
   14.79222298  156.01100159    0.56999999    2.98000002
   14.79555607  161.77999878    0.58999997    2.98000002
   14.79861164  166.07400513    0.58999997    2.96000004
   14.80194473  156.34500122    0.58999997    2.98000002
   14.80527782  158.83399963    0.58999997    2.96000004
   14.80833340  157.90699768    0.58999997    2.94000006
   14.81166649  166.36199951    0.58999997    2.98000002
   14.81472206  153.42599487    0.58999997    2.98000002
   14.81805515  165.67799377    0.56999999    2.96000004
   14.82250023  165.67799377    0.56999999    2.98000002
   14.82666683  163.78799438    0.56999999    2.96000004
   14.82999992  162.17700195    0.58999997    2.96000004
   14.83305550  160.61900330    0.58999997    2.98000002
   14.83638859  164.45100403    0.58999997    2.98000002
   14.83972168  167.04899597    0.58999997    2.96000004
   14.84277725  166.93200684    0.58999997    2.98000002
   14.84611034  169.50999451    0.58999997    2.98000002
   14.84944439  161.99600220    0.58999997    2.98000002
   14.85249996  157.83999634    0.58999997    2.98000002
   14.85722256  157.83999634    0.58999997    2.98000002
   14.86111164  158.67199707    0.58999997    2.98000002
   14.86444473  168.60499573    0.58999997    2.96000004
   14.86777782  168.27499390    0.58999997    2.96000004
   14.87083340  167.70899963    0.58999997    2.98000002
   14.87416649  162.38699341    0.61000001    2.98000002
   14.87750053  169.64999390    0.61000001    2.98000002
   14.88055611  169.67199707    0.61000001    2.98000002
   14.88388920  162.34100342    0.64999998    2.96000004
   14.88694477  164.57400513    0.63000000    2.98000002
   14.89166641  164.57400513    0.61000001    2.98000002
   14.89583302  164.98599243    0.61000001    2.96000004
   14.89888859  168.52299500    0.58999997    2.98000002
   14.90222168  171.34300232    0.56999999    3.00000000
   14.90555477  163.37500000    0.55000001    2.98000002
   14.90861034  163.64700317    0.55000001    2.96000004
   14.91194439  168.06100464    0.55000001    2.98000002
   14.91499996  172.38900757    0.52999997    2.98000002
   14.91833401  167.56799316    0.52999997    2.96000004
   14.92166710  167.83599854    0.52999997    2.98000002
   14.92611122  167.83599854    0.55000001    2.98000002
   14.93027782  174.90699768    0.52999997    2.98000002
   14.93361092  173.73300171    0.52999997    2.98000002
   14.93666649  158.64599609    0.52999997    2.98000002
   14.94000053  163.31100464    0.55000001    2.98000002
   14.94305515  171.73500061    0.52999997    2.98000002
   14.94638920  160.73800659    0.52999997    2.98000002
   14.94972229  168.20300293    0.51999998    2.98000002
   14.95277786  162.83599854    0.50000000    2.98000002
   14.95611095  165.42100525    0.50000000    2.98000002
   14.96055508  165.42100525    0.50000000    2.98000002
   14.96472168  165.70100403    0.50000000    2.98000002
   14.96805477  166.63400269    0.50000000    3.00000000
   14.97111034  169.95300293    0.50000000    2.98000002
   14.97444439  170.18099976    0.50000000    2.98000002
   14.97777748  160.67500305    0.50000000    3.00000000
   14.98083305  168.18800354    0.50000000    2.98000002
   14.98416710  172.77099609    0.50000000    3.00000000
   14.98722267  163.71600342    0.51999998    2.98000002
   14.99055576  161.63800049    0.51999998    3.00000000
   14.99527836  161.63800049    0.50000000    2.98000002
   14.99916649  167.96600342    0.51999998    2.98000002
   15.00249958  157.12100220    0.51999998    2.98000002
   15.00583363  164.06399536    0.50000000    2.98000002
   15.00888920  167.73399353    0.51999998    3.00000000
   15.01222229  165.46000671    0.51999998    2.98000002
   15.01555538  167.94599915    0.52999997    2.98000002
   15.01861095  157.74800110    0.52999997    2.98000002
   15.02194405  167.34300232    0.52999997    2.98000002
   15.02499962  171.35000610    0.55000001    2.98000002
   15.02972221  171.35000610    0.52999997    2.96000004
   15.03388977  166.98199463    0.52999997    2.98000002
   15.03694534  169.81900024    0.52999997    2.98000002
   15.04027843  179.64999390    0.51999998    2.98000002
   15.04333401  166.39799500    0.51999998    2.98000002
   15.04666710  173.97099304    0.51999998    2.98000002
   15.05000019  161.86999512    0.51999998    2.98000002
   15.05305576  176.02699280    0.51999998    2.98000002
   15.05638885  172.27999878    0.52999997    2.98000002
   15.05972195  171.19700623    0.51999998    2.98000002
   15.06416702  171.19700623    0.51999998    2.98000002
   15.06833363  159.72599792    0.52999997    2.98000002
   15.17361164   -1.00000000   -1.00000000   -1.00000000
   15.26361084   -1.00000000   -1.00000000   -1.00000000
   15.35861111   -1.00000000   -1.00000000   -1.00000000
   15.45944405   -1.00000000   -1.00000000   -1.00000000
   15.49111176  167.84199524    0.52999997    3.00000000
   15.49416733  179.50399780    0.55000001    3.00000000
   15.49750042  172.26400757    0.52999997    2.98000002
   15.50083351  174.23399353    0.52999997    3.00000000
   15.50388908  179.41200256    0.52999997    3.00000000
   15.50722218  171.71499634    0.51999998    3.01999998
   15.51138878  171.71499634    0.51999998    3.00000000
   15.51555538  173.25399780    0.51999998    3.00000000
   15.51861095  179.55400085    0.52999997    3.00000000
   15.52194405  177.29699707    0.51999998    3.00000000
   15.52444458  161.59500122    0.52999997    3.00000000
   15.52555561  168.13299561    0.51999998    3.00000000
   15.52888870  171.16700745    0.51999998    3.01999998
   15.53222179  185.26499939    0.51999998    2.98000002
   15.53527832  174.34500122    0.51999998    3.00000000
   15.53861141  161.20399475    0.51999998    3.00000000
   15.54166698  184.61300659    0.51999998    3.00000000
   15.54583359  184.61300659    0.51999998    3.00000000
   15.55000019  174.49299622    0.50000000    3.00000000
   15.55333328  164.09899902    0.50000000    3.00000000
   15.55638885  151.95100403    0.50000000    3.00000000
   15.55777836  167.78399658    0.50000000    3.00000000
   15.56000042  162.27200317    0.51999998    3.00000000
   15.56333351  157.52999878    0.50000000    3.00000000
   15.56666660  167.51899719    0.50000000    3.00000000
   15.56972218  169.79699707    0.51999998    3.00000000
   15.57305527  166.02099609    0.51999998    3.00000000
   15.57638836  174.94900513    0.51999998    3.00000000
   15.58055592  174.94900513    0.51999998    3.00000000
   15.58472157  168.15600586    0.50000000    3.00000000
   15.58805561  166.14199829    0.50000000    3.00000000
   15.59111118  171.50300598    0.50000000    3.00000000
   15.59138870  171.29200745    0.50000000    3.00000000
   15.59472179  161.52299500    0.51999998    3.00000000
   15.59805489  165.08099365    0.50000000    3.00000000
   15.60111141  170.27000427    0.50000000    3.00000000
   15.60444450  158.93400574    0.47999999    3.00000000
   15.60777855  176.88299561    0.50000000    3.00000000
   15.61083412  178.50100708    0.47999999    3.00000000
   15.61500072  178.50100708    0.47999999    3.00000000
   15.61916637  169.85800171    0.47999999    3.00000000
   15.62250042  171.22000122    0.47999999    3.00000000
   15.62444496  168.98699951    0.47999999    3.00000000
   15.62611103  179.98800659    0.47999999    3.00000000
   15.62916660  177.74499512    0.47999999    3.00000000
   15.63249969  180.82099915    0.50000000    3.00000000
   15.63555527  172.84700012    0.50000000    3.00000000
   15.63888836  177.59899902    0.50000000    3.00000000
   15.64222240  158.39900208    0.50000000    3.00000000
   15.64527798  177.29299927    0.51999998    3.00000000
   15.64944458  177.29299927    0.52999997    3.01999998
   15.65361118  170.27499390    0.51999998    3.00000000
   15.65694427  170.56799316    0.52999997    3.00000000
   15.65777779  170.72799683    0.52999997    3.01999998
   15.66055489  177.45399475    0.52999997    3.00000000
   15.66361046  168.81399536    0.51999998    3.00000000
   15.66694450  176.76800537    0.52999997    3.00000000
   15.67000008  179.70599365    0.51999998    3.00000000
   15.67333412  177.19500732    0.52999997    3.00000000
   15.67666721  177.44799805    0.52999997    3.00000000
   15.67972279  174.84800720    0.52999997    3.00000000
   15.68416691  174.84800720    0.52999997    3.01999998
   15.68805599  176.35499573    0.55000001    3.00000000
   15.69111156  176.79499817    0.55000001    3.00000000
   15.69166660  176.13200378    0.55000001    3.00000000
   15.69499969  174.00999451    0.55000001    3.00000000
   15.69833374  167.78999329    0.55000001    3.00000000
   15.70138836  175.49400330    0.55000001    3.00000000
   15.70472240  173.78999329    0.55000001    3.00000000
   15.70805550  179.80000305    0.55000001    3.01999998
   15.71111107  186.34599304    0.55000001    3.00000000
   15.71444416  182.55499268    0.55000001    3.00000000
   15.71861076  182.55499268    0.55000001    3.00000000
   15.72277737  186.10899353    0.55000001    3.01999998
   15.72444439  180.63000488    0.55000001    3.01999998
   15.72638798  180.61700439    0.55000001    3.00000000
   15.72944355  177.08700562    0.55000001    3.00000000
   15.73277760  184.90600586    0.55000001    3.00000000
   15.73583317  167.18899536    0.55000001    3.00000000
   15.73916721  167.17999268    0.55000001    3.00000000
   15.74250031  183.09599304    0.55000001    3.00000000
   15.74555588  175.24699402    0.55000001    3.01999998
   15.74888897  176.25999451    0.55000001    3.01999998
   15.75305557  176.25999451    0.52999997    3.01999998
   15.75722218  189.30299377    0.51999998    3.00000000
   15.75777817  184.85299683    0.51999998    3.00000000
   15.76083374  171.99000549    0.51999998    3.01999998
   15.76388931  175.25700378    0.50000000    3.00000000
   15.76722240  165.30799866    0.50000000    3.01999998
   15.77027798  170.38800049    0.50000000    3.01999998
   15.77361107  171.50999451    0.50000000    3.00000000
   15.77694416  185.61399841    0.50000000    3.00000000
   15.77999973  179.17599487    0.50000000    3.00000000
   15.78333378  175.94400024    0.50000000    3.00000000
   15.78750038  175.94400024    0.50000000    3.00000000
   15.79166698  175.36000061    0.51999998    3.00000000
   15.79500008  181.77499390    0.51999998    3.01999998
   15.79805565  171.70399475    0.51999998    3.00000000
   15.80138874  171.05099487    0.51999998    3.00000000
   15.80472279  173.20300293    0.51999998    3.01999998
   15.80777836  172.71899414    0.51999998    3.00000000
   15.81111145  171.49400330    0.50000000    3.00000000
   15.81416702  174.76600647    0.50000000    3.00000000
   15.81750011  162.91600037    0.47999999    3.00000000
   15.82194424  162.91600037    0.44000000    3.01999998
   15.82611084  172.23300171    0.41999999    3.00000000
   15.82944393  178.41099548    0.38000000    3.00000000
   15.83277798  184.91200256    0.40000001    3.00000000
   15.83583260  173.50799561    0.40000001    3.00000000
   15.83916664  166.30299377    0.40000001    3.01999998
   15.84222221  175.45100403    0.41999999    3.00000000
   15.84555531  173.36500549    0.41999999    3.00000000
   15.84888840  167.89399719    0.41999999    3.00000000
   15.85194492  175.79800415    0.40000001    3.00000000
   15.85666752  175.79800415    0.41999999    3.00000000
   15.86083412  176.30999756    0.41999999    3.01999998
   15.86388969  175.47700500    0.44000000    3.00000000
   15.86722279  180.96099854    0.44000000    3.00000000
   15.87027836  184.14500427    0.46000001    3.00000000
   15.87361145  169.46899414    0.46000001    3.00000000
   15.87694454  165.93400574    0.46000001    3.00000000
   15.88000011  165.35800171    0.46000001    3.00000000
   15.88333321  163.75399780    0.46000001    3.01999998
   15.88666630  167.93899536    0.46000001    3.01999998
   15.89111137  167.93899536    0.47999999    3.00000000
   15.89527798  167.17599487    0.51999998    3.01999998
   15.89833355  167.68600464    0.51999998    3.00000000
   15.90166664  164.39399719    0.51999998    3.00000000
   15.90499973  175.54400635    0.51999998    3.00000000
   15.90805531  175.45500183    0.51999998    3.00000000
   15.91138840  170.36900330    0.50000000    3.00000000
   15.91472149  164.50900269    0.51999998    3.00000000
   15.91777802  168.78799438    0.50000000    3.00000000
   15.92111111  164.08399963    0.51999998    3.00000000
   15.92555618  164.08399963    0.51999998    3.00000000
   15.92972279  178.06199646    0.51999998    3.00000000
   15.93305588  166.61700439    0.51999998    3.01999998
   15.93611145  157.78799438    0.50000000    3.01999998
   15.93944454  168.68200684    0.50000000    3.00000000
   15.94250011  155.39999390    0.47999999    3.01999998
   15.94583321  161.11900330    0.47999999    3.01999998
   15.94916630  159.25500488    0.47999999    3.01999998
   15.95222187  162.31300354    0.47999999    3.00000000
   15.95555496  173.20199585    0.47999999    3.01999998
   15.96000004  173.20199585    0.47999999    3.00000000
   15.96416664  162.08500671    0.50000000    3.01999998
   15.96749973  169.75999451    0.50000000    3.00000000
   15.97055531  166.53199768    0.47999999    3.00000000
   15.97388840  160.63999939    0.46000001    3.00000000
   15.97722149  172.81100464    0.46000001    3.01999998
   15.98027706  164.58099365    0.46000001    3.00000000
   15.98361111  166.78300476    0.46000001    3.00000000
   15.98694515  168.27000427    0.46000001    3.00000000
   15.99000072  164.99200439    0.44000000    3.00000000
   15.99472237  164.99200439    0.46000001    3.00000000
   15.99888897  158.91000366    0.46000001    3.00000000
   16.00194359  166.77999878    0.44000000    3.00000000
   16.00527763  165.88999939    0.44000000    3.00000000
   16.00833321  166.13200378    0.41999999    3.00000000
   16.01166725  159.72200012    0.41999999    3.01999998
   16.01499939  155.96499634    0.41999999    3.01999998
   16.01805496  158.39199829    0.41999999    3.00000000
   16.02138901  151.31199646    0.41999999    3.00000000
   16.02472115  156.98800659    0.41999999    3.01999998
   16.02916718  156.98800659    0.44000000    3.01999998
   16.03333282  148.66900635    0.50000000    3.00000000
   16.03638840  160.33999634    0.51999998    3.00000000
   16.03972244  158.14500427    0.51999998    3.00000000
   16.04305458  166.82800293    0.50000000    3.01999998
   16.04611015  160.27400208    0.51999998    3.00000000
   16.04944420  153.00700378    0.46000001    3.00000000
   16.05277634  154.25399780    0.46000001    3.01999998
   16.05583191  154.42700195    0.46000001    3.01999998
   16.05916595  151.72099304    0.44000000    3.01999998
   16.06361008  151.72099304    0.46000001    3.00000000
   16.06777954  155.69400024    0.46000001    3.01999998
   16.07111168  150.61099243    0.46000001    3.00000000
   16.07416725  162.42700195    0.46000001    3.00000000
   16.07750130  154.68299866    0.46000001    3.01999998
   16.08055687  161.13699341    0.46000001    3.00000000
   16.08388901  156.99499512    0.46000001    3.00000000
   16.08722305  150.33000183    0.46000001    3.00000000
   16.09027863  170.47700500    0.46000001    3.01999998
   16.09361267  174.06599426    0.46000001    3.00000000
   16.09805679  174.06599426    0.46000001    3.00000000
   16.10222244  162.21600342    0.50000000    3.00000000
   16.10555649  153.15800476    0.50000000    3.00000000
   16.10861206  157.48800659    0.44000000    3.00000000
   16.11194420  163.83700562    0.44000000    3.00000000
   16.11527824  154.59899902    0.46000001    3.01999998
   16.11833382  144.04699707    0.46000001    3.01999998
   16.12166595  161.10099792    0.46000001    3.01999998
   16.12500000  166.65199280    0.44000000    3.00000000
   16.12805557  157.84899902    0.44000000    3.00000000
   16.13277817  157.84899902    0.41999999    3.01999998
   16.13666725  168.26800537    0.41999999    3.00000000
   16.13999939  151.36599731    0.41999999    3.00000000
   16.14333344  161.90800476    0.41999999    3.00000000
   16.14638901  152.34899902    0.41999999    3.00000000
   16.14972115  164.07099915    0.41999999    3.01999998
   16.15305519  166.34899902    0.44000000    3.01999998
   16.15611076  157.38099670    0.44000000    3.00000000
   16.15944481  169.09800720    0.50000000    3.01999998
   16.16250038  158.04400635    0.46000001    3.01999998
   16.16722107  158.04400635    0.47999999    3.00000000
   16.17138863  156.65600586    0.47999999    3.00000000
   16.17444420  157.36300659    0.47999999    3.00000000
   16.17777634  159.58900452    0.47999999    3.01999998
   16.18083191  156.03300476    0.46000001    3.00000000
   16.18416595  162.97599792    0.46000001    3.00000000
   16.18750000  160.88699341    0.44000000    3.01999998
   16.19055557  165.51300049    0.44000000    3.01999998
   16.19388771  163.80900574    0.44000000    3.01999998
   16.19722176  155.55400085    0.41999999    3.00000000
   16.20166779  155.55400085    0.41999999    3.01999998
   16.20583344  164.38800049    0.41999999    3.00000000
   16.20888901  167.49400330    0.41999999    3.00000000
   16.21222305  158.02000427    0.41999999    3.00000000
   16.21555710  151.32800293    0.41999999    3.00000000
   16.21861076  175.78199768    0.41999999    3.00000000
   16.22194481  165.44900513    0.44000000    3.00000000
   16.22527885  156.50999451    0.44000000    3.00000000
   16.22833443  152.31199646    0.44000000    3.01999998
   16.23166656  168.32600403    0.44000000    3.01999998
   16.23611069  168.32600403    0.44000000    3.01999998
   16.24027824  169.94200134    0.46000001    3.00000000
   16.24361229  166.75599670    0.46000001    3.00000000
   16.24666786  165.24099731    0.46000001    3.01999998
   16.25000000  154.34100342    0.44000000    3.00000000
   16.25333405  164.52999878    0.44000000    3.00000000
   16.25638962  155.81100464    0.46000001    3.00000000
   16.25972176  167.30799866    0.44000000    3.00000000
   16.26305580  161.91700745    0.44000000    3.01999998
   16.26611137  165.78700256    0.44000000    3.01999998
   16.27055550  165.78700256    0.44000000    3.00000000
   16.27472115  167.90699768    0.44000000    3.00000000
   16.27805519  162.32299805    0.44000000    3.00000000
   16.28138924  164.59800720    0.46000001    3.00000000
   16.28444481  157.29699707    0.46000001    3.00000000
   16.28777695  159.87399292    0.46000001    3.00000000
   16.29083252  149.13299561    0.44000000    3.01999998
   16.29416656  155.33599854    0.44000000    3.00000000
   16.29749870  151.95399475    0.44000000    3.01999998
   16.30055428  161.24200439    0.46000001    3.01999998
   16.30527687  161.24200439    0.46000001    3.01999998
   16.30944443  170.41999817    0.46000001    3.00000000
   16.31250000  165.21899414    0.46000001    3.00000000
   16.31583214  160.09599304    0.46000001    3.00000000
   16.31888962  149.90100098    0.46000001    3.00000000
   16.32222366  142.83299255    0.44000000    3.00000000
   16.32555580  145.64199829    0.46000001    2.98000002
   16.32861137  160.25199890    0.46000001    3.00000000
   16.33194542  149.57800293    0.46000001    3.00000000
   16.33527756  153.23399353    0.46000001    3.01999998
   16.33972359  153.23399353    0.46000001    3.00000000
   16.34388924  166.69000244    0.50000000    3.01999998
   16.34694481  152.34599304    0.51999998    3.00000000
   16.35027885  150.18099976    0.47999999    3.01999998
   16.35361099  159.80700684    0.47999999    3.00000000
   16.35666656  155.78799438    0.46000001    3.01999998
   16.36000061  152.75599670    0.46000001    3.00000000
   16.36333466  158.07400513    0.44000000    3.00000000
   16.36638832  147.41600037    0.46000001    3.00000000
   16.36972237  155.90800476    0.47999999    3.01999998
   16.37416649  155.90800476    0.50000000    3.00000000
   16.37833405  155.05599976    0.50000000    3.00000000
   16.38166618  153.24400330    0.50000000    3.00000000
   16.38472176  158.90299988    0.47999999    3.01999998
   16.38805580  148.00700378    0.47999999    3.00000000
   16.39111137  149.70899963    0.47999999    3.00000000
   16.39444351  152.33700562    0.47999999    3.00000000
   16.39777756  153.08900452    0.47999999    3.00000000
   16.40083313  151.23899841    0.47999999    3.00000000
   16.40416718  153.13600159    0.47999999    3.00000000
   16.40861130  153.13600159    0.47999999    3.01999998
   16.41277695  144.66799927    0.47999999    3.01999998
   16.41611099  159.09199524    0.47999999    3.00000000
   16.41916656  146.11399841    0.47999999    3.01999998
   16.42249870  162.38600159    0.50000000    3.01999998
   16.42583275  158.60000610    0.51999998    3.00000000
   16.42888832  155.88499451    0.51999998    3.01999998
   16.43222237  160.16000366    0.51999998    3.00000000
   16.43555450  156.63800049    0.51999998    3.00000000
   16.43861008  154.39399719    0.50000000    3.01999998
   16.44333267  154.39399719    0.50000000    3.01999998
   16.44722176  156.82099915    0.50000000    3.01999998
   16.45055580  145.47900391    0.47999999    3.00000000
   16.45388985  153.76899719    0.47999999    3.00000000
   16.45694542  153.03500366    0.47999999    3.01999998
   16.46027946  144.71299744    0.47999999    3.01999998
   16.46361160  148.57299805    0.50000000    3.01999998
   16.46666718  152.05799866    0.47999999    3.00000000
   16.47000122  150.89100647    0.47999999    3.00000000
   16.47305679  152.59300232    0.47999999    3.00000000
   16.47777748  152.59300232    0.47999999    3.00000000
   16.48194504  149.40899658    0.47999999    3.00000000
   16.48500061  143.47999573    0.47999999    3.01999998
   16.48833275  159.13000488    0.47999999    3.01999998
   16.50805473  154.22599792    0.47999999    3.00000000
   16.51250076  154.22599792    0.47999999    3.00000000
   16.51666641  151.14199829    0.50000000    3.00000000
   16.51972198  154.67300415    0.50000000    3.00000000
   16.52305603  148.43699646    0.50000000    3.00000000
   16.52638817  159.62300110    0.50000000    3.00000000
   16.52944374  157.42300415    0.50000000    3.01999998
   16.53277779  147.05700684    0.47999999    3.01999998
   16.53583336  164.50000000    0.47999999    3.00000000
   16.53916550  164.75500488    0.50000000    3.00000000
   16.54249954  156.85499573    0.50000000    3.01999998
   16.54694366  156.85499573    0.50000000    3.00000000
   16.55111122  162.68800354    0.51999998    3.01999998
   16.55444336  150.55700684    0.52999997    3.00000000
   16.55749893  165.72500610    0.52999997    3.00000000
   16.56083298  158.62300110    0.52999997    3.01999998
   16.56388855  146.76400757    0.51999998    3.00000000
   16.56722260  166.93499756    0.52999997    3.01999998
   16.57055664  166.15800476    0.51999998    3.01999998
   16.57361221  159.98800659    0.51999998    3.01999998
   16.57694626  167.21699524    0.52999997    3.00000000
   16.58139038  167.21699524    0.55000001    3.00000000
   16.58555603  165.79699707    0.55000001    3.00000000
   16.58889008  163.35000610    0.52999997    3.00000000
   16.59194565  158.03100586    0.52999997    3.00000000
   16.59527779  153.74400330    0.52999997    3.01999998
   16.59861183  150.09599304    0.52999997    3.00000000
   16.60166740  158.57200623    0.52999997    3.00000000
   16.60499954  165.45700073    0.52999997    3.00000000
   16.60833359  153.25100708    0.52999997    3.01999998
   16.61138916  147.08799744    0.56999999    3.00000000
   16.61611176  147.08799744    0.64999998    3.00000000
   16.62000084  156.52400208    0.64999998    3.00000000
   16.62333298  166.61500549    0.63000000    3.01999998
   16.62666702  172.82299805    0.64999998    3.00000000
   16.62972260  170.13800049    0.61000001    3.01999998
   16.63305473  164.85800171    0.61000001    3.01999998
   16.63638878  152.58900452    0.56999999    3.01999998
   16.63944435  164.35899353    0.55000001    3.00000000
   16.64277840  162.70399475    0.52999997    3.00000000
   16.64583397  177.62699890    0.52999997    3.01999998
   16.65055466  177.62699890    0.51999998    3.00000000
   16.65472221  175.30799866    0.50000000    3.01999998
   16.65777779  166.02400208    0.47999999    3.00000000
   16.66110992  159.29499817    0.50000000    3.00000000
   16.66444397  166.60600281    0.47999999    3.00000000
   16.66749954  167.28999329    0.47999999    3.00000000
   16.67083359  164.41299438    0.47999999    3.01999998
   16.67388916  168.74000549    0.46000001    3.00000000
   16.67722130  166.65899658    0.46000001    3.00000000
   16.68055534  167.45500183    0.46000001    3.00000000
   16.68499947  167.45500183    0.46000001    3.01999998
   16.68916512  159.05499268    0.46000001    3.00000000
   16.69222069  165.85200500    0.46000001    3.00000000
   16.69555473  160.44000244    0.44000000    3.00000000
   16.69888878  170.19299316    0.44000000    3.01999998
   16.70194435  154.14100647    0.44000000    3.00000000
   16.70527840  158.51300049    0.44000000    3.01999998
   16.70861244  164.29200745    0.44000000    3.00000000
   16.71166801  159.45700073    0.46000001    3.01999998
   16.71500015  155.50100708    0.46000001    3.01999998
   16.71944427  155.50100708    0.44000000    3.00000000
   16.72361183  153.14100647    0.44000000    3.00000000
   16.72694588  151.60299683    0.46000001    3.00000000
   16.73000145  170.72099304    0.46000001    3.00000000
   16.73333359  158.97599792    0.46000001    3.00000000
   16.73666763  153.09899902    0.46000001    3.01999998
   16.73972321  160.29100037    0.46000001    3.01999998
   16.74305534  160.99899292    0.46000001    3.00000000
   16.74611092  160.36399841    0.46000001    3.01999998
   16.74944496  164.83399963    0.46000001    3.01999998
   16.75388908  164.83399963    0.46000001    3.01999998
   16.75805473  157.30999756    0.46000001    3.00000000
   16.76138878  153.97799683    0.47999999    3.00000000
   16.76472282  153.36700439    0.50000000    3.01999998
   16.76777840  160.84599304    0.50000000    3.01999998
   16.77111053  151.84399414    0.50000000    3.01999998
   16.77416611  158.31599426    0.50000000    3.01999998
   16.77750015  152.12199402    0.50000000    3.01999998
   16.78083229  157.55599976    0.50000000    3.00000000
   16.78388786  149.60400391    0.50000000    3.01999998
   16.78861046  149.60400391    0.51999998    3.00000000
   16.79277802  156.18899536    0.50000000    3.00000000
   16.79583359  155.63400269    0.47999999    3.00000000
   16.79916573  153.32699585    0.47999999    3.01999998
   16.80222130  145.62800598    0.47999999    3.00000000
   16.80555534  145.38600159    0.47999999    3.01999998
   16.80888748  157.05900574    0.47999999    3.00000000
   16.81194305  151.01499939    0.50000000    3.01999998
   16.81527710  146.31199646    0.50000000    3.00000000
   16.81861115  158.56500244    0.50000000    3.00000000
   16.82305717  158.56500244    0.51999998    3.01999998
   16.82722282  149.40199280    0.51999998    3.00000000
   16.83027840  156.34800720    0.51999998    3.00000000
   16.83361244  151.88999939    0.50000000    3.00000000
   16.83694458  152.77799988    0.50000000    3.01999998
   16.84000015  148.36000061    0.50000000    3.00000000
   16.84333420  150.03399658    0.50000000    3.01999998
   16.84666824  152.01600647    0.50000000    3.00000000
   16.84972191  160.87100220    0.50000000    3.00000000
   16.85305595  152.33200073    0.50000000    3.00000000
   16.85777855  152.33200073    0.51999998    3.00000000
   16.86194420  157.41200256    0.51999998    3.00000000
   16.86499977  160.07200623    0.51999998    3.00000000
   16.86833382  166.10400391    0.52999997    3.00000000
   16.87138939  166.23199463    0.51999998    3.00000000
   16.87472153  161.24600220    0.51999998    3.00000000
   16.87805557  140.75999451    0.52999997    3.00000000
   16.88111115  154.09599304    0.51999998    3.01999998
   16.88444519  141.59899902    0.51999998    3.01999998
   16.88777733  159.21099854    0.52999997    3.01999998
   16.89194489  159.21099854    0.52999997    3.00000000
   16.89611053  151.66000366    0.51999998    3.01999998
   16.89944458  164.21400452    0.51999998    3.01999998
   16.90250015  155.27400208    0.51999998    3.00000000
   16.90583229  162.10699463    0.51999998    3.00000000
   16.90916634  160.72200012    0.52999997    3.00000000
   16.91222191  156.37300110    0.51999998    3.00000000
   16.91555595  153.95700073    0.51999998    3.01999998
   16.91888809  163.42799377    0.52999997    3.01999998
   16.92194366  161.99699402    0.51999998    3.01999998
   16.92666626  161.99699402    0.51999998    3.00000000
   16.93083191  155.19000244    0.51999998    3.00000000
   16.93388748  161.41099548    0.51999998    3.01999998
   16.93722153  159.77200317    0.51999998    3.00000000
   16.94027710  158.12899780    0.52999997    3.00000000
   16.94361115  153.83099365    0.51999998    3.00000000
   16.94694328  157.13800049    0.51999998    3.00000000
   16.95000076  160.57800293    0.51999998    3.00000000
   16.95333481  152.75199890    0.51999998    3.01999998
   16.95666695  155.62399292    0.51999998    3.00000000
   16.96111107  155.62399292    0.51999998    3.01999998
   16.96527863  157.21800232    0.51999998    3.00000000
   16.96833420  156.08599854    0.51999998    3.00000000
   16.97166634  153.48399353    0.55000001    3.00000000
   16.97500038  152.42399597    0.55000001    3.00000000
   16.97805595  148.08700562    0.55000001    3.00000000
   16.98139000  152.37399292    0.55000001    3.00000000
   16.98444557  155.75599670    0.55000001    3.00000000
   16.98777771  154.85099792    0.55000001    3.01999998
   16.99111176  153.22599792    0.55000001    3.01999998
   16.99555588  153.22599792    0.56999999    3.01999998
   16.99972153  147.52900696    0.58999997    3.00000000
   17.00305557  151.83099365    0.58999997    3.00000000
   17.00611115  143.51699829    0.58999997    3.00000000
   17.00944519  148.45100403    0.56999999    3.00000000
   17.01250076  149.14199829    0.56999999    3.00000000
   17.01583290  143.37600708    0.56999999    3.00000000
   17.01916695  147.30900574    0.56999999    3.01999998
   17.02222252  153.13299561    0.56999999    3.00000000
   17.02555466  156.93099976    0.56999999    3.00000000
   17.03000069  156.93099976    0.56999999    3.00000000
   17.03416634  147.75000000    0.56999999    3.00000000
   17.03750038  150.14700317    0.58999997    3.00000000
   17.04055595  154.92399597    0.56999999    3.00000000
   17.04388809  146.01699829    0.56999999    3.00000000
   17.04722214  151.10200500    0.55000001    3.00000000
   17.05027771  140.09700012    0.56999999    3.00000000
   17.05360985  145.25300598    0.55000001    3.00000000
   17.05666542  151.66400146    0.55000001    3.00000000
   17.05999947  147.92599487    0.52999997    3.01999998
   17.06444359  147.92599487    0.52999997    3.01999998
   17.06861115  157.65800476    0.52999997    3.01999998
   17.07194519  149.72700500    0.52999997    3.00000000
   17.07527924  145.17999268    0.52999997    3.00000000
   17.07833481  149.90400696    0.52999997    3.00000000
   17.08166695  148.25900269    0.55000001    3.00000000
   17.08472252  149.74099731    0.55000001    3.01999998
   17.08805656  152.04699707    0.52999997    3.00000000
   17.09138870  146.17900085    0.55000001    3.00000000
   17.09444427  154.26199341    0.55000001    3.01999998
   17.09916687  154.26199341    0.55000001    3.01999998
   17.10333443  148.47099304    0.55000001    3.01999998
   17.10639000  155.59399414    0.56999999    3.01999998
   17.10972214  149.06300354    0.56999999    3.00000000
   17.11277771  155.81399536    0.56999999    3.00000000
   17.11611176  162.92799377    0.56999999    3.00000000
   17.11944389  157.75900269    0.56999999    3.00000000
   17.12249947  151.37300110    0.56999999    3.00000000
   17.12583351  156.87899780    0.56999999    3.00000000
   17.12916756  134.11199951    0.58999997    3.01999998
   17.13361168  134.11199951    0.58999997    3.00000000
   17.13777733  144.25999451    0.61000001    3.00000000
   17.14083290  149.82099915    0.58999997    3.00000000
   17.14416695  150.75599670    0.58999997    3.01999998
   17.14749908  146.92900085    0.58999997    3.00000000
   17.15055466  144.87399292    0.58999997    3.00000000
   17.15388870  152.63600159    0.58999997    3.00000000
   17.15722275  142.32000732    0.58999997    3.00000000
   17.16027832  148.17500305    0.58999997    3.00000000
   17.16361046  138.53700256    0.58999997    3.00000000
   17.16805458  138.53700256    0.58999997    3.00000000
   17.17222214  149.91200256    0.58999997    3.01999998
   17.17555428  134.23399353    0.58999997    3.00000000
   17.17860985  140.12600708    0.58999997    3.00000000
   17.18194389  152.96800232    0.58999997    3.00000000
   17.18527603  145.76100159    0.58999997    3.00000000
   17.18833160  141.48899841    0.58999997    3.01999998
   17.19166565  140.12500000    0.61000001    3.00000000
   17.19499969  149.30200195    0.58999997    3.00000000
   17.19805527  143.25199890    0.58999997    3.00000000
   17.20250130  143.25199890    0.58999997    3.00000000
   17.20666695  143.13900757    0.58999997    3.01999998
   17.21000099  140.34599304    0.58999997    3.00000000
   17.21333504  149.46899414    0.58999997    3.00000000
   17.21638870  154.20599365    0.56999999    3.00000000
   17.21972275  147.31900024    0.56999999    3.00000000
   17.22277832  150.37699890    0.56999999    3.00000000
   17.22611237  134.15800476    0.58999997    3.00000000
   17.22944450  140.31500244    0.56999999    3.00000000
   17.23250008  149.12800598    0.56999999    3.00000000
   17.23722267  149.12800598    0.56999999    3.00000000
   17.24111176  142.53199768    0.56999999    3.01999998
   17.24444389  147.40800476    0.56999999    3.00000000
   17.24777794  147.74400330    0.56999999    3.01999998
   17.25083351  147.85200500    0.56999999    3.00000000
   17.25416756  140.71299744    0.56999999    3.01999998
   17.25749969  151.41200256    0.56999999    3.00000000
   17.26055527  152.96800232    0.55000001    3.00000000
   17.26388931  143.53300476    0.55000001    3.00000000
   17.26722145  153.37600708    0.55000001    3.00000000
   17.27166557  153.37600708    0.55000001    3.00000000
   17.27583313  146.70899963    0.55000001    3.00000000
   17.27888870  145.44599915    0.55000001    3.01999998
   17.28222275  137.87199402    0.55000001    3.01999998
   17.28555489  136.65400696    0.55000001    3.00000000
   17.28861046  143.07400513    0.55000001    3.01999998
   17.29194450  146.67399597    0.55000001    3.00000000
   17.29527664  149.54400635    0.55000001    3.00000000
   17.29833221  154.55099487    0.55000001    3.01999998
   17.30166626  144.47599792    0.55000001    3.00000000
   17.30611038  144.47599792    0.55000001    3.00000000
   17.31027794  147.64799500    0.55000001    3.00000000
   17.31361008  143.36999512    0.55000001    3.00000000
   17.31666756  150.91700745    0.55000001    3.00000000
   17.32000160  146.45500183    0.55000001    3.01999998
   17.32333374  150.15100098    0.55000001    3.00000000
   17.32638931  146.85699463    0.52999997    3.00000000
   17.32972336  156.56500244    0.52999997    3.00000000
   17.33277893  155.68699646    0.52999997    3.00000000
   17.33611107  153.80400085    0.52999997    3.00000000
   17.34055710  153.80400085    0.52999997    3.00000000
   17.34472275  151.50599670    0.51999998    3.00000000
   17.34805679  148.44000244    0.52999997    3.00000000
   17.35111237  148.36999512    0.51999998    3.00000000
   17.35444450  149.15600586    0.51999998    3.00000000
   17.35777855  151.58299255    0.51999998    3.01999998
   17.36083412  151.27200317    0.51999998    3.00000000
   17.36416626  160.88600159    0.52999997    3.00000000
   17.36750031  157.66499329    0.51999998    3.00000000
   17.37055588  156.83500671    0.52999997    3.00000000
   17.37527847  156.83500671    0.51999998    3.00000000
   17.37916756  154.96899414    0.51999998    3.00000000
   17.38249969  141.16000366    0.52999997    3.00000000
   17.38583374  155.41600037    0.51999998    3.00000000
   17.38888931  155.22900391    0.52999997    3.00000000
   17.39222145  155.26899719    0.51999998    3.00000000
   17.39527702  161.41499329    0.51999998    3.00000000
   17.39861107  155.38400269    0.51999998    3.00000000
   17.40194321  147.11599731    0.52999997    2.98000002
   17.40499878  154.02499390    0.52999997    3.00000000
   17.40972137  154.02499390    0.55000001    3.00000000
   17.41388893  160.07200623    0.55000001    3.00000000
   17.41694450  151.26199341    0.55000001    3.00000000
   17.42027664  156.35200500    0.56999999    3.00000000
   17.42333221  146.95100403    0.63000000    3.00000000
   17.42666626  145.75700378    0.67000002    3.00000000
   17.43000031  151.62800598    0.58999997    3.00000000
   17.43305397  152.61599731    0.56999999    3.00000000
   17.43638802  151.61999512    0.56999999    3.01999998
   17.43972206  135.78700256    0.58999997    3.00000000
   17.44416618  135.78700256    0.51999998    3.00000000
   17.44833183  156.64199829    0.51999998    3.00000000
   17.45138931  165.78500366    0.50000000    3.00000000
   17.45472336  156.45899963    0.50000000    3.00000000
   17.45805550  143.91999817    0.51999998    3.00000000
   17.46111107  162.66299438    0.51999998    3.00000000
   17.46444511  159.80900574    0.51999998    3.00000000
   17.46777916  162.45399475    0.56999999    3.01999998
   17.47083473  161.23899841    0.56999999    3.00000000
   17.47416687  154.53900146    0.56999999    3.00000000
   17.47861099  154.53900146    0.56999999    3.01999998
   17.48277855  162.50199890    0.61000001    3.00000000
   17.48611069  143.36900330    0.58999997    3.00000000
   17.48916626  142.94500732    0.58999997    3.00000000
   17.49250031  141.09800720    0.58999997    3.00000000
   17.49583435  156.01400757    0.58999997    3.00000000
   17.49888992  155.06100464    0.56999999    3.01999998
   17.50222206  152.38999939    0.56999999    3.00000000
   17.50527763  131.82699585    0.56999999    3.01999998
   17.52499962  146.16799927    0.55000001    3.01999998
   17.52916718  146.16799927    0.52999997    3.01999998
   17.53305435  149.31599426    0.55000001    3.01999998
   17.53638840  143.37199402    0.55000001    3.00000000
   17.53972244  146.45199585    0.55000001    3.01999998
   17.54277802  145.45100403    0.58999997    3.01999998
   17.54611015  143.93200684    0.58999997    3.00000000
   17.54944420  144.93899536    0.56999999    3.00000000
   17.55249977  150.62899780    0.56999999    3.01999998
   17.55583191  150.63000488    0.56999999    3.01999998
   17.55916595  149.63699341    0.56999999    3.00000000
   17.56361008  149.63699341    0.56999999    3.00000000
   17.56777954  141.98500061    0.56999999    3.01999998
   17.57083511  146.06599426    0.56999999    3.00000000
   17.57416725  134.08099365    0.58999997    3.01999998
   17.57750130  142.75999451    0.58999997    3.00000000
   17.58055687  142.89799500    0.58999997    3.00000000
   17.58388901  142.62600708    0.56999999    3.00000000
   17.58694458  140.77600098    0.56999999    3.01999998
   17.59027863  143.60400391    0.56999999    3.01999998
   17.59361267  142.49299622    0.56999999    3.00000000
   17.59805679  142.49299622    0.56999999    3.00000000
   17.60222244  135.69599915    0.56999999    3.00000000
   17.60555649  143.18299866    0.56999999    3.00000000
   17.60861206  139.79299927    0.56999999    3.01999998
   17.61194420  147.01199341    0.56999999    3.00000000
   17.61499977  144.50599670    0.56999999    3.01999998
   17.61833382  148.77299500    0.55000001    3.00000000
   17.62166595  144.84599304    0.55000001    3.00000000
   17.62472153  145.43200684    0.55000001    3.00000000
   17.62805557  146.14399719    0.55000001    3.00000000
   17.63249969  146.14399719    0.55000001    3.00000000
   17.63666725  144.09100342    0.52999997    3.00000000
   17.63999939  151.51899719    0.52999997    3.00000000
   17.64305496  150.42900085    0.52999997    3.00000000
   17.64638901  142.73699951    0.52999997    3.01999998
   17.64972115  146.00500488    0.52999997    3.00000000
   17.65277672  146.04800415    0.52999997    3.01999998
   17.65611076  144.83299255    0.51999998    3.01999998
   17.65916634  146.65100098    0.51999998    3.00000000
   17.66250038  146.75900269    0.51999998    3.01999998
   17.66694450  146.75900269    0.52999997    3.00000000
   17.67111015  142.60899353    0.51999998    3.00000000
   17.67444420  140.89599609    0.52999997    3.01999998
   17.67777634  138.86500549    0.51999998    3.00000000
   17.68083191  147.03700256    0.51999998    3.00000000
   17.68416595  143.59100342    0.51999998    3.00000000
   17.68722153  132.08900452    0.51999998    3.00000000
   17.69055557  142.02499390    0.51999998    3.01999998
   17.69388771  142.67100525    0.52999997    3.00000000
   17.69694328  144.78500366    0.52999997    3.00000000
   17.70166779  144.78500366    0.55000001    3.00000000
   17.70555687  143.31900024    0.55000001    3.01999998
   17.70888901  145.35000610    0.55000001    3.01999998
   17.71222305  143.51800537    0.52999997    3.00000000
   17.71527863  145.54299927    0.52999997    3.00000000
   17.71861076  146.08700562    0.51999998    3.00000000
   17.72194481  151.44299316    0.50000000    3.00000000
   17.72500038  149.08500671    0.50000000    3.00000000
   17.72833443  148.88400269    0.51999998    3.00000000
   17.73166656  149.43600464    0.51999998    3.00000000
   17.73611069  149.43600464    0.51999998    3.00000000
   17.74027824  147.27999878    0.58999997    3.01999998
   17.74333382  162.49099731    0.61000001    3.01999998
   17.74666786  149.31300354    0.76999998    3.00000000
   17.75000000  152.28399658    0.79000002    3.00000000
   17.75305557  160.68600464    0.63000000    3.01999998
   17.75638962  152.84800720    0.58999997    3.00000000
   17.75972176  151.03700256    0.58999997    3.01999998
   17.76277733  145.55700684    0.56999999    3.00000000
   17.76611137  155.08799744    0.51999998    3.00000000
   17.77055550  155.08799744    0.50000000    3.00000000
   17.77472115  155.91900635    0.47999999    3.01999998
   17.77805519  158.01499939    0.50000000    3.00000000
   17.78111076  159.28700256    0.50000000    3.00000000
   17.78444481  162.19500732    0.47999999    3.00000000
   17.78777695  163.67199707    0.50000000    3.00000000
   17.79083252  152.53799438    0.47999999    3.01999998
   17.79416656  161.46099854    0.50000000    3.00000000
   17.79722214  158.55400085    0.50000000    3.01999998
   17.80055428  170.11399841    0.47999999    3.00000000
   17.80499840  170.11399841    0.47999999    3.00000000
   17.80916595  164.48599243    0.50000000    3.00000000
   17.81250000  162.47200012    0.47999999    3.00000000
   17.81555557  162.67300415    0.47999999    3.00000000
   17.81888962  163.51899719    0.47999999    3.00000000
   17.82222366  156.57600403    0.50000000    3.00000000
   17.82527924  160.04899597    0.47999999    3.00000000
   17.82861137  161.59300232    0.47999999    3.00000000
   17.83194542  161.00100708    0.47999999    3.00000000
   17.83500099  167.73300171    0.47999999    2.98000002
   17.83972359  167.73300171    0.50000000    3.00000000
   17.84361267  160.95100403    0.47999999    3.00000000
   17.84694481  161.49499512    0.47999999    3.01999998
   17.85027885  166.34700012    0.47999999    3.00000000
   17.85333443  162.57000732    0.47999999    3.00000000
   17.85666656  157.90100098    0.47999999    3.00000000
   17.86000061  173.13900757    0.47999999    3.00000000
   17.86305618  158.58999634    0.47999999    3.00000000
   17.86638832  168.69200134    0.47999999    3.00000000
   17.86944389  165.60899353    0.47999999    3.00000000
   17.87416649  165.60899353    0.47999999    3.00000000
   17.87833405  162.62699890    0.47999999    3.00000000
   17.88138962  161.76899719    0.47999999    3.00000000
   17.88472176  157.63400269    0.47999999    3.00000000
   17.88805580  171.42700195    0.47999999    3.01999998
   17.89111137  165.72900391    0.47999999    3.00000000
   17.89444351  168.06599426    0.47999999    3.00000000
   17.89777756  167.98599243    0.47999999    3.00000000
   17.90083313  178.07200623    0.47999999    3.00000000
   17.90416718  170.36000061    0.47999999    3.00000000
   17.90861130  170.36000061    0.47999999    3.00000000
   17.91277695  171.78399658    0.47999999    3.00000000
   17.91611099  182.08299255    0.47999999    3.00000000
   17.91916656  175.26100159    0.47999999    3.00000000
   17.92249870  175.68099976    0.47999999    3.00000000
   17.92555428  179.90499878    0.47999999    3.00000000
   17.92888832  179.63600159    0.50000000    3.00000000
   17.93222237  172.02099609    0.50000000    3.00000000
   17.93527603  191.26600647    0.50000000    3.00000000
   17.93861008  174.30999756    0.50000000    3.00000000
   17.94305420  174.30999756    0.51999998    3.00000000
   17.94722176  168.15899658    0.52999997    3.01999998
   17.95055580  156.92799377    0.51999998    3.00000000
   17.95361137  174.00199890    0.51999998    3.00000000
   17.95694542  200.58700562    0.52999997    3.00000000
   17.96027946  191.34800720    0.51999998    3.00000000
   17.96333504  174.97000122    0.51999998    3.00000000
   17.96666718  179.16499329    0.52999997    3.00000000
   17.97000122  170.83999634    0.52999997    2.98000002
   17.97305679  169.75999451    0.51999998    3.00000000
   17.97777748  169.75999451    0.51999998    3.00000000
   17.98166656  183.57499695    0.52999997    3.00000000
   17.98500061  182.28100586    0.51999998    3.00000000
   17.98833275  186.40699768    0.51999998    2.98000002
   17.99138832  186.79299927    0.51999998    3.00000000
   17.99472237  189.19000244    0.51999998    3.00000000
   17.99805641  190.50000000    0.51999998    3.00000000
   18.00111198  179.59399414    0.51999998    3.00000000
   18.00444412  180.79600525    0.51999998    3.00000000
   18.00749969  188.74800110    0.51999998    3.00000000
   18.01222229  188.74800110    0.51999998    3.00000000
   18.01638794  187.56500244    0.51999998    3.00000000
   18.01944351  180.51499939    0.51999998    3.00000000
   18.02277756  189.02699280    0.52999997    3.00000000
   18.02611160  180.12100220    0.51999998    2.98000002
   18.02916718  192.18099976    0.51999998    2.98000002
   18.03249931  179.94000244    0.51999998    3.00000000
   18.03555489  184.09100342    0.52999997    3.00000000
   18.03888893  183.02999878    0.51999998    3.00000000
   18.04222107  183.60099792    0.51999998    3.00000000
   18.04666710  183.60099792    0.55000001    3.00000000
   18.05083275  164.41299438    0.56999999    3.00000000
   18.05388832  180.11300659    0.52999997    3.00000000
   18.05722237  175.91499329    0.51999998    3.00000000
   18.06055450  176.08900452    0.51999998    3.00000000
   18.06361008  181.63099670    0.51999998    3.00000000
   18.06694603  191.86199951    0.51999998    3.00000000
   18.07027817  182.88600159    0.51999998    3.00000000
   18.07333374  180.26899719    0.51999998    3.00000000
   18.07666779  181.14599609    0.51999998    3.00000000
   18.08111191  181.14599609    0.51999998    3.00000000
   18.08527756  187.83500671    0.52999997    3.00000000
   18.08861160  185.42999268    0.52999997    3.01999998
   18.09166718  184.55400085    0.51999998    3.00000000
   18.09500122  184.56300354    0.52999997    3.00000000
   18.09833336  179.85099792    0.52999997    2.98000002
   18.10138893  185.32400513    0.51999998    3.00000000
   18.10472298  178.70899963    0.51999998    3.00000000
   18.10777855  181.75199890    0.51999998    3.00000000
   18.11111069  177.54200745    0.51999998    3.00000000
   18.11555672  177.54200745    0.52999997    2.98000002
   18.11972237  168.54600525    0.52999997    3.00000000
   18.12305641  184.21299744    0.55000001    3.00000000
   18.12611198  188.34599304    0.55000001    3.00000000
   18.12944412  174.92500305    0.55000001    3.00000000
   18.13277817  179.08200073    0.55000001    2.98000002
   18.13583374  173.12600708    0.56999999    2.98000002
   18.13916588  180.27600098    0.56999999    2.98000002
   18.14249992  173.30000305    0.55000001    2.98000002
   18.14555550  176.41900635    0.55000001    2.98000002
   18.15027809  176.41900635    0.55000001    3.00000000
   18.15444374  176.01699829    0.55000001    3.00000000
   18.15749931  175.95199585    0.55000001    2.98000002
   18.16083336  184.77699280    0.55000001    3.00000000
   18.16388893  177.79699707    0.55000001    2.98000002
   18.16722107  181.06599426    0.55000001    2.98000002
   18.17055511  174.95399475    0.55000001    2.98000002
   18.17361069  176.72000122    0.55000001    2.98000002
   18.17694473  178.63900757    0.56999999    2.98000002
   18.18000031  178.03700256    0.55000001    2.98000002
   18.18472099  178.03700256    0.55000001    3.00000000
   18.18888855  172.66299438    0.55000001    2.98000002
   18.19194412  171.22000122    0.55000001    2.98000002
   18.19527626  176.85299683    0.56999999    3.00000000
   18.19861031  173.21400452    0.55000001    2.98000002
   18.20166779  168.33299255    0.56999999    2.98000002
   18.20499992  165.36700439    0.55000001    2.98000002
   18.20805550  175.31199646    0.55000001    2.98000002
   18.21138954  171.90400696    0.55000001    2.98000002
   18.21472359  167.56300354    0.55000001    2.98000002
   18.21916771  167.56300354    0.55000001    2.98000002
   18.22333336  170.28100586    0.55000001    2.98000002
   18.22666740  170.81500244    0.55000001    2.98000002
   18.22972298  177.04600525    0.55000001    3.00000000
   18.23305511  166.18099976    0.55000001    2.98000002
   18.23611069  171.21200562    0.56999999    2.98000002
   18.23944473  173.97000122    0.55000001    2.98000002
   18.24277878  174.38800049    0.56999999    2.98000002
   18.24583435  173.91099548    0.56999999    2.98000002
   18.24916649  173.07699585    0.56999999    3.00000000
   18.25361061  173.07699585    0.58999997    2.98000002
   18.25777817  166.66200256    0.56999999    2.98000002
   18.26111031  173.55700684    0.58999997    3.00000000
   18.26416588  175.06399536    0.56999999    3.00000000
   18.26749992  169.51600647    0.56999999    2.98000002
   18.27083397  167.33999634    0.56999999    2.98000002
   18.27388954  175.14500427    0.56999999    2.98000002
   18.27722168  177.89399719    0.56999999    2.98000002
   18.28055573  174.73199463    0.56999999    3.00000000
   18.28388786  171.74699402    0.56999999    2.98000002
   18.28833199  171.74699402    0.56999999    2.98000002
   18.29222107  170.50300598    0.56999999    2.98000002
   18.29555511  177.68099976    0.56999999    2.98000002
   18.29888916  176.01199341    0.58999997    2.96000004
   18.30194283  187.75199890    0.58999997    2.98000002
   18.30527687  186.42500305    0.58999997    3.00000000
   18.30833244  190.16299438    0.58999997    2.98000002
   18.31166649  184.97500610    0.61000001    2.98000002
   18.31499863  183.28100586    0.61000001    2.98000002
   18.31805611  186.29100037    0.61000001    2.98000002
   18.32277870  186.29100037    0.63000000    2.98000002
   18.32694626  181.63299561    0.64999998    2.98000002
   18.33000183  185.92100525    0.64999998    2.98000002
   18.33333397  181.20199585    0.64999998    2.98000002
   18.33638954  184.67300415    0.64999998    3.00000000
   18.33972359  178.82699585    0.64999998    2.98000002
   18.34305573  175.13400269    0.64999998    2.98000002
   18.34611130  172.82200623    0.64999998    2.98000002
   18.34944534  179.23100281    0.64999998    2.98000002
   18.35277748  175.14700317    0.67000002    2.98000002
   18.35722351  175.14700317    0.67000002    2.98000002
   18.36138916  172.68099976    0.67000002    2.96000004
   18.36444473  169.62800598    0.67000002    2.98000002
   18.36777878  166.78100586    0.67000002    2.98000002
   18.37111092  168.46299744    0.67000002    2.98000002
   18.37416649  171.84800720    0.67000002    2.98000002
   18.37750053  164.36500549    0.67000002    2.98000002
   18.38083267  169.05700684    0.67000002    2.98000002
   18.38388824  172.55200195    0.67000002    2.98000002
   18.38722229  170.49899292    0.67000002    2.98000002
   18.39166641  170.49899292    0.69000000    2.98000002
   18.39583397  164.81500244    0.70999998    2.98000002
   18.39916611  161.00999451    0.70999998    2.98000002
   18.40222168  161.37500000    0.70999998    2.98000002
   18.40555573  154.90299988    0.70999998    2.98000002
   18.40888786  166.49299622    0.73000002    2.98000002
   18.41194344  167.53900146    0.73000002    2.98000002
   18.41527748  170.59399414    0.76999998    2.96000004
   18.41860962  164.03799438    0.81999999    2.98000002
   18.42166519  173.40400696    0.81999999    2.98000002
   18.42611122  173.40400696    0.76999998    2.98000002
   18.43027687  167.90800476    0.89999998    2.98000002
   18.43361092  172.50300598    1.13000000    2.98000002
   18.43694305  168.58500671    1.03999996    2.98000002
   18.43999863  162.13299561    0.89999998    2.98000002
   18.44333267  167.12899780    0.88000000    2.98000002
   18.44638824  167.04100037    0.75000000    2.98000002
   18.45000076  155.11500549    0.73000002    2.98000002
   18.45305634  163.23300171    0.75000000    2.98000002
   18.45639038  158.05299377    0.76999998    2.98000002
   18.46083450  158.05299377    0.75000000    2.96000004
   18.46472359  161.89100647    0.75000000    2.98000002
   18.46805573  169.07600403    0.73000002    2.96000004
   18.47138977  166.13499451    0.70999998    2.98000002
   18.47444534  164.46099854    0.70999998    2.98000002
   18.47777748  171.82600403    0.69000000    2.98000002
   18.48111153  182.52400208    0.67000002    2.98000002
   18.48416710  187.30099487    0.64999998    2.98000002
   18.48750114  173.53199768    0.64999998    2.96000004
   18.49055672  178.74499512    0.64999998    2.98000002
   18.49527740  178.74499512    0.67000002    2.96000004
   18.49944496  180.24200439    0.67000002    2.98000002
   18.50250053  181.34500122    0.67000002    2.96000004
   18.50583267  165.08000183    0.67000002    2.96000004
   18.50916672  160.66000366    0.69000000    2.96000004
   18.51222229  165.12100220    0.69000000    2.96000004
   18.51555634  168.40400696    0.67000002    2.96000004
   18.51861000  169.38900757    0.67000002    2.96000004
   18.52194405  173.99099731    0.67000002    2.98000002
   18.52527809  162.99200439    0.67000002    2.98000002
   18.54583359  162.99200439    0.69000000    2.98000002
   18.54999924  170.87399292    0.67000002    2.96000004
   18.55305481  175.17500305    0.67000002    2.98000002
   18.55638885  171.44500732    0.67000002    2.98000002
   18.55972099  171.66499329    0.67000002    2.98000002
   18.56277657  174.43600464    0.67000002    2.98000002
   18.56611061  172.90899658    0.69000000    2.96000004
   18.56944466  167.36000061    0.67000002    2.96000004
   18.57250023  174.91700745    0.67000002    2.96000004
   18.57583427  170.85600281    0.67000002    2.98000002
   18.58027840  170.85600281    0.67000002    2.98000002
   18.58444595  174.37100220    0.67000002    2.98000002
   18.58750153  168.10000610    0.67000002    2.98000002
   18.59083366  161.21299744    0.69000000    2.96000004
   18.59416771  179.93600464    0.67000002    2.96000004
   18.59722328  164.23800659    0.67000002    2.98000002
   18.60055542  162.47000122    0.67000002    2.96000004
   18.60361099  166.63999939    0.67000002    2.96000004
   18.60694504  170.75100708    0.67000002    2.98000002
   18.61027908  171.76199341    0.67000002    2.98000002
   18.61472321  171.76199341    0.67000002    2.96000004
   18.61888885  173.44400024    0.67000002    2.96000004
   18.62222290  163.55099487    0.67000002    2.98000002
   18.62555504  167.58999634    0.67000002    2.98000002
   18.62861061  174.50300598    0.67000002    2.98000002
   18.63194466  175.63600159    0.67000002    2.98000002
   18.63527679  169.51699829    0.69000000    2.98000002
   18.63833237  176.42900085    0.67000002    2.96000004
   18.64166641  166.12100220    0.69000000    2.98000002
   18.64472198  176.29699707    0.69000000    2.96000004
   18.64916611  176.29699707    0.69000000    2.96000004
   18.65333366  192.11199951    0.69000000    2.96000004
   18.65666580  186.49600220    0.69000000    2.96000004
   18.65972137  189.56100464    0.69000000    2.96000004
   18.66305542  187.92999268    0.69000000    2.98000002
   18.66638756  183.98899841    0.70999998    2.98000002
   18.66944313  187.00500488    0.70999998    2.96000004
   18.67277718  190.61599731    0.70999998    2.98000002
   18.67611122  198.53799438    0.70999998    2.98000002
   18.67916679  215.13099670    0.70999998    2.98000002
   18.68388748  215.13099670    0.70999998    2.96000004
   18.68777657  219.92599487    0.73000002    2.96000004
   18.69111061  186.38600159    0.75000000    2.96000004
   18.69444275  199.01100159    0.73000002    2.96000004
   18.69749832  200.86700439    0.73000002    2.98000002
   18.70083427  208.15499878    0.73000002    2.98000002
   18.70416832  183.93899536    0.73000002    2.96000004
   18.70722389  219.48100281    0.73000002    2.98000002
   18.71055603  177.51800537    0.75000000    2.98000002
   18.71361160  195.83599854    0.73000002    2.96000004
   18.71833420  195.83599854    0.75000000    2.98000002
   18.72249985  181.17199707    0.79000002    2.96000004
   18.72555542  186.80599976    0.75000000    2.96000004
   18.72888947  176.35899353    0.75000000    2.96000004
   18.73222351  193.24200439    0.79000002    2.96000004
   18.73527718  193.01199341    0.79000002    2.98000002
   18.73861122  203.68800354    0.75000000    2.96000004
   18.74166679  217.49400330    0.76999998    2.96000004
   18.74500084  205.86500549    0.73000002    2.96000004
   18.74833298  206.17700195    0.75000000    2.96000004
   18.75277710  206.17700195    0.75000000    2.96000004
   18.75694466  190.46499634    0.75000000    2.96000004
   18.76027870  197.07699585    0.75000000    2.94000006
   18.76333427  188.76899719    0.75000000    2.96000004
   18.76666641  202.64799500    0.75000000    2.96000004
   18.76972198  196.61199951    0.73000002    2.96000004
   18.77305603  196.46299744    0.73000002    2.96000004
   18.77638817  187.01100159    0.70999998    2.96000004
   18.77944374  193.81900024    0.70999998    2.96000004
   18.78277779  213.75700378    0.70999998    2.96000004
   18.78722191  213.75700378    0.70999998    2.96000004
   18.79138756  203.30000305    0.73000002    2.96000004
   18.79472160  178.13000488    0.76999998    2.96000004
   18.79777718  191.30900574    0.80000001    2.96000004
   18.80111122  185.57800293    0.73000002    2.96000004
   18.80444336  176.61700439    0.75000000    2.96000004
   18.80749893  187.41299438    0.70999998    2.96000004
   18.81083298  185.84700012    0.70999998    2.96000004
   18.81388855  177.53199768    0.69000000    2.98000002
   18.81722260  180.24899292    0.69000000    2.96000004
   18.82166672  180.24899292    0.70999998    2.98000002
   18.82583427  193.96400452    0.69000000    2.98000002
   18.82916832  212.66099548    0.69000000    2.96000004
   18.83250046  188.58900452    0.70999998    2.96000004
   18.83555603  189.80099487    0.69000000    2.96000004
   18.83889008  170.75500488    0.69000000    2.96000004
   18.84194565  200.06500244    0.69000000    2.96000004
   18.84527779  190.70199585    0.69000000    2.96000004
   18.84861183  177.39599609    0.67000002    2.96000004
   18.85194397  192.46000671    0.67000002    2.96000004
   18.85639000  192.46000671    0.69000000    2.96000004
   18.86055565  171.78799438    0.69000000    2.98000002
   18.86361122  186.24499512    0.69000000    2.96000004
   18.86694527  190.14300537    0.69000000    2.96000004
   18.87000084  194.37800598    0.67000002    2.96000004
   18.87333298  177.46699524    0.67000002    2.96000004
   18.87666702  191.88099670    0.67000002    2.96000004
   18.87972260  199.50500488    0.67000002    2.96000004
   18.88305473  173.38499451    0.67000002    2.98000002
   18.88638878  193.27699280    0.69000000    2.96000004
   18.89083290  193.27699280    0.67000002    2.98000002
   18.89500046  206.50900269    0.69000000    2.96000004
   18.89805603  193.52099609    0.67000002    2.96000004
   18.90138817  188.94400024    0.67000002    2.98000002
   18.90472221  184.83299255    0.67000002    2.96000004
   18.90777779  176.89500427    0.67000002    2.96000004
   18.91110992  177.02699280    0.70999998    2.96000004
   18.91444397  183.61900330    0.69000000    2.96000004
   18.91749954  178.57099915    0.69000000    2.96000004
   18.92083359  185.83000183    0.69000000    2.96000004
   18.92527771  185.83000183    0.70999998    2.98000002
   18.92944336  193.50599670    0.73000002    2.96000004
   18.93277740  180.31599426    0.75000000    2.96000004
   18.93583298  193.94999695    0.70999998    2.96000004
   18.93916512  186.92300415    0.69000000    2.96000004
   18.94249916  193.66099548    0.69000000    2.96000004
   18.94555473  189.22799683    0.69000000    2.96000004
   18.94888878  189.05900574    0.67000002    2.96000004
   18.95194435  197.51699829    0.69000000    2.96000004
   18.95527840  187.60200500    0.67000002    2.96000004
   18.95972252  187.60200500    0.69000000    2.96000004
   18.96389008  190.22599792    0.67000002    2.96000004
   18.96722221  188.84800720    0.67000002    2.96000004
   18.97027779  183.26100159    0.67000002    2.98000002
   18.97361183  184.04699707    0.67000002    2.96000004
   18.97694588  176.84899902    0.67000002    2.96000004
   18.98000145  187.10499573    0.67000002    2.96000004
   18.98333359  190.95100403    0.69000000    2.96000004
   18.98666763  187.12699890    0.67000002    2.96000004
   18.98972321  167.46099854    0.67000002    2.96000004
   18.99444389  167.46099854    0.67000002    2.96000004
   18.99833298  186.19200134    0.67000002    2.96000004
   19.00166702  190.15299988    0.69000000    2.96000004
   19.00499916  193.28900146    0.67000002    2.96000004
   19.00805473  177.75599670    0.69000000    2.96000004
   19.01138878  194.16200256    0.69000000    2.96000004
   19.01472282  171.80299377    0.69000000    2.96000004
   19.01777840  186.91200256    0.69000000    2.96000004
   19.02111053  180.04800415    0.70999998    2.94000006
   19.02444458  192.95399475    0.70999998    2.96000004
   19.02888870  192.95399475    0.70999998    2.96000004
   19.03305435  190.33999634    0.70999998    2.96000004
   19.03638840  194.44400024    0.69000000    2.96000004
   19.03972244  197.28900146    0.69000000    2.94000006
   19.04277802  201.20300293    0.69000000    2.96000004
   19.04611015  184.24299622    0.69000000    2.96000004
   19.04916573  198.40299988    0.69000000    2.96000004
   19.05249977  180.28100586    0.67000002    2.96000004
   19.05583191  180.18299866    0.67000002    2.96000004
   19.05888748  175.71400452    0.69000000    2.96000004
   19.06333351  175.71400452    0.69000000    2.96000004
   19.06777954  190.46499634    0.69000000    2.96000004
   19.07083511  187.77400208    0.69000000    2.96000004
   19.07416725  181.30200195    0.70999998    2.96000004
   19.07722282  192.73500061    0.75000000    2.96000004
   19.08055687  192.90199280    0.75000000    2.96000004
   19.08388901  178.49400330    0.81999999    2.96000004
   19.08694458  183.37800598    0.83999997    2.96000004
   19.09027863  178.12500000    0.81999999    2.96000004
   19.09333420  185.55599976    0.79000002    2.96000004
   19.09777832  185.55599976    0.88000000    2.96000004
   19.10194397  191.51699829    0.76999998    2.96000004
   19.10527802  189.51400757    0.75000000    2.96000004
   19.10833359  184.32699585    0.73000002    2.94000006
   19.11166763  193.55299377    0.73000002    2.96000004
   19.11499977  195.37300110    0.73000002    2.94000006
   19.11805534  182.02499390    0.75000000    2.94000006
   19.12138939  173.51199341    0.81999999    2.94000006
   19.12472153  180.59700012    0.83999997    2.96000004
   19.12777710  173.97799683    0.75000000    2.96000004
   19.13249969  173.97799683    0.75000000    2.96000004
   19.13638878  158.40199280    0.73000002    2.96000004
   19.13972282  178.26899719    0.73000002    2.96000004
   19.14305496  184.71899414    0.70999998    2.98000002
   19.14611053  173.24099731    0.73000002    2.94000006
   19.14944458  183.48500061    0.73000002    2.96000004
   19.15250015  184.75399780    0.70999998    2.96000004
   19.15583229  176.95599365    0.73000002    2.96000004
   19.15916634  168.19299316    0.73000002    2.94000006
   19.16222191  182.56599426    0.73000002    2.94000006
   19.16694450  182.56599426    0.73000002    2.94000006
   19.17111015  179.94999695    0.73000002    2.96000004
   19.17416573  185.91900635    0.73000002    2.96000004
   19.17749977  185.26300049    0.73000002    2.94000006
   19.18055534  187.93699646    0.73000002    2.96000004
   19.18388748  192.05700684    0.73000002    2.96000004
   19.18722153  178.82200623    0.73000002    2.96000004
   19.19027710  184.65499878    0.70999998    2.96000004
   19.19361115  183.20399475    0.70999998    2.96000004
   19.19694328  179.99400330    0.73000002    2.96000004
   19.20138931  179.99400330    0.70999998    2.96000004
   19.20555687  166.46699524    0.70999998    2.96000004
   19.20861244  166.38400269    0.70999998    2.96000004
   19.21194458  180.47300720    0.73000002    2.96000004
   19.21527863  173.18600464    0.73000002    2.96000004
   19.21833420  182.75999451    0.73000002    2.94000006
   19.22166634  181.80700684    0.73000002    2.96000004
   19.22500038  168.32400513    0.73000002    2.96000004
   19.22805595  178.89399719    0.70999998    2.96000004
   19.23139000  166.31500244    0.70999998    2.96000004
   19.23583412  166.31500244    0.70999998    2.96000004
   19.23999977  171.35899353    0.70999998    2.94000006
   19.24333382  181.57000732    0.70999998    2.94000006
   19.24638939  197.33399963    0.73000002    2.96000004
   19.24972153  193.33000183    0.73000002    2.96000004
   19.25305557  178.02000427    0.73000002    2.96000004
   19.25611115  151.16000366    0.73000002    2.94000006
   19.25944519  160.37699890    0.73000002    2.94000006
   19.26250076  178.27799988    0.73000002    2.96000004
   19.26583290  178.99699402    0.73000002    2.94000006
   19.27027702  178.99699402    0.73000002    2.94000006
   19.27444458  172.08000183    0.70999998    2.96000004
   19.27777672  157.89399719    0.70999998    2.94000006
   19.28111076  174.17300415    0.70999998    2.94000006
   19.28416634  175.80999756    0.70999998    2.96000004
   19.28750038  164.17500305    0.70999998    2.96000004
   19.29055595  169.45399475    0.70999998    2.94000006
   19.29388809  178.49099731    0.73000002    2.94000006
   19.29722214  178.32200623    0.73000002    2.96000004
   19.30027771  167.46200562    0.73000002    2.94000006
   19.30499840  167.46200562    0.75000000    2.94000006
   19.30888748  181.86799622    0.79000002    2.94000006
   19.31222153  183.41799927    0.79000002    2.94000006
   19.31555557  175.76600647    0.79000002    2.94000006
   19.31861115  178.42799377    0.79000002    2.94000006
   19.32194519  196.24299622    0.79000002    2.94000006
   19.32527924  185.36399841    0.79000002    2.94000006
   19.32833481  175.41799927    0.76999998    2.94000006
   19.33166695  179.47000122    0.76999998    2.94000006
   19.33472252  180.07000732    0.79000002    2.94000006
   19.33944511  180.07000732    0.79000002    2.96000004
   19.34361267  180.41700745    0.76999998    2.94000006
   19.34666824  163.69900513    0.76999998    2.94000006
   19.35000038  182.66999817    0.75000000    2.96000004
   19.35333443  174.18099976    0.75000000    2.96000004
   19.35639000  166.74000549    0.75000000    2.96000004
   19.35972214  165.88400269    0.75000000    2.94000006
   19.36305618  175.68800354    0.75000000    2.94000006
   19.36611176  166.85200500    0.75000000    2.94000006
   19.36944389  166.51400757    0.76999998    2.94000006
   19.37388992  166.51400757    0.79000002    2.94000006
   19.37805557  178.51100159    0.79000002    2.94000006
   19.38138962  172.71899414    0.79000002    2.94000006
   19.38444519  177.32499695    0.79000002    2.94000006
   19.38777733  181.69700623    0.79000002    2.94000006
   19.39083290  169.19799805    0.79000002    2.94000006
   19.39416695  166.92999268    0.79000002    2.94000006
   19.39749908  158.69400024    0.79000002    2.93000007
   19.40055466  158.91700745    0.79000002    2.94000006
   19.40388870  177.55999756    0.79000002    2.94000006
   19.40833282  177.55999756    0.76999998    2.94000006
   19.41250038  175.23399353    0.76999998    2.94000006
   19.41583252  163.63699341    0.76999998    2.94000006
   19.41916656  164.75999451    0.76999998    2.94000006
   19.42222214  160.55200195    0.79000002    2.94000006
   19.42555428  166.32200623    0.79000002    2.94000006
   19.42860985  164.65299988    0.79000002    2.94000006
   19.43194389  172.83099365    0.80000001    2.96000004
   19.43527603  174.15800476    0.79000002    2.94000006
   19.43833160  167.33700562    0.79000002    2.94000006
   19.44305420  167.33700562    0.80000001    2.94000006
   19.44694328  172.19700623    0.80000001    2.93000007
   19.45027924  173.85099792    0.80000001    2.94000006
   19.45361137  164.70300293    0.81999999    2.94000006
   19.45666695  167.49699402    0.81999999    2.94000006
   19.46000099  163.82699585    0.80000001    2.93000007
   19.46333504  175.74800110    0.80000001    2.94000006
   19.46638870  175.80900574    0.81999999    2.94000006
   19.46972275  164.80200195    0.81999999    2.94000006
   19.47277832  165.80299377    0.81999999    2.94000006
   19.47750092  165.80299377    0.83999997    2.94000006
   19.48166656  166.15199280    0.83999997    2.94000006
   19.48472214  159.51899719    0.81999999    2.94000006
   19.48805618  162.31100464    0.83999997    2.93000007
   19.49138832  167.57200623    0.83999997    2.93000007
   19.49444389  173.33599854    0.86000001    2.94000006
   19.49777794  167.64500427    0.83999997    2.94000006
   19.50083351  172.45300293    0.83999997    2.94000006
   19.50416756  169.74499512    0.83999997    2.94000006
   19.50749969  156.66999817    0.83999997    2.94000006
   19.51194382  156.66999817    0.86000001    2.94000006
   19.51611137  158.39100647    0.83999997    2.93000007
   19.51916695  163.32899475    0.83999997    2.93000007
   19.52249908  160.83099365    0.81999999    2.94000006
   19.52583313  164.05299377    0.81999999    2.94000006
   19.52888870  157.15299988    0.81999999    2.94000006
   19.53222275  161.41600037    0.81999999    2.93000007
   19.53555489  170.30799866    0.81999999    2.93000007
   19.53861046  162.04800415    0.81999999    2.94000006
   19.54194450  162.34500122    0.83999997    2.94000006
   19.56250000  162.34500122    0.81999999    2.94000006
   19.56666756  155.41999817    0.81999999    2.93000007
   19.57000160  164.33500671    0.83999997    2.93000007
   19.57305717  162.79100037    0.81999999    2.94000006
   19.57638931  170.00000000    0.81999999    2.94000006
   19.57972336  162.62399292    0.81999999    2.94000006
   19.58277893  159.77900696    0.83999997    2.94000006
   19.58611107  161.95799255    0.86000001    2.94000006
   19.58916664  161.08500671    0.86000001    2.94000006
   19.59250069  167.19000244    0.86000001    2.94000006
   19.59694481  167.19000244    0.88000000    2.94000006
   19.60111237  154.56199646    0.88000000    2.94000006
   19.60444450  161.39999390    0.88000000    2.93000007
   19.60750008  157.37600708    0.88000000    2.94000006
   19.61083412  152.74899292    0.88000000    2.93000007
   19.61388969  156.34199524    0.88000000    2.93000007
   19.61722183  162.32699585    0.89999998    2.94000006
   19.62055588  151.62899780    0.89999998    2.93000007
   19.62361145  164.92500305    0.94000000    2.93000007
   19.62694550  164.68400574    0.98000002    2.94000006
   19.63138962  164.68400574    0.98000002    2.93000007
   19.63555527  159.64700317    1.05999994    2.93000007
   19.63888931  162.75500488    0.94000000    2.93000007
   19.64194489  161.61000061    0.92000002    2.93000007
   19.64527702  160.97099304    0.92000002    2.93000007
   19.64861107  159.60699463    0.92000002    2.93000007
   19.65166664  166.32299805    0.94000000    2.93000007
   19.65499878  160.81599426    0.94000000    2.93000007
   19.65833282  160.23899841    0.95999998    2.93000007
   19.66138840  169.30799866    0.95999998    2.93000007
   19.66611099  169.30799866    0.98000002    2.93000007
   19.67000008  168.61199951    0.98000002    2.91000009
   19.67333221  176.01800537    0.98000002    2.93000007
   19.67666626  157.33599854    0.98000002    2.93000007
   19.67972183  164.27999878    1.00000000    2.93000007
   19.68305397  154.56300354    1.00000000    2.93000007
   19.68610954  155.83799744    1.00000000    2.93000007
   19.68944359  153.39399719    1.00000000    2.93000007
   19.69277763  154.91400146    1.00000000    2.93000007
   19.69583321  162.43099976    0.98000002    2.93000007
   19.70055580  162.43099976    0.98000002    2.93000007
   19.70472336  156.63299561    0.98000002    2.93000007
   19.70777893  162.72500610    0.98000002    2.94000006
   19.71111107  159.28100586    0.98000002    2.91000009
   19.71416664  162.39999390    0.98000002    2.91000009
   19.71750069  173.42700195    1.00000000    2.93000007
   19.72083473  172.81100464    0.98000002    2.93000007
   19.72389030  164.00599670    0.98000002    2.93000007
   19.72722244  162.49699402    0.98000002    2.93000007
   19.73055649  165.14199829    0.98000002    2.93000007
   19.73500061  165.14199829    1.00000000    2.93000007
   19.73916626  154.35499573    1.00000000    2.91000009
   19.74222183  153.10600281    1.00000000    2.93000007
   19.74555588  163.24400330    1.00000000    2.93000007
   19.74888992  160.89900208    1.00000000    2.91000009
   19.75194359  158.95300293    1.00000000    2.93000007
   19.75527763  167.92900085    1.01999998    2.93000007
   19.75861168  156.57299805    1.01999998    2.93000007
   19.76166725  168.87800598    1.01999998    2.93000007
   19.76499939  150.53799438    1.01999998    2.93000007
   19.76944351  150.53799438    1.01999998    2.93000007
   19.77361107  165.65600586    1.01999998    2.93000007
   19.77694511  162.37800598    1.00000000    2.93000007
   19.78000069  169.46400452    0.98000002    2.91000009
   19.78333282  166.86799622    0.98000002    2.91000009
   19.78666687  154.15100098    1.00000000    2.93000007
   19.78972244  156.05099487    0.98000002    2.93000007
   19.79305458  147.56399536    0.98000002    2.93000007
   19.79611015  154.85400391    0.98000002    2.93000007
   19.79944420  154.49000549    1.01999998    2.91000009
   19.80388832  154.49000549    1.07000005    2.93000007
   19.80805397  159.51199341    1.34000003    2.93000007
   19.81138802  157.93099976    1.33000004    2.93000007
   19.81472206  160.40899658    1.21000004    2.93000007
   19.81777954  154.80499268    1.14999998    2.93000007
   19.82111168  147.79200745    1.16999996    2.93000007
   19.82416725  158.62500000    1.19000006    2.91000009
   19.82750130  148.73899841    1.13000000    2.93000007
   19.83083344  159.01100159    0.98000002    2.91000009
   19.83388901  155.39100647    0.95999998    2.93000007
   19.83861160  155.39100647    0.94000000    2.91000009
   19.84277916  153.01100159    0.95999998    2.93000007
   19.84583473  163.86599731    0.94000000    2.93000007
   19.84916687  165.85600281    0.95999998    2.91000009
   19.85250092  161.90800476    0.95999998    2.93000007
   19.85583305  166.45399475    0.98000002    2.91000009
   19.85888863  167.20399475    0.95999998    2.91000009
   19.86222267  160.73399353    0.95999998    2.93000007
   19.86555672  171.32600403    0.98000002    2.91000009
   19.86861038  167.72500610    0.95999998    2.93000007
   19.87305641  167.72500610    0.95999998    2.93000007
   19.87722206  164.25700378    0.98000002    2.91000009
   19.88027763  159.51699829    0.98000002    2.91000009
   19.88361168  162.23899841    1.00000000    2.91000009
   19.88694382  168.90400696    1.00000000    2.93000007
   19.88999939  163.02099609    0.98000002    2.93000007
   19.89333344  155.05000305    1.00000000    2.91000009
   19.89638901  159.33999634    1.00000000    2.91000009
   19.89972115  165.05400085    1.00000000    2.91000009
   19.90305519  161.57299805    0.98000002    2.93000007
   19.90749931  161.57299805    1.00000000    2.93000007
   19.91166687  167.01300049    1.01999998    2.91000009
   19.91499901  164.52099609    1.01999998    2.91000009
   19.91805458  164.37399292    1.07000005    2.91000009
   19.92138863  163.20399475    1.07000005    2.91000009
   19.92444420  162.08500671    1.05999994    2.91000009
   19.92777634  156.00599670    1.13000000    2.91000009
   19.93111038  159.39300537    1.07000005    2.91000009
   19.93416595  157.59700012    1.11000001    2.91000009
   19.93750000  162.89999390    1.11000001    2.91000009
   19.94194412  162.89999390    1.09000003    2.91000009
   19.94610977  158.50300598    1.07000005    2.91000009
   19.94944382  164.08000183    1.09000003    2.91000009
   19.95250130  162.69099426    1.09000003    2.91000009
   19.95583344  168.91099548    1.09000003    2.91000009
   19.95916748  159.54600525    1.07000005    2.91000009
   19.96222305  158.97900391    1.09000003    2.91000009
   19.96555710  156.88000488    1.09000003    2.91000009
   19.96888924  162.16499329    1.07000005    2.91000009
   19.97194481  164.66400146    1.07000005    2.91000009
   19.97666740  164.66400146    1.05999994    2.91000009
   19.98055649  161.65499878    1.03999996    2.91000009
   19.98388863  158.56399536    1.03999996    2.91000009
   19.98722267  162.76600647    1.03999996    2.91000009
   19.99027824  168.86500549    1.03999996    2.91000009
   19.99361229  161.79400635    1.01999998    2.91000009
   19.99694443  163.73399353    1.03999996    2.91000009
   20.00000000  158.60200500    1.01999998    2.91000009
   20.00333405  166.38699341    1.03999996    2.91000009
   20.00638962  158.55900574    1.03999996    2.91000009
   20.01111031  158.55900574    1.05999994    2.91000009
   20.01527786  170.36799622    1.07000005    2.91000009
   20.01833344  159.14399719    1.07000005    2.91000009
   20.02194405  161.20500183    1.09000003    2.93000007
   20.02499962  169.17300415    1.09000003    2.91000009
   20.02833366  156.76300049    1.05999994    2.91000009
   20.03138924  166.64500427    1.03999996    2.91000009
   20.03472137  162.90199280    1.03999996    2.91000009
   20.03805542  164.28900146    1.03999996    2.91000009
   20.04111099  156.77400208    1.05999994    2.91000009
   20.04555511  156.77400208    1.05999994    2.91000009
   20.04972076  161.33799744    1.09000003    2.91000009
   20.05277634  161.50999451    1.09000003    2.91000009
   20.05611038  171.08500671    1.09000003    2.91000009
   20.05944443  165.35800171    1.09000003    2.91000009
   20.06250000  158.40899658    1.09000003    2.91000009
   20.06583214  156.48300171    1.11000001    2.89000010
   20.06916809  162.54299927    1.11000001    2.91000009
   20.07222366  155.87100220    1.11000001    2.89000010
   20.07555580  171.20700073    1.11000001    2.91000009
   20.08000183  171.20700073    1.11000001    2.91000009
   20.08416748  160.75799561    1.13000000    2.91000009
   20.08750153  155.22000122    1.14999998    2.91000009
   20.09055710  153.69299316    1.14999998    2.91000009
   20.09388924  161.69700623    1.14999998    2.91000009
   20.09722328  152.30299377    1.14999998    2.91000009
   20.10027885  164.16900635    1.16999996    2.91000009
   20.10361099  170.88800049    1.16999996    2.91000009
   20.10666656  158.42900085    1.19000006    2.89000010
   20.11000061  156.53999329    1.19000006    2.89000010
   20.11444473  156.53999329    1.23000002    2.89000010
   20.11861038  161.03700256    1.23000002    2.91000009
   20.12194443  158.32400513    1.25000000    2.91000009
   20.12527847  156.27400208    1.25000000    2.91000009
   20.12833405  157.38099670    1.30999994    2.91000009
   20.13166618  162.02900696    1.33000004    2.89000010
   20.13500023  160.88299561    1.39999998    2.91000009
   20.13805580  158.75500488    1.39999998    2.89000010
   20.14138794  155.46099854    1.34000003    2.89000010
   20.14444351  152.44400024    1.36000001    2.91000009
   20.14916611  152.44400024    1.36000001    2.89000010
   20.15333366  154.46099854    1.38000000    2.89000010
   20.15638924  157.42900085    1.39999998    2.89000010
   20.15972137  152.69599915    1.41999996    2.89000010
   20.16277695  159.77000427    1.46000004    2.89000010
   20.16611099  154.49899292    1.51999998    2.89000010
   20.16944313  159.27699280    1.55999994    2.89000010
   20.17249870  161.31300354    1.66999996    2.89000010
   20.17583275  160.74600220    1.71000004    2.89000010
   20.17916679  153.43600464    1.85000002    2.89000010
   20.18361092  153.43600464    1.94000006    2.89000010
   20.18777657  163.39999390    1.85000002    2.89000010
   20.19083214  153.27499390    1.80999994    2.86999989
   20.19416618  150.96699524    1.80999994    2.89000010
   20.19749832  157.91099548    1.80999994    2.89000010
   20.20055580  154.97099304    1.78999996    2.89000010
   20.20388985  155.49099731    1.78999996    2.89000010
   20.20722389  152.38400269    1.80999994    2.89000010
   20.21027946  155.86300659    1.89999998    2.89000010
   20.21361160  162.34100342    1.96000004    2.89000010
   20.21805573  162.34100342    1.91999996    2.89000010
   20.22222328  170.48599243    1.85000002    2.86999989
   20.22555542  181.38000488    1.83000004    2.89000010
   20.22861099  165.86500549    1.86000001    2.89000010
   20.23194504  165.67199707    1.80999994    2.89000010
   20.23527718  169.60699463    1.86000001    2.89000010
   20.23833275  160.71000671    1.75000000    2.89000010
   20.24166679  155.91700745    1.64999998    2.89000010
   20.24472237  162.88600159    1.66999996    2.89000010
   20.24805641  154.38400269    1.64999998    2.86999989
   20.25250053  154.38400269    1.64999998    2.86999989
   20.25666618  162.30400085    1.64999998    2.86999989
   20.26000023  161.03500366    1.64999998    2.86999989
   20.26305580  165.15699768    1.63000000    2.89000010
   20.26638794  159.04499817    1.64999998    2.89000010
   20.26972198  159.56900024    1.71000004    2.86999989
   20.27277756  144.04800415    1.75000000    2.86999989
   20.27611160  154.14999390    1.86000001    2.86999989
   20.27944374  154.47399902    1.88000000    2.86999989
   20.28249931  160.59100342    1.88000000    2.86999989
   20.28722191  160.59100342    2.05999994    2.86999989
   20.29111099  150.87500000    1.96000004    2.86999989
   20.29444313  155.63499451    1.80999994    2.86999989
   20.29777718  169.57899475    1.80999994    2.86999989
   20.30083275  150.07899475    1.76999998    2.86999989
   20.30416679  161.00000000    1.76999998    2.86999989
   20.30749893  163.57000732    1.89999998    2.86999989
   20.31055450  170.97399902    1.86000001    2.86999989
   20.31388855  160.77600098    2.15000010    2.86999989
   20.31722260  157.19700623    2.09999990    2.86999989
   20.32166672  157.19700623    2.07999992    2.86999989
   20.32583427  154.90600586    1.94000006    2.86999989
   20.32888985  162.08200073    1.98000002    2.86999989
   20.33222389  153.91400146    1.73000002    2.86999989
   20.33555603  171.38800049    1.80999994    2.84999990
   20.33861160  157.50199890    1.64999998    2.86999989
   20.34194565  160.65299988    1.75000000    2.86999989
   20.34500122  163.32099915    1.75000000    2.86999989
   20.34833336  168.62199402    1.71000004    2.86999989
   20.35166740  166.09500122    1.69000006    2.86999989
   20.35611153  166.09500122    1.50000000    2.86999989
   20.36027908  170.83399963    1.46000004    2.86999989
   20.36361122  169.99600220    1.44000006    2.86999989
   20.36666679  171.47500610    1.48000002    2.86999989
   20.37000084  165.22000122    1.48000002    2.86999989
   20.37305641  159.88800049    1.53999996    2.86999989
   20.37638855  164.64999390    1.58000004    2.86999989
   20.37972260  166.06900024    1.58000004    2.86999989
   20.38277817  177.88900757    1.63000000    2.86999989
   20.38611031  162.80700684    1.63000000    2.86999989
   20.39055634  162.80700684    1.64999998    2.86999989
   20.39472198  173.64700317    1.64999998    2.84999990
   20.39805603  167.66200256    1.73000002    2.84999990
   20.40111160  187.44900513    1.86000001    2.86999989
   20.40444374  159.00799561    2.00000000    2.86999989
   20.40777779  166.54400635    1.94000006    2.84999990
   20.41083336  157.95300293    1.91999996    2.86999989
   20.41416550  170.41999817    1.91999996    2.86999989
   20.41749954  163.77400208    1.78999996    2.86999989
   20.42055511  165.46499634    1.75000000    2.86999989
   20.42499924  165.46499634    1.69000006    2.86999989
   20.42916679  162.70799255    1.53999996    2.86999989
   20.43249893  155.66600037    1.53999996    2.86999989
   20.43583298  166.08900452    1.53999996    2.86999989
   20.43888855  157.73399353    1.51999998    2.86999989
   20.44222069  155.34599304    1.51999998    2.86999989
   20.44527626  176.36199951    1.51999998    2.86999989
   20.44861031  161.86099243    1.53999996    2.84999990
   20.45194435  168.43600464    1.53999996    2.84999990
   20.45499992  151.67999268    1.61000001    2.86999989
   20.45972252  151.67999268    1.55999994    2.86999989
   20.46389008  152.35800171    1.55999994    2.86999989
   20.46694565  156.53999329    1.55999994    2.84999990
   20.47027779  168.29600525    1.60000002    2.86999989
   20.47333336  157.91700745    1.60000002    2.84999990
   20.47666740  153.79800415    1.60000002    2.84999990
   20.48000145  154.77900696    1.61000001    2.86999989
   20.48305511  157.46200562    1.60000002    2.84999990
   20.48638916  217.36000061    1.58000004    2.84999990
   20.48972321  190.28900146    1.58000004    2.86999989
   20.49416733  190.28900146    1.51999998    2.84999990
   20.49833298  217.06500244    1.55999994    2.84999990
   20.50138855  233.02999878    1.55999994    2.84999990
   20.50472260  212.46299744    1.50000000    2.86999989
   20.50805473  209.38000488    1.63000000    2.84999990
   20.51111031  181.94799805    1.60000002    2.84999990
   20.51444435  200.25599670    1.75000000    2.84999990
   20.51777840  187.44200134    1.76999998    2.84999990
   20.52083397  166.71499634    1.69000006    2.84999990
   20.52416611  175.35699463    1.64999998    2.84999990
   20.52861023  175.35699463    1.53999996    2.84999990
   20.53277779  192.62199402    1.53999996    2.84999990
   20.53610992  170.11900330    1.55999994    2.86999989
   20.53916550  186.75599670    1.55999994    2.86999989
   20.54249954  173.63000488    1.55999994    2.84999990
   20.54583359  161.48599243    1.58000004    2.84999990
   20.54888916  170.94700623    1.55999994    2.82999992
   20.55222130  182.72700500    1.61000001    2.84999990
   20.55527687  174.96099854    1.60000002    2.84999990
   20.55861092  183.23699951    1.60000002    2.84999990
   20.57944489  183.23699951    1.88000000    2.84999990
   20.58333397  162.49299622    1.85000002    2.84999990
   20.58666801  161.42799377    1.83000004    2.84999990
   20.59000015  161.01600647    1.78999996    2.84999990
   20.59305573  180.17399597    1.89999998    2.82999992
   20.59638977  163.29299927    1.89999998    2.82999992
   20.59972191  164.25199890    1.91999996    2.84999990
   20.60277748  168.28300476    1.91999996    2.84999990
   20.60611153  158.30599976    1.83000004    2.84999990
   20.60916710  148.81399536    1.83000004    2.84999990
   20.61361122  148.81399536    1.98000002    2.84999990
   20.61777878  166.05200195    2.07999992    2.82999992
   20.62111092  170.21499634    2.01999998    2.82999992
   20.62444496  176.00199890    1.94000006    2.82999992
   20.62750053  181.21400452    2.00000000    2.82999992
   20.63083267  169.29600525    2.17000008    2.82999992
   20.63388824  188.35299683    2.11999989    2.82999992
   20.63722229  189.29600525    2.15000010    2.82999992
   20.64055634  190.34199524    2.17000008    2.84999990
   20.64361191  185.48399353    2.11999989    2.84999990
   20.64833260  185.48399353    2.00000000    2.82999992
   20.65222168  163.09399414    1.94000006    2.84999990
   20.65555573  181.51300049    2.11999989    2.84999990
   20.65888786  189.78199768    2.05999994    2.84999990
   20.66222191  175.89199829    2.11999989    2.82999992
   20.66527748  175.33000183    2.11999989    2.84999990
   20.66860962  181.71600342    2.01999998    2.82999992
   20.67166519  181.05999756    1.98000002    2.84999990
   20.67499924  166.21800232    1.98000002    2.84999990
   20.67833328  182.06700134    1.88000000    2.82999992
   20.68277740  182.06700134    1.86000001    2.84999990
   20.68694305  172.47900391    1.85000002    2.82999992
   20.68999863  165.30799866    1.86000001    2.84999990
   20.69333267  170.22500610    1.88000000    2.82999992
   20.69666672  169.01199341    1.89999998    2.82999992
   20.69972038  171.20599365    1.94000006    2.82999992
   20.70305634  176.89399719    1.96000004    2.82999992
   20.70611191  155.16299438    1.98000002    2.82999992
   20.70944595  165.09199524    1.96000004    2.82999992
   20.71277809  168.62500000    1.98000002    2.82999992
   20.71722221  168.62500000    2.00000000    2.82999992
   20.72138977  175.48500061    2.01999998    2.82999992
   20.72472191  171.77000427    2.00000000    2.82999992
   20.72777748  158.04499817    2.01999998    2.82999992
   20.73111153  153.88900757    2.01999998    2.82999992
   20.73416710  166.20399475    2.00000000    2.82999992
   20.73750114  165.62699890    2.05999994    2.82999992
   20.74083328  180.83399963    2.05999994    2.82999992
   20.74388885  171.13400269    2.05999994    2.80999994
   20.74722290  156.38600159    2.03999996    2.82999992
   20.75166702  156.38600159    2.03999996    2.82999992
   20.75583267  156.56199646    2.05999994    2.82999992
   20.75916672  166.88299561    2.05999994    2.80999994
   20.76222229  170.51100159    2.01999998    2.80999994
   20.76555634  177.75799561    2.00000000    2.82999992
   20.76888847  178.02499390    1.91999996    2.80999994
   20.77194405  170.05999756    1.89999998    2.82999992
   20.77527809  169.84399414    1.89999998    2.82999992
   20.77861023  168.49699402    1.88000000    2.82999992
   20.78166580  167.66600037    1.83000004    2.80999994
   20.78638840  167.66600037    1.78999996    2.82999992
   20.79055595  160.42599487    1.80999994    2.82999992
   20.79388809  165.38099670    1.85000002    2.82999992
   20.79694366  148.36799622    1.94000006    2.82999992
   20.80027771  157.33099365    2.09999990    2.82999992
   20.80360985  160.90499878    2.11999989    2.80999994
   20.80666542  161.44599915    2.11999989    2.80999994
   20.80999947  157.72599792    2.13000011    2.82999992
   20.81333351  166.46899414    2.21000004    2.80999994
   20.81638718  167.71099854    2.26999998    2.80999994
   20.82083511  167.71099854    2.40000010    2.80999994
   20.82500076  170.40699768    2.50000000    2.80999994
   20.82805634  170.41900635    2.55999994    2.80999994
   20.83139038  155.38099670    2.48000002    2.80999994
   20.83472252  161.12600708    2.59999990    2.80999994
   20.83777809  168.00100708    2.46000004    2.80999994
   20.84111214  155.25000000    2.53999996    2.80999994
   20.84416771  143.42399597    2.40000010    2.80999994
   20.84749985  141.60200500    2.28999996    2.80999994
   20.85083389  145.02499390    2.32999992    2.80999994
   20.85527802  145.02499390    2.15000010    2.80999994
   20.85944557  165.27000427    2.11999989    2.82999992
   20.86250114  162.18400574    2.19000006    2.82999992
   20.86583328  158.52900696    2.23000002    2.80999994
   20.86916733  169.55400085    2.40000010    2.80999994
   20.87222290  164.52200317    2.46000004    2.80999994
   20.87555504  160.48800659    2.76999998    2.78999996
   20.87888908  160.18800354    2.61999989    2.78999996
   20.88194466  161.24899292    2.51999998    2.78999996
   20.88527679  140.75700378    2.44000006    2.80999994
   20.88972282  140.75700378    2.39000010    2.78999996
   20.89388847  168.78999329    2.19000006    2.80999994
   20.89722252  174.79499817    1.94000006    2.80999994
   20.90027809  169.59599304    1.86000001    2.82999992
   20.90361023  170.94299316    1.85000002    2.78999996
   20.90694427  165.02799988    1.98000002    2.78999996
   20.90999985  175.68499756    2.03999996    2.80999994
   20.91333389  166.63499451    2.05999994    2.80999994
   20.91638756  176.11300659    2.03999996    2.80999994
   20.91972160  171.38600159    2.01999998    2.78999996
   20.92416573  171.38600159    1.98000002    2.80999994
   20.92833328  162.49099731    1.98000002    2.80999994
   20.93166542  158.91099548    1.98000002    2.80999994
   20.93499947  156.84500122    1.94000006    2.80999994
   20.93805504  156.20599365    1.86000001    2.80999994
   20.94138718  159.51199341    1.89999998    2.80999994
   20.94444275  161.08299255    2.44000006    2.80999994
   20.94777679  153.39100647    2.91000009    2.80999994
   20.95111275  167.66600037    3.00000000    2.80999994
   20.95416832  164.42199707    2.86999989    2.80999994
   20.95888901  164.42199707    2.57999992    2.80999994
   20.96305656  167.06700134    2.51999998    2.80999994
   20.96611214  170.46600342    2.61999989    2.80999994
   20.96944427  187.10699463    3.05999994    2.80999994
   20.97249985  174.95899963    3.51999998    2.82999992
   20.97583389  159.63499451    3.68000007    2.80999994
   20.97916794  152.48899841    3.97000003    2.82999992
   20.98222351  170.60800171    4.21999979    2.80999994
   20.98555565  163.11900330    4.90999985    2.82999992
   20.98888969  143.83700562    4.90999985    2.82999992
   20.99333382  143.83700562    4.90999985    2.80999994
   20.99749947  159.43099976    4.90999985    2.80999994
   21.00055504  166.33500671    4.90999985    2.80999994
   21.00388908  154.96899414    4.90999985    2.80999994
   21.00722313  169.71800232    4.90999985    2.82999992
   21.01027870  161.16700745    4.90999985    2.84999990
   21.01361084  169.47700500    4.90999985    2.84999990
   21.01694489  168.33399963    4.90999985    2.78999996
   21.02000046  153.61799622    4.90999985    2.78999996
   21.02333260  150.38999939    4.90999985    2.82999992
   21.02777672  150.38999939    4.90999985    2.78999996
   21.03194427  165.09199524    4.90999985    2.84999990
   21.03527641  152.57000732    4.90999985    2.82999992
   21.03833199  231.41999817    4.90999985    2.86999989
   21.04166603  273.10800171    4.90999985    2.71000004
   21.04472160  280.98300171    4.90999985    2.59999990
   21.04805565  150.80200195    4.90999985    2.28999996
   21.05138779   -1.00000000    4.90999985    2.13000011
   21.05444336   -1.00000000    4.90999985    1.85000002
   21.05777740   -1.00000000    4.90999985    1.83000004
   21.06222153   -1.00000000    4.90999985    1.83000004
   21.06638718   -1.00000000    4.90999985    1.69000006
   21.07000160   -1.00000000    4.90999985    1.64999998
   21.07333374   -1.00000000    4.90999985    1.61000001
   21.07638931   -1.00000000    4.90999985    1.46000004
   21.07972336   -1.00000000    4.90999985    1.25000000
   21.08277893   -1.00000000    4.90999985    1.21000004
   21.08611107   -1.00000000    4.90999985    1.14999998
   21.08944511   -1.00000000    4.90999985    1.09000003
   21.09250069   -1.00000000    4.90999985    1.09000003
   21.10083389   -1.00000000    4.90999985    1.09000003
   21.10416794   -1.00000000    4.90999985    1.09000003
   21.10722351   -1.00000000    4.90999985    1.09000003
   21.11055565   -1.00000000    4.90999985    1.09000003
   21.11388969   -1.00000000    4.90999985    1.09000003
   21.11694527   -1.00000000    4.90999985    1.09000003
   21.12027740   -1.00000000    4.90999985    1.09000003
   21.12361145   -1.00000000    4.90999985    1.09000003
   21.12666702   -1.00000000    4.90999985    1.09000003
   21.13527679   -1.00000000    4.90999985    1.09000003
   21.13861084   -1.00000000    4.90999985    1.09000003
   21.14194489   -1.00000000    4.90999985    1.09000003
   21.14500046   -1.00000000    4.90999985    1.09000003
   21.14833260   -1.00000000    4.90999985    1.09000003
   21.15138817   -1.00000000    4.90999985    1.09000003
   21.15472221   -1.00000000    4.90999985    1.09000003
   21.15805435   -1.00000000    4.90999985    1.09000003
   21.16110992   -1.00000000    4.90999985    1.09000003
   21.17000008   -1.00000000    4.90999985    1.09000003
   21.17305565   -1.00000000    4.90999985    1.09000003
   21.17638779   -1.00000000    4.90999985    1.09000003
   21.17944336   -1.00000000    4.90999985    1.09000003
   21.18277740   -1.00000000    4.90999985    1.09000003
   21.18610954   -1.00000000    4.90999985    1.09000003
   21.18916512   -1.00000000    4.90999985    1.09000003
   21.19249916   -1.00000000    4.90999985    1.09000003
   21.19583321   -1.00000000    4.90999985    1.09000003
   21.20444489   -1.00000000    4.90999985    1.09000003
   21.20750046   -1.00000000    4.90999985    1.09000003
   21.21083450   -1.00000000    4.90999985    1.09000003
   21.21416664   -1.00000000    4.90999985    1.09000003
   21.21722221   -1.00000000    4.90999985    1.09000003
   21.22055626   -1.00000000    4.90999985    1.09000003
   21.22389030   -1.00000000    4.90999985    1.09000003
   21.22694588   -1.00000000    4.90999985    1.09000003
   21.23027802   -1.00000000    4.90999985    1.09000003
   21.23888969   -1.00000000    4.90999985    1.09000003
   21.24222183   -1.00000000    4.90999985    1.09000003
   21.24527740   -1.00000000    4.90999985    1.09000003
   21.24861145   -1.00000000    4.90999985    1.09000003
   21.25194359   -1.00000000    4.90999985    1.09000003
   21.25499916   -1.00000000    4.90999985    1.09000003
   21.25833321   -1.00000000    4.90999985    1.09000003
   21.26138878   -1.00000000    4.90999985    1.09000003
   21.26472282   -1.00000000    4.90999985    1.09000003
   21.27333260   -1.00000000    4.90999985    1.09000003
   21.27666664   -1.00000000    4.90999985    1.09000003
   21.28000069   -1.00000000    4.90999985    1.09000003
   21.28305435   -1.00000000    4.90999985    1.09000003
   21.28638840   -1.00000000    4.90999985    1.09000003
   21.28944397   -1.00000000    4.90999985    1.09000003
   21.29277802   -1.00000000    4.90999985    1.09000003
   21.29611015   -1.00000000    4.90999985    1.09000003
   21.29916573   -1.00000000    4.90999985    1.09000003
   21.30805397   -1.00000000    4.90999985    1.09000003
   21.31110954   -1.00000000    4.90999985    1.09000003
   21.31444359   -1.00000000    4.90999985    1.09000003
   21.31750107   -1.00000000    4.90999985    1.09000003
   21.32083511   -1.00000000    4.90999985    1.09000003
   21.32416725   -1.00000000    4.90999985    1.09000003
   21.32722282   -1.00000000    4.90999985    1.09000003
   21.33055687   -1.00000000    4.90999985    1.09000003
   21.33388901   -1.00000000    4.90999985    1.09000003
   21.34250069   -1.00000000    4.90999985    1.09000003
   21.34555626   -1.00000000    4.90999985    1.09000003
   21.34889030   -1.00000000    4.90999985    1.09000003
   21.35222244   -1.00000000    4.90999985    1.09000003
   21.35527802   -1.00000000    4.90999985    1.09000003
   21.35861206   -1.00000000    4.90999985    1.09000003
   21.36166763   -1.00000000    4.90999985    1.09000003
   21.36499977   -1.00000000    4.90999985    1.09000003
   21.36833382   -1.00000000    4.90999985    1.09000003
   21.37694550   -1.00000000    4.90999985    1.09000003
   21.38027763   -1.00000000    4.90999985    1.09000003
   21.38333321   -1.00000000    4.90999985    1.09000003
   21.38666725   -1.00000000    4.90999985    1.09000003
   21.38972282   -1.00000000    4.90999985    1.09000003
   21.39305496   -1.00000000    4.90999985    1.09000003
   21.39638901   -1.00000000    4.90999985    1.09000003
   21.39944458   -1.00000000    4.90999985    1.09000003
   21.40277672   -1.00000000    4.90999985    1.09000003
   21.41138840   -1.00000000    4.90999985    1.09000003
   21.41472244   -1.00000000    4.90999985    1.09000003
   21.41777802   -1.00000000    4.90999985    1.09000003
   21.42111015   -1.00000000    4.90999985    1.09000003
   21.42444420   -1.00000000    4.90999985    1.09000003
   21.42749977   -1.00000000    4.90999985    1.09000003
   21.43083191   -1.00000000    4.90999985    1.09000003
   21.43416595   -1.00000000    4.90999985    1.09000003
   21.43722153   -1.00000000    4.90999985    1.09000003
   21.44583321   -1.00000000    4.90999985    1.09000003
   21.44916534   -1.00000000    4.90999985    1.09000003
   21.45250130   -1.00000000    4.90999985    1.09000003
   21.45555687   -1.00000000    4.90999985    1.09000003
   21.45888901   -1.00000000    4.90999985    1.09000003
   21.46222305   -1.00000000    4.90999985    1.09000003
   21.46527863   -1.00000000    4.90999985    1.09000003
   21.46861076   -1.00000000    4.90999985    1.09000003
   21.47166634   -1.00000000    4.90999985    1.09000003
   21.48055649   -1.00000000    4.90999985    1.09000003
   21.48361206   -1.00000000    4.90999985    1.09000003
   21.48694420   -1.00000000    4.90999985    1.09000003
   21.49027824   -1.00000000    4.90999985    1.09000003
