    HOUR (UT)   FLARE FACTOR    SKY TESTER    SUN TESTER
   11.93805599   -1.00000000   -1.00000000   -1.00000000
   11.95805550  224.28399658    0.83999997    1.76999998
   11.96249962  221.70500183    0.81999999    1.78999996
   11.96722221  206.57699585    0.83999997    1.78999996
   11.97027779  208.37199402    0.81999999    1.78999996
   11.97361088  222.41700745    0.81999999    1.78999996
   11.97666645  186.33099365    0.81999999    1.78999996
   11.97999954  195.65400696    0.83999997    1.80999994
   11.98333359  205.25599670    0.83999997    1.80999994
   11.98694515  208.28399658    0.83999997    1.80999994
   11.99000072  196.44099426    0.83999997    1.80999994
   11.99138927  192.46400452    0.83999997    1.80999994
   11.99361134  194.38699341    0.83999997    1.83000004
   11.99694443  154.38600159    0.83999997    1.83000004
   12.00000000  172.55400085    0.86000001    1.83000004
   12.00333309  159.52299500    0.86000001    1.85000002
   12.00638866  162.33700562    0.83999997    1.83000004
   12.00972176  206.42599487    0.83999997    1.85000002
   12.01305580  175.91000366    0.86000001    1.83000004
   12.01638889  166.85800171    0.86000001    1.85000002
   12.01944447  180.67999268    0.86000001    1.85000002
   12.02277756  201.72399902    0.86000001    1.85000002
   12.02472210  171.63200378    0.86000001    1.85000002
   12.02638817  200.02400208    0.86000001    1.85000002
   12.02944374  176.01699829    0.86000001    1.85000002
   12.03277779  194.77799988    0.86000001    1.86000001
   12.03611183  205.19700623    0.86000001    1.85000002
   12.03916740  242.30599976    0.86000001    1.86000001
   12.04250050  234.82299805    0.86000001    1.86000001
   12.04583359  205.39700317    0.86000001    1.86000001
   12.04888916  233.39900208    0.86000001    1.86000001
   12.05222225  208.87199402    0.86000001    1.86000001
   12.05555534  202.45899963    0.86000001    1.88000000
   12.05805588  198.67999268    0.86000001    1.86000001
   12.05916691  151.10499573    0.86000001    1.88000000
   12.06250000  156.92100525    0.86000001    1.88000000
   12.06555557  179.23399353    0.86000001    1.88000000
   12.06888866  130.87800598    0.86000001    1.88000000
   12.07194424  161.00100708    0.86000001    1.88000000
   12.07527733  167.00300598    0.86000001    1.89999998
   12.07861137  143.90299988    0.83999997    1.89999998
   12.08166695  153.08299255    0.81999999    1.89999998
   12.08500004  188.25799561    0.81999999    1.89999998
   12.08833313  156.34800720    0.81999999    1.89999998
   12.09138870  232.03399658    0.81999999    1.91999996
   12.09194374  176.95899963    0.81999999    1.91999996
   12.09527779  177.09100342    0.81999999    1.89999998
   12.09833336  184.19099426    0.81999999    1.91999996
   12.10166740  211.82299805    0.80000001    1.91999996
   12.10472298  189.06599426    0.80000001    1.94000006
   12.10805607  208.15199280    0.80000001    1.91999996
   12.11138916  161.03100586    0.80000001    1.94000006
   12.11444473  163.76100159    0.80000001    1.91999996
   12.11777782  157.72099304    0.80000001    1.91999996
   12.12111092  151.32600403    0.79000002    1.94000006
   12.12416649  129.27200317    0.79000002    1.94000006
   12.12472248  132.00300598    0.79000002    1.94000006
   12.12777805  150.95599365    0.79000002    1.91999996
   12.13111115  143.16700745    0.79000002    1.94000006
   12.13416672  117.33300018    0.79000002    1.94000006
   12.13749981  143.58999634    0.79000002    1.94000006
   12.14055538  132.41900635    0.79000002    1.94000006
   12.14388847  146.71000671    0.79000002    1.96000004
   12.14722252  153.65299988    0.76999998    1.96000004
   12.15027714  147.83900452    0.76999998    1.96000004
   12.15361118  146.09199524    0.76999998    1.96000004
   12.15694427  122.66600037    0.76999998    1.96000004
   12.15805531  107.89900208    0.76999998    1.96000004
   12.16055489  121.79599762    0.76999998    1.96000004
   12.16388893  122.75900269    0.76999998    1.98000002
   12.16694450  110.64099884    0.76999998    1.98000002
   12.17027855  118.73000336    0.76999998    1.98000002
   12.17361164  102.02100372    0.76999998    1.98000002
   12.17666721  128.74299622    0.76999998    1.98000002
   12.18000031  121.11199951    0.75000000    1.98000002
   12.18305588  125.71700287    0.75000000    1.98000002
   12.18638897  108.30999756    0.76999998    1.98000002
   12.18972206  123.56500244    0.75000000    2.00000000
   12.19138908  135.74200439    0.75000000    2.00000000
   12.19361115  120.32299805    0.75000000    2.00000000
   12.19694424  107.47200012    0.75000000    2.00000000
   12.19999981  112.66999817    0.75000000    2.00000000
   12.20333290  121.25299835    0.75000000    2.01999998
   12.20666695  113.07399750    0.73000002    2.01999998
   12.20972157  100.05000305    0.73000002    2.01999998
   12.21305561  101.97699738    0.73000002    2.01999998
   12.21638870  120.06199646    0.73000002    2.01999998
   12.21944427  116.33899689    0.73000002    2.01999998
   12.22277737  119.85099792    0.73000002    2.01999998
   12.22472191  121.18900299    0.73000002    2.01999998
   12.22638798  100.24400330    0.73000002    2.01999998
   12.22972202  112.65200043    0.73000002    2.01999998
   12.23277760  119.69400024    0.73000002    2.03999996
   12.23611164  114.07399750    0.70999998    2.03999996
   12.23944473  112.64700317    0.73000002    2.01999998
   12.24250031   96.72149658    0.70999998    2.03999996
   12.24583340   90.66999817    0.70999998    2.03999996
   12.24888897  110.06999969    0.70999998    2.03999996
   12.25222206   92.20529938    0.70999998    2.03999996
   12.25555515  107.20200348    0.70999998    2.03999996
   12.25805569  101.80200195    0.70999998    2.05999994
   12.25916672  100.26599884    0.70999998    2.05999994
   12.26249981  108.79199982    0.70999998    2.03999996
   12.26555538  118.05899811    0.69000000    2.05999994
   12.26888847  106.92900085    0.69000000    2.03999996
   12.27222157   99.26830292    0.70999998    2.05999994
   12.27527714  117.49199677    0.69000000    2.05999994
   12.27861118  111.51499939    0.69000000    2.05999994
   12.28166676  112.45300293    0.69000000    2.05999994
   12.28500080  117.48300171    0.69000000    2.07999992
   12.28833389  131.56399536    0.69000000    2.07999992
   12.29166698  122.87799835    0.69000000    2.05999994
   12.29194450  106.84799957    0.69000000    2.05999994
   12.29527855  104.62799835    0.67000002    2.07999992
   12.29833412  104.18499756    0.67000002    2.07999992
   12.30166721   98.36389923    0.67000002    2.07999992
   12.30500031   99.19940186    0.67000002    2.07999992
   12.30805588  107.46199799    0.67000002    2.09999990
   12.31138897   92.00430298    0.67000002    2.07999992
   12.31444454   87.19460297    0.67000002    2.09999990
   12.31777763   90.30860138    0.67000002    2.07999992
   12.32111073  103.55899811    0.67000002    2.09999990
   12.32416630  109.26100159    0.67000002    2.07999992
   12.32472229  101.30000305    0.64999998    2.07999992
   12.32777786  100.81199646    0.67000002    2.09999990
   12.33111095   89.74440002    0.64999998    2.09999990
   12.33416653   88.74019623    0.64999998    2.09999990
   12.33749962  122.77899933    0.64999998    2.09999990
   12.34083271   93.35919952    0.64999998    2.09999990
   12.34388828   86.13390350    0.64999998    2.09999990
   12.34722233   97.92739868    0.63000000    2.09999990
   12.35027790   89.22769928    0.63000000    2.09999990
   12.35361195   96.50039673    0.63000000    2.09999990
   12.35694504   97.72619629    0.63000000    2.11999989
   12.35805607   92.86229706    0.63000000    2.11999989
   12.36055565   91.97010040    0.63000000    2.11999989
   12.36388969   91.06990051    0.63000000    2.11999989
   12.36694431   92.67610168    0.63000000    2.11999989
   12.37027836   92.40339661    0.63000000    2.11999989
   12.37361145   95.12770081    0.63000000    2.11999989
   12.37666702   89.62239838    0.61000001    2.11999989
   12.38000011   89.48690033    0.61000001    2.11999989
   12.38333321   89.36799622    0.61000001    2.11999989
   12.38638878   86.96649933    0.61000001    2.11999989
   12.38972187   95.77130127    0.61000001    2.13000011
   12.39166641  104.81700134    0.61000001    2.11999989
   12.39333344   90.36759949    0.61000001    2.13000011
   12.39666653   86.36979675    0.61000001    2.13000011
   12.39972210   85.33630371    0.61000001    2.13000011
   12.40305519   93.76339722    0.61000001    2.13000011
   12.40666676   84.84629822    0.61000001    2.13000011
   12.40972137   81.90350342    0.61000001    2.13000011
   12.41305542   88.88780212    0.58999997    2.13000011
   12.41638851   92.32430267    0.61000001    2.13000011
   12.41944504   85.04789734    0.58999997    2.15000010
   12.42277813   89.56020355    0.61000001    2.15000010
   12.42500019   87.76300049    0.61000001    2.15000010
   12.42638874  100.24199677    0.58999997    2.15000010
   12.42972279   77.69010162    0.58999997    2.15000010
   12.43277836   81.99919891    0.58999997    2.15000010
   12.43611145   80.01029968    0.58999997    2.15000010
   12.43944454   85.53980255    0.58999997    2.15000010
   12.44250011   96.56649780    0.58999997    2.15000010
   12.44583321   85.57409668    0.58999997    2.17000008
   12.44916630   90.17600250    0.56999999    2.17000008
   12.45222187   86.51090240    0.58999997    2.15000010
   12.45555496   90.38809967    0.58999997    2.17000008
   12.45833302   89.29869843    0.58999997    2.17000008
   12.45916653   87.62460327    0.56999999    2.17000008
   12.46249962   89.22669983    0.56999999    2.17000008
   12.46555519   87.30970001    0.56999999    2.17000008
   12.46888828   88.79429626    0.56999999    2.17000008
   12.47222137   91.53160095    0.56999999    2.17000008
   12.47527695   85.60230255    0.56999999    2.19000006
   12.47861099   88.93820190    0.56999999    2.17000008
   12.48194408   86.14089966    0.56999999    2.19000006
   12.48500061   89.79370117    0.56999999    2.19000006
   12.48833370   82.91799927    0.56999999    2.17000008
   12.49166679   83.02590179    0.56999999    2.19000006
   12.49194431   81.44640350    0.56999999    2.19000006
   12.49527836   88.50579834    0.56999999    2.19000006
   12.49833393   83.92600250    0.56999999    2.19000006
   12.50166702   96.52559662    0.56999999    2.19000006
   12.50500011   91.04740143    0.55000001    2.19000006
   12.50805569   88.98760223    0.55000001    2.19000006
   12.51138878   94.26390076    0.55000001    2.21000004
   12.51444435   88.48970032    0.55000001    2.21000004
   12.51777744   95.39630127    0.55000001    2.21000004
   12.52111053   94.66049957    0.55000001    2.21000004
   12.52416611   93.13539886    0.52999997    2.19000006
   12.52499962   87.27349854    0.55000001    2.21000004
   12.52777767   85.00679779    0.52999997    2.19000006
   12.53111076   87.86530304    0.52999997    2.21000004
   12.53416729   84.62950134    0.52999997    2.21000004
   12.53750038   91.81109619    0.52999997    2.21000004
   12.54083347   89.16410065    0.52999997    2.21000004
   12.54388905   86.46279907    0.52999997    2.21000004
   12.54722309  105.41899872    0.52999997    2.23000002
   12.55055618   89.14489746    0.51999998    2.23000002
   12.55361176   98.81060028    0.52999997    2.21000004
   12.55694485   94.74859619    0.51999998    2.23000002
   12.55833340   84.06369781    0.51999998    2.23000002
   12.56055546   90.96040344    0.51999998    2.23000002
   12.56388950   91.23169708    0.52999997    2.23000002
   12.56694412   88.90010071    0.51999998    2.23000002
   12.57027817   87.33489990    0.51999998    2.23000002
   12.57361126   89.34020233    0.52999997    2.23000002
   12.57666683   88.85939789    0.51999998    2.23000002
   12.57999992   82.63079834    0.51999998    2.23000002
   12.58333302   85.14199829    0.51999998    2.25000000
   12.58638859   83.27179718    0.51999998    2.23000002
   12.58972168   83.11620331    0.51999998    2.23000002
   12.59166622   85.79329681    0.51999998    2.23000002
   12.59333324   80.73040009    0.51999998    2.23000002
   12.59666634   86.64399719    0.51999998    2.23000002
   12.59972191   84.98989868    0.51999998    2.23000002
   12.60305595   82.70649719    0.51999998    2.25000000
   12.60638905   88.71839905    0.51999998    2.23000002
   12.60944462   84.44460297    0.51999998    2.25000000
   12.61277771   85.64920044    0.51999998    2.25000000
   12.61611176   80.46369934    0.51999998    2.25000000
   12.61916637   93.36799622    0.51999998    2.25000000
   12.62250042   88.39689636    0.51999998    2.25000000
   12.62500000   80.93019867    0.51999998    2.25000000
   12.62611103   85.53569794    0.51999998    2.25000000
   12.62944412   85.83699799    0.51999998    2.25000000
   12.63249969   83.99569702    0.50000000    2.25000000
   12.63583279   90.94090271    0.50000000    2.25000000
   12.63916683   85.30410004    0.50000000    2.25000000
   12.64222240   90.51879883    0.50000000    2.25000000
   12.64555550   83.88999939    0.50000000    2.26999998
   12.64888859   90.74539948    0.50000000    2.25000000
   12.65194416   86.96759796    0.50000000    2.25000000
   12.65527725   86.30149841    0.50000000    2.26999998
   12.65833282   96.54630280    0.50000000    2.26999998
   12.65888882   91.85980225    0.50000000    2.26999998
   12.66222191   83.89569855    0.50000000    2.26999998
   12.66555500   83.66590118    0.50000000    2.26999998
   12.66861153   93.08219910    0.50000000    2.26999998
   12.67194462   97.56040192    0.50000000    2.26999998
   12.67500019   84.14279938    0.50000000    2.26999998
   12.67833328   82.14510345    0.50000000    2.26999998
   12.68166733   88.74790192    0.50000000    2.26999998
   12.68472195   88.66179657    0.50000000    2.26999998
   12.68805599   80.88249969    0.50000000    2.28999996
   12.69138908   86.37190247    0.50000000    2.28999996
   12.69194412   85.52239990    0.50000000    2.26999998
   12.69499969   86.83339691    0.50000000    2.26999998
   12.69833374   89.06980133    0.50000000    2.26999998
   12.70138836   87.39859772    0.50000000    2.26999998
   12.70472240  100.43199921    0.51999998    2.28999996
   12.70805550   82.84100342    0.50000000    2.28999996
   12.71111107   91.80200195    0.50000000    2.28999996
   12.71444416   94.85690308    0.50000000    2.28999996
   12.71777725   87.62930298    0.50000000    2.28999996
   12.72083282   87.50360107    0.50000000    2.28999996
   12.72416592   83.02739716    0.50000000    2.28999996
   12.72527695   88.61560059    0.50000000    2.28999996
   12.72777748   87.40000153    0.50000000    2.28999996
   12.73111057   88.10430145    0.50000000    2.28999996
   12.73416710   82.91079712    0.50000000    2.28999996
   12.73750019   84.10250092    0.50000000    2.30999994
   12.74083328   84.83640289    0.50000000    2.28999996
   12.74388885   82.54370117    0.50000000    2.28999996
   12.74722290   87.29769897    0.50000000    2.28999996
   12.75055599   82.22799683    0.47999999    2.30999994
   12.75361156   85.31900024    0.47999999    2.30999994
   12.75694466   84.88760376    0.50000000    2.30999994
   12.75861073   83.57790375    0.50000000    2.30999994
   12.76055527   81.33139801    0.47999999    2.30999994
   12.76388931   85.06880188    0.47999999    2.30999994
   12.76694393   86.73889923    0.50000000    2.30999994
   12.77027798   86.36280060    0.47999999    2.30999994
   12.77361107   82.82129669    0.47999999    2.30999994
   12.77666664   85.94699860    0.47999999    2.30999994
   12.77999973   82.18650055    0.47999999    2.30999994
   12.78333378   82.55950165    0.47999999    2.32999992
   12.78638935   84.70600128    0.47999999    2.30999994
   12.78972244   83.31259918    0.47999999    2.32999992
   12.79194450   84.89129639    0.47999999    2.32999992
   12.79333401   83.44840240    0.47999999    2.32999992
   12.79666710   84.67949677    0.47999999    2.30999994
   12.79972267   87.79460144    0.47999999    2.32999992
   12.80305576   99.16680145    0.47999999    2.32999992
   12.80638885   93.80169678    0.47999999    2.32999992
   12.80944443   90.39170074    0.47999999    2.32999992
   12.81277752   90.39779663    0.47999999    2.32999992
   12.81611156   81.89189911    0.47999999    2.32999992
   12.81916618   90.70169830    0.47999999    2.32999992
   12.82250023   90.10649872    0.47999999    2.32999992
   12.82527733   86.38600159    0.47999999    2.32999992
   12.82611084   89.18920135    0.47999999    2.32999992
   12.82944393   87.94480133    0.47999999    2.34999990
   12.83249950   85.03970337    0.47999999    2.32999992
   12.83583260   81.18659973    0.47999999    2.32999992
   12.83916664   92.22589874    0.47999999    2.32999992
   12.84222221   86.22339630    0.47999999    2.32999992
   12.84555531   85.12370300    0.47999999    2.32999992
   12.84888840   84.86299896    0.47999999    2.32999992
   12.85194492   87.43789673    0.47999999    2.34999990
   12.85527802   83.70770264    0.47999999    2.34999990
   12.85861111   83.83429718    0.47999999    2.34999990
   12.85888958   81.83329773    0.47999999    2.34999990
   12.86222267   82.72630310    0.47999999    2.34999990
   12.86527824   89.36239624    0.47999999    2.34999990
   12.86861134   89.28089905    0.47999999    2.34999990
   12.87194443   85.30999756    0.47999999    2.34999990
   12.87500000   83.36820221    0.47999999    2.34999990
   12.87833309   87.05519867    0.47999999    2.34999990
   12.88166714   86.08719635    0.47999999    2.34999990
   12.88472176   85.15440369    0.47999999    2.34999990
   12.88805580   84.38549805    0.47999999    2.36999989
   12.89111137   87.52279663    0.47999999    2.34999990
   12.89194393   87.09880066    0.47999999    2.34999990
   12.89472198   88.77130127    0.47999999    2.36999989
   12.89805508   87.91570282    0.47999999    2.34999990
   12.90138817   88.16459656    0.47999999    2.36999989
   12.90444374   85.61000061    0.47999999    2.36999989
   12.90777779   89.43540192    0.47999999    2.34999990
   12.91083336   84.35399628    0.47999999    2.36999989
   12.91416645   82.84549713    0.47999999    2.36999989
   12.91750050   87.70539856    0.47999999    2.34999990
   12.92055607   85.25869751    0.47999999    2.36999989
   12.92388916   89.89859772    0.46000001    2.36999989
   12.92527771   87.86499786    0.46000001    2.36999989
   12.92750072   81.16320038    0.47999999    2.36999989
   12.93083382   87.16220093    0.47999999    2.36999989
   12.93388939   86.07800293    0.46000001    2.36999989
   12.93722248   83.13259888    0.46000001    2.36999989
   12.94055557   82.70030212    0.47999999    2.36999989
   12.94361115   85.61830139    0.47999999    2.36999989
   12.94694424   87.99960327    0.47999999    2.36999989
   12.95027733   83.23120117    0.47999999    2.39000010
   12.95333290   81.98130035    0.46000001    2.39000010
   12.95666695   82.00689697    0.47999999    2.36999989
   12.97472191   87.21910095    0.46000001    2.39000010
   12.97666645   87.47029877    0.47999999    2.39000010
   12.97999954   85.42680359    0.46000001    2.39000010
   12.98305511   87.16410065    0.46000001    2.39000010
   12.98638916   85.76640320    0.47999999    2.39000010
   12.98972225   87.48979950    0.46000001    2.39000010
   12.99277782   85.45290375    0.46000001    2.39000010
   12.99611092   86.70110321    0.46000001    2.39000010
   12.99916649   93.76599884    0.46000001    2.39000010
   13.00249958   87.95169830    0.46000001    2.39000010
   13.00583363   85.51200104    0.46000001    2.39000010
   13.00805569   87.68360138    0.44000000    2.39000010
   13.00944424   85.39050293    0.44000000    2.40000010
   13.01249981   83.70850372    0.44000000    2.39000010
   13.01583290   86.58280182    0.44000000    2.39000010
   13.01916599   84.06849670    0.44000000    2.39000010
   13.02222157   89.24600220    0.44000000    2.39000010
   13.02555561   83.21469879    0.46000001    2.40000010
   13.02861118   83.02100372    0.44000000    2.40000010
   13.03194427   86.78459930    0.44000000    2.40000010
   13.03527832   87.04070282    0.44000000    2.40000010
   13.03833389   84.28179932    0.46000001    2.40000010
   13.04138947   86.98639679    0.44000000    2.40000010
   13.04222298   91.56169891    0.44000000    2.40000010
   13.04527855   87.31690216    0.46000001    2.40000010
   13.04861164   88.22229767    0.46000001    2.40000010
   13.05194473   84.48950195    0.44000000    2.40000010
   13.05500031   89.78399658    0.44000000    2.40000010
   13.05833340   92.59390259    0.46000001    2.40000010
   13.06166649   88.03929901    0.46000001    2.40000010
   13.06472206   87.48750305    0.44000000    2.40000010
   13.06805515   89.81430054    0.44000000    2.40000010
   13.07111073   92.28399658    0.44000000    2.40000010
   13.07444477   89.09079742    0.44000000    2.40000010
   13.07499981   87.78589630    0.44000000    2.40000010
   13.07833290   91.70939636    0.44000000    2.40000010
   13.08138847   86.48419952    0.44000000    2.40000010
   13.08472157   89.83300018    0.44000000    2.40000010
   13.08805561   89.53510284    0.44000000    2.40000010
   13.09111118   87.69059753    0.44000000    2.42000008
   13.09444427   89.60910034    0.44000000    2.40000010
   13.09749985   88.53089905    0.44000000    2.40000010
   13.10083389   83.08640289    0.44000000    2.42000008
   13.10416698   89.75309753    0.44000000    2.42000008
   13.10722256   88.03359985    0.44000000    2.42000008
   13.10833359   89.53070068    0.44000000    2.42000008
   13.11111164   86.99340057    0.44000000    2.42000008
   13.11416721   91.59809875    0.44000000    2.42000008
   13.11750031   89.60089874    0.44000000    2.42000008
   13.12083340   89.93470001    0.44000000    2.42000008
   13.12388897   88.58630371    0.44000000    2.42000008
   13.12722206   88.21469879    0.44000000    2.42000008
   13.13027763   89.95349884    0.41999999    2.44000006
   13.13361073   86.46420288    0.44000000    2.44000006
   13.13694477   88.64409637    0.44000000    2.42000008
   13.14000034   85.97799683    0.44000000    2.42000008
   13.14166641   86.67510223    0.41999999    2.42000008
   13.14388847   85.45939636    0.41999999    2.42000008
   13.14694405   86.92230225    0.44000000    2.42000008
   13.15027714   86.84700012    0.44000000    2.42000008
   13.15333271   83.94409943    0.41999999    2.42000008
   13.15666676   85.07360077    0.41999999    2.44000006
   13.15999985   89.18240356    0.41999999    2.44000006
   13.16305542   85.09010315    0.44000000    2.42000008
   13.16638851   86.34470367    0.44000000    2.44000006
   13.16972256   84.88159943    0.41999999    2.44000006
   13.17277813   90.55259705    0.41999999    2.44000006
   13.17500019   84.11479950    0.41999999    2.44000006
   13.17666721   83.73780060    0.44000000    2.44000006
   13.17972279   87.11779785    0.41999999    2.44000006
   13.18305588   85.85970306    0.41999999    2.44000006
   13.18638897   84.99150085    0.44000000    2.44000006
   13.18944454   87.76660156    0.41999999    2.44000006
   13.19277763   83.39630127    0.41999999    2.44000006
   13.19583321   84.59580231    0.41999999    2.46000004
   13.19916630   86.13839722    0.44000000    2.44000006
   13.20249939   88.45870209    0.41999999    2.44000006
   13.20555496   86.17579651    0.41999999    2.46000004
   13.20833302   83.86679840    0.41999999    2.44000006
   13.20944405   87.85659790    0.41999999    2.44000006
   13.21249962   83.95010376    0.41999999    2.46000004
   13.21583271   84.61879730    0.41999999    2.46000004
   13.21916580   86.08999634    0.41999999    2.46000004
   13.22222137   87.89620209    0.41999999    2.46000004
   13.22555542   88.82689667    0.41999999    2.46000004
   13.22861099   83.55429840    0.41999999    2.46000004
   13.23194408   87.88210297    0.41999999    2.46000004
   13.23527813   86.95200348    0.41999999    2.46000004
   13.23833370   92.63999939    0.41999999    2.46000004
   13.24166679   92.85009766    0.41999999    2.46000004
   13.24222279   90.79049683    0.41999999    2.46000004
   13.24527836   87.87830353    0.41999999    2.46000004
   13.24861145   93.13619995    0.41999999    2.46000004
   13.25194454   89.55229950    0.41999999    2.46000004
   13.25500011   87.82520294    0.44000000    2.46000004
   13.25833321   88.87220001    0.47999999    2.46000004
   13.26138878   86.38939667    0.47999999    2.46000004
   13.26472187   88.10679626    0.55000001    2.46000004
   13.26805496   88.18779755    0.56999999    2.46000004
   13.27111053   87.85089874    0.61000001    2.46000004
   13.27444458   85.64820099    0.75000000    2.46000004
   13.27499962   91.01249695    0.86000001    2.46000004
   13.27805519   88.61699677    1.09000003    2.46000004
   13.28111076   87.64769745    1.39999998    2.46000004
   13.28444481   87.97989655    1.30999994    2.46000004
   13.28777790   88.14199829    1.19000006    2.46000004
   13.29083347   87.82879639    1.28999996    2.46000004
   13.29416752   85.31220245    2.09999990    2.46000004
   13.29722309   87.32080078    2.50000000    2.46000004
   13.30055618   92.76550293    2.93000007    2.46000004
   13.30388927   89.31610107    3.75000000    2.36999989
   13.30694485   88.66979980    3.91000009    2.42000008
   13.30833340   89.10870361    3.99000001    2.46000004
   13.31083393   94.45780182    4.05999994    2.44000006
   13.31388950   92.08439636    4.21999979    2.40000010
   13.31722260   92.04620361    4.59999990    2.34999990
   13.32055569   98.91929626    4.86999989    2.25000000
   13.32361126   97.11589813    4.78000021    2.15000010
   13.32694435   89.76750183    4.84999990    2.11999989
   13.32999992   90.22149658    4.90999985    2.28999996
   13.33333302   86.30509949    4.90999985    2.36999989
   13.33666611   90.04530334    4.26000023    2.36999989
   13.33972168   88.62169647    4.01999998    2.36999989
   13.34166622   92.03260040    3.72000003    2.44000006
   13.34361076   87.00700378    3.50000000    2.46000004
   13.34666634   90.06749725    3.75000000    2.39000010
   13.35000038   88.88549805    4.34999990    2.46000004
   13.35333347   82.15930176    4.26000023    2.46000004
   13.35638905   85.80259705    4.01999998    2.48000002
   13.35972214   87.49970245    4.48999977    2.48000002
   13.36277771   85.53919983    4.90999985    2.44000006
   13.36611176   95.88430023    4.90999985    2.39000010
   13.36944485   94.16539764    4.90999985    2.42000008
   13.37250042   95.02639771    4.90999985    2.36999989
   13.37500000  105.27400208    4.90999985    2.32999992
   13.37638855  101.19999695    4.90999985    2.30999994
   13.37972260  102.59300232    4.90999985    2.25000000
   13.38277817   85.73000336    4.17999983    2.39000010
   13.38611126   85.88980103    2.91000009    2.46000004
   13.38916683   85.15039825    2.13000011    2.46000004
   13.39249992   91.63300323    1.33000004    2.50000000
   13.39583302   87.29570007    0.95999998    2.48000002
   13.39888859   86.62030029    0.58999997    2.50000000
   13.40222168   88.09049988    0.51999998    2.50000000
   13.40555477   86.33789825    0.47999999    2.50000000
   13.40833282   86.24909973    0.46000001    2.50000000
   13.40916634   86.57009888    0.44000000    2.50000000
   13.41222191   82.28109741    0.44000000    2.50000000
   13.41555500   86.71990204    0.44000000    2.50000000
   13.41888905   86.37670135    0.41999999    2.50000000
   13.42194462   88.03119659    0.41999999    2.50000000
   13.42527771   84.10160065    0.44000000    2.50000000
   13.42861176   87.47979736    0.44000000    2.50000000
   13.43166733   84.38189697    0.47999999    2.50000000
   13.43500042   84.42469788    0.50000000    2.50000000
   13.43805599   88.33360291    0.92000002    2.50000000
   13.44138908   87.29709625    1.46000004    2.50000000
   13.44194412   84.32779694    1.46000004    2.50000000
   13.44527817   91.04270172    2.30999994    2.51999998
   13.44833374   87.32009888    4.11999989    2.46000004
   13.45166683   87.00109863    4.53999996    2.46000004
   13.45499992   96.49870300    4.90999985    2.46000004
   13.45805550   89.17639923    4.90999985    2.44000006
   13.46138859   90.04540253    4.90999985    2.39000010
   13.46472168   89.34269714    4.90999985    2.39000010
   13.46777725   85.84439850    4.88999987    2.42000008
   13.47111034   91.10130310    4.42999983    2.42000008
   13.47416592   84.22319794    4.36999989    2.50000000
   13.47527695   87.33920288    4.23999977    2.50000000
   13.47805500   90.68599701    3.97000003    2.48000002
   13.48111057   88.34030151    4.80000019    2.44000006
   13.48444462   86.66169739    4.90999985    2.44000006
   13.48777771   85.45729828    4.90999985    2.48000002
   13.49083328   86.84169769    4.90999985    2.48000002
   13.49416733   90.01029968    4.90999985    2.50000000
   13.49722290   89.84290314    4.90999985    2.51999998
   13.50055599   87.70670319    4.90999985    2.51999998
   13.50388908   89.48310089    4.90999985    2.50000000
   13.50694466   87.37069702    4.90999985    2.50000000
   13.50861073   87.37129974    4.90999985    2.48000002
   13.51083374   88.26419830    4.59999990    2.44000006
   13.51388931   85.99179840    4.32999992    2.46000004
   13.51722240   92.31259918    4.11999989    2.46000004
   13.52055550   87.66259766    3.95000005    2.44000006
   13.52361107   99.95800018    4.11999989    2.42000008
   13.52694416   89.73699951    4.40999985    2.36999989
   13.52999973   85.66680145    4.28999996    2.40000010
   13.53333378   89.82520294    3.84999990    2.44000006
   13.53666687   88.50839996    3.68000007    2.46000004
   13.53972244   84.34089661    3.64000010    2.48000002
   13.54194450   85.52369690    3.51999998    2.48000002
   13.54361153   86.94560242    3.68000007    2.48000002
   13.54666710   91.30619812    4.34999990    2.46000004
   13.55000019   90.59459686    4.90999985    2.39000010
   13.55333328   88.86569977    4.90999985    2.39000010
   13.55638885   86.31140137    4.90999985    2.40000010
   13.55972195   88.33930206    4.90999985    2.36999989
   13.56277752   89.61969757    4.90999985    2.39000010
   13.56611156   89.85209656    4.90999985    2.39000010
   13.56944466   89.14289856    4.90999985    2.40000010
   13.57250023   89.74990082    4.90999985    2.40000010
   13.57527733   86.56939697    4.90999985    2.42000008
   13.57638836   88.81320190    4.90999985    2.42000008
   13.57944393   92.02469635    4.90999985    2.46000004
   13.58277798   91.70320129    4.90999985    2.46000004
   13.58611107   88.61959839    4.90999985    2.44000006
   13.58916664   90.52310181    4.90999985    2.42000008
   13.59249973   90.98069763    4.90999985    2.46000004
   13.59583282   88.56620026    4.80999994    2.46000004
   13.59888840   90.94200134    4.90999985    2.46000004
   13.60222244   91.36509705    4.90999985    2.46000004
   13.60527802   88.32360077    4.90999985    2.39000010
   13.60861111   89.58399963    4.90999985    2.40000010
   13.60916710   86.57910156    4.90999985    2.40000010
   13.61222267   87.43229675    4.90999985    2.44000006
   13.61555576   88.25569916    4.80999994    2.42000008
   13.61888885   87.62069702    4.73999977    2.40000010
   13.62194443   83.89620209    4.67999983    2.46000004
   13.62527752   83.69319916    3.89000010    2.50000000
   13.62861156   83.19570160    2.53999996    2.50000000
   13.63166714   84.92060089    2.28999996    2.51999998
   13.63500023   88.31809998    2.64000010    2.51999998
   13.63833332   88.18229675    2.93000007    2.51999998
   13.64138889   89.08370209    3.46000004    2.48000002
   13.64194393   87.65529633    3.75000000    2.46000004
   13.64499950   93.28810120    4.26999998    2.48000002
   13.64805508   89.28320313    4.65999985    2.46000004
   13.65138817   96.70099640    4.90999985    2.44000006
   13.65472221   98.65720367    4.90999985    2.25000000
   13.65777779  103.35900116    4.90999985    2.21000004
   13.66111088  100.82800293    4.90999985    2.09999990
   13.66444397   89.47560120    4.90999985    2.21000004
   13.66750050   88.26509857    4.90999985    2.53999996
   13.67083359   86.18139648    4.84999990    2.51999998
   13.67388916   90.48020172    4.32999992    2.51999998
   13.67527771   89.16310120    4.46999979    2.51999998
   13.67777824   92.68379974    4.90999985    2.53999996
   13.68083382   94.43609619    4.90999985    2.46000004
   13.68416691   98.56990051    4.90999985    2.40000010
   13.68750000   96.41149902    4.90999985    2.32999992
   13.69055557  142.88600159    4.90999985    2.15000010
   13.69388866  106.17099762    4.90999985    1.73000002
   13.69722271  114.22100067    4.90999985    2.00000000
   13.70027733   95.23359680    4.90999985    2.11999989
   13.70361137   97.87960052    4.90999985    2.42000008
   13.70666695   87.24189758    4.90999985    2.46000004
   13.70861053   85.62200165    4.90999985    2.48000002
   13.71055508   87.81400299    4.90999985    2.51999998
   13.71388912   85.48400116    4.86999989    2.50000000
   13.71694374   89.02310181    4.90999985    2.46000004
   13.72027779   90.46360016    4.90999985    2.46000004
   13.72333336   91.41590118    4.90999985    2.44000006
   13.72666645   91.50679779    4.90999985    2.42000008
   13.74194431   87.95770264    4.90999985    2.13000011
   13.74250031   93.50029755    4.90999985    2.25000000
   13.74583340   89.17320251    4.90999985    2.40000010
   13.74916649   86.20240021    4.90999985    2.42000008
   13.75222206   87.39679718    4.90999985    2.40000010
   13.75555515   88.81729889    4.90999985    2.46000004
   13.75972176   88.81729889    4.23999977    2.46000004
   13.76388931   92.48300171    3.57999992    2.53999996
   13.76694393   82.42639923    3.34999990    2.51999998
   13.77027798   82.88339996    1.64999998    2.55999994
   13.77361107   83.73239899    0.75000000    2.55999994
   13.77527714   84.82740021    0.63000000    2.55999994
   13.77722168   84.19080353    0.63000000    2.55999994
   13.78027725   85.47460175    0.55000001    2.53999996
   13.78361130   87.81140137    0.63000000    2.55999994
   13.78694534   83.97139740    0.67000002    2.55999994
   13.79000092   81.98970032    0.70999998    2.53999996
   13.79333401   84.65380096    1.03999996    2.55999994
   13.79666710   86.01799774    1.69000006    2.53999996
   13.91249943   -1.00000000   -1.00000000   -1.00000000
   14.00972176   -1.00000000   -1.00000000   -1.00000000
   14.10944462   -1.00000000   -1.00000000   -1.00000000
   14.20611095   -1.00000000   -1.00000000   -1.00000000
   14.30305576   -1.00000000   -1.00000000   -1.00000000
   14.40333271   -1.00000000   -1.00000000   -1.00000000
   14.50194454   -1.00000000   -1.00000000   -1.00000000
   14.59972191   -1.00000000   -1.00000000   -1.00000000
   14.69999981   -1.00000000   -1.00000000   -1.00000000
   14.74361134   70.30229950    0.76999998    2.66000009
   14.74666691   77.10610199    0.79000002    2.67000008
   14.75000000   86.63040161    0.81999999    2.67000008
   14.75305557   83.76679993    0.81999999    2.66000009
   14.75638866   81.64550018    0.83999997    2.66000009
   14.75972176   83.75399780    0.83999997    2.67000008
   14.76388931   83.75399780    0.81999999    2.66000009
   14.76805496   81.39209747    0.80000001    2.67000008
   14.77138901   89.82959747    0.80000001    2.66000009
   14.77472210   82.64029694    0.79000002    2.66000009
   14.77694416   80.65750122    0.79000002    2.66000009
   14.77861118   82.66020203    0.79000002    2.66000009
   14.78166676   85.49250031    0.79000002    2.66000009
   14.78500080   86.65609741    0.76999998    2.67000008
   14.78805637   83.62039948    0.76999998    2.67000008
   14.79138947   82.43450165    0.75000000    2.67000008
   14.79472256   82.72339630    0.75000000    2.67000008
   14.79777813   78.39859772    0.73000002    2.66000009
   14.80111122   81.23909760    0.73000002    2.66000009
   14.80666733   81.23909760    0.73000002    2.66000009
   14.81111145   81.42769623    0.70999998    2.67000008
   14.81416702   84.85800171    0.70999998    2.66000009
   14.81750011   83.18939972    0.70999998    2.66000009
   14.82055569   79.47850037    0.70999998    2.67000008
   14.82388878   86.17130280    0.70999998    2.66000009
   14.82694435   85.21340179    0.70999998    2.67000008
   14.83027744   86.04000092    0.70999998    2.67000008
   14.83361053   79.34249878    0.69000000    2.67000008
   14.83666611   85.66110229    0.67000002    2.67000008
   14.84000015   85.30180359    0.67000002    2.67000008
   14.84305477   86.94049835    0.67000002    2.67000008
   14.84361076   82.00569916    0.67000002    2.67000008
   14.84944439   82.00569916    0.67000002    2.67000008
   14.85361195   87.44830322    0.70999998    2.67000008
   14.85694504   80.53479767    0.73000002    2.67000008
   14.86000061   82.14540100    0.73000002    2.67000008
   14.86333370   84.11550140    0.64999998    2.67000008
   14.86666679   81.25080109    0.63000000    2.67000008
   14.86972237   83.91560364    0.63000000    2.67000008
   14.87305546   88.49680328    0.61000001    2.67000008
   14.87611103   85.91819763    0.61000001    2.66000009
   14.87694454   76.65260315    0.61000001    2.67000008
   14.87972260   90.52729797    0.61000001    2.67000008
   14.88305569   82.66359711    0.61000001    2.67000008
   14.88611126   76.73829651    0.61000001    2.67000008
   14.89249992   76.73829651    0.61000001    2.67000008
   14.89666653   74.57740021    0.63000000    2.67000008
   14.89972210   84.17729950    0.81999999    2.66000009
   14.90305519   76.57659912    1.13000000    2.66000009
   14.90611076   78.74780273    1.28999996    2.69000006
   14.90944386   78.23760223    1.39999998    2.66000009
   14.91027737   79.96499634    1.39999998    2.66000009
   14.91305542   76.85260010    1.38000000    2.67000008
   14.91638851   76.74099731    1.05999994    2.67000008
   14.91944504   75.89340210    0.95999998    2.66000009
   14.92277813   80.69750214    0.95999998    2.67000008
   14.92611122   80.41329956    0.98000002    2.66000009
   14.92916679   77.88860321    0.92000002    2.69000006
   14.93527794   77.88860321    0.92000002    2.66000009
   14.93944454   83.67379761    0.92000002    2.66000009
   14.94305515   86.33439636    0.92000002    2.66000009
   14.94361115   80.22599792    0.92000002    2.66000009
   14.94666672   80.26249695    0.92000002    2.66000009
   14.94999981   82.55639648    0.92000002    2.66000009
   14.95305538   81.30729675    0.92000002    2.66000009
   14.95638847   81.96060181    0.92000002    2.66000009
   14.95972157   82.08699799    0.92000002    2.66000009
   14.96277714   81.53479767    0.92000002    2.66000009
   14.96611118   80.70999908    0.92000002    2.66000009
   14.96944427   77.33789825    0.92000002    2.66000009
   14.97277737   82.58910370    0.92000002    2.66000009
   14.97805500   82.58910370    0.92000002    2.66000009
   14.98222160   83.71060181    0.92000002    2.66000009
   14.98555565   83.73280334    0.92000002    2.66000009
   14.98861122   81.38639832    0.92000002    2.66000009
   14.99194431   80.77349854    0.92000002    2.66000009
   14.99527836   91.52439880    0.92000002    2.66000009
   14.99833393   83.74210358    0.92000002    2.66000009
   15.00166702   78.28500366    0.92000002    2.66000009
   15.00500011   81.49790192    0.92000002    2.66000009
   15.00805569   81.65630341    0.92000002    2.66000009
   15.01027775   75.66919708    0.92000002    2.66000009
   15.01166630   80.26589966    0.92000002    2.66000009
   15.01500034   79.85990143    0.92000002    2.66000009
   15.02083302   79.85990143    0.92000002    2.66000009
   15.02499962   81.38809967    0.92000002    2.66000009
   15.02833271   88.68669891    0.92000002    2.66000009
   15.03166676   73.70719910    0.92000002    2.66000009
   15.03472233   77.91950226    0.92000002    2.66000009
   15.03805637   80.51260376    0.92000002    2.66000009
   15.04138947   81.31890106    0.92000002    2.66000009
   15.04361153   76.58719635    0.92000002    2.66000009
   15.04500008   79.43129730    0.92000002    2.66000009
   15.04833412   82.66670227    0.92000002    2.66000009
   15.05138874   84.33609772    0.92000002    2.66000009
   15.05472279   85.61109924    0.92000002    2.66000009
   15.05777836   83.27349854    0.92000002    2.66000009
   15.06388950   83.27349854    0.92000002    2.66000009
   15.06805515   76.45439911    0.92000002    2.66000009
   15.07138920   80.08039856    0.92000002    2.66000009
   15.07444477   82.69450378    0.92000002    2.66000009
   15.07722187   82.53459930    0.92000002    2.66000009
   15.07833290   79.80719757    0.92000002    2.66000009
   15.08138847   79.85279846    0.92000002    2.66000009
   15.08472157   77.63829803    0.92000002    2.66000009
   15.08805561   77.86859894    0.92000002    2.66000009
   15.09111118   77.49089813    0.92000002    2.66000009
   15.09444427   82.69010162    0.92000002    2.66000009
   15.09777737   79.53540039    0.92000002    2.66000009
   15.10083389   86.14710236    0.92000002    2.66000009
   15.10666752   86.14710236    0.92000002    2.66000009
   15.11083412   80.30940247    0.92000002    2.66000009
   15.11416721   81.29190063    0.92000002    2.66000009
   15.11722279   82.06230164    0.92000002    2.66000009
   15.12055588   81.93440247    0.92000002    2.66000009
   15.12361145   81.04810333    0.92000002    2.66000009
   15.12694454   77.97209930    0.92000002    2.66000009
   15.13027763   81.84290314    0.92000002    2.66000009
   15.13333321   76.39530182    0.92000002    2.66000009
   15.13666630   80.78440094    0.92000002    2.66000009
   15.14000034   79.41130066    0.92000002    2.66000009
   15.14305496   80.50969696    0.92000002    2.66000009
   15.14361095   76.84049988    0.92000002    2.66000009
   15.14944458   76.84049988    0.92000002    2.66000009
   15.15361118   77.20059967    0.92000002    2.66000009
   15.15694427   80.40820313    0.92000002    2.66000009
   15.15999985   81.97480011    0.92000002    2.66000009
   15.17027855   80.07289886    0.00000000    0.00000000
   15.17416668   79.89689636    0.00000000    0.00000000
   15.17777824   81.67659760    0.00000000    0.00000000
   15.17833328   78.11779785    0.00000000    0.00000000
   15.18222237   79.94239807    0.00000000    0.00000000
   15.18611145   82.12840271    0.00000000    0.00000000
   15.19000053   83.82859802    0.00000000    0.00000000
   15.19333363   80.39019775    0.92000002    2.66000009
   15.19888878   80.39019775    0.92000002    2.66000009
   15.20305538   82.47419739    0.92000002    2.66000009
   15.20638847   82.41970062    0.92000002    2.66000009
   15.20944405   80.27690125    0.92000002    2.66000009
   15.21027756   93.05290222    0.92000002    2.66000009
   15.21305561   79.50330353    0.92000002    2.66000009
   15.21638870   82.18160248    0.92000002    2.66000009
   15.21944427   80.71009827    0.92000002    2.66000009
   15.22277737   80.37319946    0.94000000    2.67000008
   15.22611046   76.26959991    0.55000001    2.69000006
   15.22916603   76.91159821    0.55000001    2.71000004
   15.23249912   83.99210358    0.55000001    2.69000006
   15.23583317   80.89320374    0.55000001    2.67000008
   15.24083328   80.89320374    0.55000001    2.69000006
   15.24499989   73.97129822    0.55000001    2.69000006
   15.24833393   80.92030334    0.55000001    2.69000006
   15.25138855   79.09069824    0.55000001    2.71000004
   15.25472260   77.46549988    0.55000001    2.69000006
   15.25777817   78.99369812    0.55000001    2.69000006
   15.26111126   76.87989807    0.55000001    2.69000006
   15.26444435   79.99069977    0.52999997    2.69000006
   15.26749992   79.71160126    0.55000001    2.71000004
   15.27083302   76.25910187    0.52999997    2.71000004
   15.27416611   80.39949799    0.52999997    2.71000004
   15.27722168   76.18800354    0.55000001    2.69000006
   15.27777767   77.86060333    0.52999997    2.69000006
   15.28361130   77.86060333    0.55000001    2.69000006
   15.28777790   79.94339752    0.55000001    2.69000006
   15.29111195   80.73159790    0.55000001    2.69000006
   15.29444504   78.14900208    0.55000001    2.69000006
   15.29750061   76.02899933    0.55000001    2.69000006
   15.30083370   78.05899811    0.55000001    2.69000006
   15.30388927   80.52709961    0.52999997    2.69000006
   15.30722237   78.47419739    0.58999997    2.71000004
   15.31055546   76.84079742    0.58999997    2.71000004
   15.31083393   73.31919861    0.58999997    2.71000004
   15.31416702   79.21119690    0.56999999    2.71000004
   15.31750011   84.52089691    0.56999999    2.71000004
   15.32083321   84.80899811    0.52999997    2.71000004
   15.32666683   84.80899811    0.58999997    2.71000004
   15.33055592   80.13829803    1.13000000    2.71000004
   15.33388901   73.60690308    1.53999996    2.69000006
   15.33722210   82.25180054    0.56999999    2.71000004
   15.34027767   80.04229736    0.55000001    2.71000004
   15.34361076   77.85269928    0.56999999    2.69000006
   15.34416676   79.29450226    0.56999999    2.69000006
   15.34722233   77.96099854    0.55000001    2.71000004
   15.35055637   78.53469849    0.56999999    2.71000004
   15.35388947   76.27809906    0.56999999    2.69000006
   15.35694504   78.98010254    0.56999999    2.71000004
   15.36027813   91.01200104    0.58999997    2.69000006
   15.36361122   79.77100372    0.56999999    2.69000006
   15.36944485   79.77100372    0.56999999    2.71000004
   15.37361145   79.63649750    0.56999999    2.69000006
   15.37666702   75.60600281    1.96000004    2.71000004
   15.37750053   79.66020203    1.96000004    2.71000004
   15.38027763   77.39279938    4.05999994    2.66000009
   15.38361073   82.47679901    4.88999987    2.69000006
   15.38694477   78.64530182    3.20000005    2.69000006
   15.39000034   81.97940063    1.13000000    2.69000006
   15.39333344   79.75150299    0.56999999    2.69000006
   15.39666653   76.82129669    0.56999999    2.69000006
   15.39972210   79.77860260    0.56999999    2.69000006
   15.40305519   79.63780212    0.56999999    2.71000004
   15.40638828   76.88639832    0.56999999    2.71000004
   15.41222191   76.88639832    0.61000001    2.71000004
   15.41638851   77.49790192    0.56999999    2.71000004
   15.41972256   78.95390320    0.56999999    2.71000004
   15.42277813   78.60810089    0.56999999    2.71000004
   15.42611122   80.06690216    0.56999999    2.69000006
   15.42944431   77.31539917    0.56999999    2.69000006
   15.43249989   77.84490204    0.56999999    2.71000004
   15.43583298   75.97489929    0.58999997    2.71000004
   15.43916702   80.65879822    0.58999997    2.71000004
   15.44222260   75.84459686    0.67000002    2.69000006
   15.44416714   72.29499817    0.69000000    2.71000004
   15.44583321   81.25710297    0.73000002    2.71000004
   15.44916630   77.98799896    0.76999998    2.71000004
   15.45499992   77.98799896    0.92000002    2.71000004
   15.45916653   78.15750122    0.76999998    2.71000004
   15.46249962   82.45469666    0.75000000    2.71000004
   15.46555519   79.65979767    0.70999998    2.71000004
   15.46888828   78.64900208    0.73000002    2.71000004
   15.47222137   75.86779785    0.73000002    2.69000006
   15.47527695   76.01609802    0.70999998    2.71000004
   15.47749996   76.83200073    0.69000000    2.71000004
   15.47888851   74.06529999    0.70999998    2.71000004
   15.48222160   78.31340027    0.70999998    2.71000004
   15.48555565   75.65460205    0.79000002    2.71000004
   15.48861122   77.12539673    0.81999999    2.71000004
   15.49194431   79.22250366    0.98000002    2.69000006
   15.49805546   79.22250366    1.01999998    2.71000004
   15.50194454   77.81020355    1.28999996    2.69000006
   15.50527763   77.29519653    2.09999990    2.69000006
   15.50861073   74.34140015    2.30999994    2.71000004
   15.51083374   74.81420135    2.80999994    2.69000006
   15.51194477   80.05220032    4.00000000    2.69000006
   15.51527786   85.02950287    4.34999990    2.69000006
   15.51861095   82.18160248    4.46999979    2.71000004
   15.52166653   77.80000305    4.82999992    2.71000004
   15.52499962   81.13320160    4.90999985    2.64000010
   15.52833271   86.62870026    4.90999985    2.67000008
   15.53138828   77.79409790    4.90999985    2.55999994
   15.53472233   79.83660126    4.90999985    2.61999989
   15.54083347   79.83660126    4.26000023    2.61999989
   15.54500008   79.45819855    3.32999992    2.66000009
   15.54805565   78.02899933    2.39000010    2.71000004
   15.55138874   74.97599792    1.73000002    2.71000004
   15.55444431   72.26689911    1.41999996    2.71000004
   15.55777836   74.02709961    1.28999996    2.71000004
   15.56111145   79.60009766    1.33000004    2.71000004
   15.56416702   80.48059845    3.50000000    2.64000010
   15.56750011   85.00769806    4.90999985    2.50000000
   15.57083321   85.39929962    4.90999985    2.32999992
   15.57388878   76.45529938    4.90999985    2.59999990
   15.57722187   82.83869934    4.90999985    2.61999989
   15.57777786   76.18789673    4.90999985    2.61999989
   15.58361053   76.18789673    1.63000000    2.71000004
   15.58777714   79.66339874    1.51999998    2.71000004
   15.59111118   91.16750336    3.45000005    2.67000008
   15.59416676   81.79799652    4.67999983    2.59999990
   15.59749985   85.71489716    4.90999985    2.48000002
   15.60055637   78.20179749    4.90999985    2.53999996
   15.60388947   83.83229828    4.90999985    2.55999994
   15.60722256   76.71839905    4.90999985    2.61999989
   15.61027813   81.39769745    4.90999985    2.53999996
   15.61111164   92.35150146    4.90999985    2.44000006
   15.61416721   82.30909729    4.90999985    2.44000006
   15.61722279   78.41609955    4.90999985    2.57999992
   15.62055588   80.57279968    4.71999979    2.71000004
   15.62638855   80.57279968    4.01999998    2.69000006
   15.63055611   83.27220154    4.90999985    2.67000008
   15.63388920   82.86239624    3.59999990    2.67000008
   15.63694477   74.60949707    3.32999992    2.71000004
   15.64027786   76.14510345    3.53999996    2.67000008
   15.64361095   78.41400146    3.57999992    2.67000008
   15.64444447   78.47160339    3.57999992    2.67000008
   15.64722252   76.30850220    3.89000010    2.57999992
   15.65027714   82.08399963    4.55999994    2.67000008
   15.65361118   84.16339874    4.38999987    2.67000008
   15.65666676   79.53410339    4.57999992    2.64000010
   15.65999985   78.00579834    4.51000023    2.66000009
   15.66333294   76.85590363    2.98000002    2.67000008
   15.66916656   76.85590363    2.07999992    2.69000006
   15.67333412   78.26920319    2.07999992    2.66000009
   15.67666721   79.01550293    2.55999994    2.67000008
   15.67777824   82.63629913    2.48000002    2.61999989
   15.68055630   75.64420319    3.45000005    2.69000006
   15.68361092   76.69390106    1.91999996    2.67000008
   15.68694496   82.35980225    1.96000004    2.71000004
   15.69027805   79.13300323    0.64999998    2.71000004
   15.69333363   78.10520172    0.61000001    2.69000006
   15.69666672   77.82029724    0.52999997    2.71000004
   15.69999981   74.83000183    0.52999997    2.71000004
   15.70305538   79.66649628    0.52999997    2.69000006
   15.70638847   81.23229980    0.52999997    2.71000004
   15.71222210   81.23229980    0.52999997    2.71000004
   15.71638870   76.67120361    0.52999997    2.71000004
   15.71944427   78.24870300    0.51999998    2.71000004
   15.72277737   75.72519684    0.52999997    2.71000004
   15.72611046   80.56749725    0.51999998    2.71000004
   15.72916603   73.28040314    0.52999997    2.71000004
   15.73249912   77.34100342    0.55000001    2.71000004
   15.73555565   78.68039703    0.55000001    2.71000004
   15.73888874   77.30049896    0.55000001    2.71000004
   15.74222279   76.40229797    0.55000001    2.71000004
   15.74444485   78.94280243    0.55000001    2.71000004
   15.76500034   78.94280243    0.58999997    2.71000004
   15.76916599   77.32879639    0.63000000    2.71000004
   15.77250004   74.14089966    0.64999998    2.71000004
   15.77555561   78.06179810    0.73000002    2.71000004
   15.77777767   79.13040161    0.73000002    2.71000004
   15.77944374   80.30210114    0.75000000    2.71000004
   15.78249931   76.35040283    0.76999998    2.71000004
   15.78583336   80.17600250    0.76999998    2.71000004
   15.78916740   80.96099854    0.79000002    2.71000004
   15.79222298   73.65529633    0.79000002    2.71000004
   15.79555607   78.34600067    1.00000000    2.71000004
   15.79861164   75.00229645    0.94000000    2.71000004
   15.80194473   78.06749725    0.94000000    2.73000002
   15.80777836   78.06749725    0.98000002    2.71000004
   15.81194496   77.73380280    1.14999998    2.71000004
   15.81527805   77.31459808    1.21000004    2.71000004
   15.81833363   78.34329987    1.26999998    2.71000004
   15.82166672   77.18820190    1.28999996    2.71000004
   15.82472229   78.40599823    1.33000004    2.71000004
   15.82805538   75.60649872    1.46000004    2.71000004
   15.83138847   78.15760040    2.32999992    2.71000004
   15.83444405   74.46910095    2.42000008    2.69000006
   15.83777714   74.22769928    2.76999998    2.69000006
   15.84111118   77.42489624    3.01999998    2.69000006
   15.84416676   79.40920258    2.82999992    2.69000006
   15.84472179   76.50530243    2.82999992    2.69000006
   15.85055637   76.50530243    2.09999990    2.69000006
   15.85472298   81.25589752    1.66999996    2.71000004
   15.85805607   83.72940063    1.50000000    2.71000004
   15.86111164   80.05840302    1.36000001    2.71000004
   15.86444473   81.47319794    1.75000000    2.71000004
   15.86777782   75.80950165    2.09999990    2.71000004
   15.87083340   80.17990112    2.17000008    2.71000004
   15.87416649   80.74140167    2.17000008    2.71000004
   15.87750053   76.81340027    2.17000008    2.71000004
   15.87805557   78.54350281    2.17000008    2.71000004
   15.88111115   75.65270233    2.64000010    2.71000004
   15.88416672   77.16549683    2.98000002    2.69000006
   15.88749981   76.37979889    3.28999996    2.69000006
   15.89361095   76.37979889    3.78999996    2.69000006
   15.89750004   75.19200134    3.80999994    2.71000004
   15.90083313   77.72820282    3.51999998    2.69000006
   15.90416622   77.62729645    3.55999994    2.67000008
   15.90722179   79.39279938    3.70000005    2.67000008
   15.91055489   77.90070343    4.26999998    2.67000008
   15.91138840   78.01059723    4.26999998    2.67000008
   15.91416645   83.89330292    4.44999981    2.67000008
   15.91722298   77.29969788    4.53000021    2.67000008
   15.92055607   77.73660278    4.67999983    2.64000010
   15.92388916   81.80190277    4.63999987    2.67000008
   15.92694473   74.81279755    3.91000009    2.69000006
   15.93027782   79.43499756    3.95000005    2.69000006
   15.93638897   79.43499756    3.05999994    2.69000006
   15.94055557   78.36419678    3.59999990    2.69000006
   15.94361115   78.14140320    4.03999996    2.66000009
   15.94472218   80.63140106    4.15999985    2.67000008
   15.94750023   81.21579742    4.48999977    2.64000010
   15.95055580   83.64679718    4.80000019    2.64000010
   15.95388889   85.74269867    4.90999985    2.64000010
   15.95722198   84.31009674    4.90999985    2.61999989
   15.96027756   83.80249786    4.90999985    2.61999989
   15.96361065   80.78669739    4.90999985    2.64000010
   15.96694374   83.68540192    4.90999985    2.64000010
   15.96999931   83.00569916    4.90999985    2.64000010
   15.97333336   85.65000153    4.90999985    2.64000010
   15.97916603   85.65000153    4.90999985    2.66000009
   15.98333359   77.98940277    4.90999985    2.64000010
   15.98666668   81.89070129    4.90999985    2.66000009
   15.98972225   84.69930267    4.90999985    2.66000009
   15.99305534   82.65840149    4.76000023    2.66000009
   15.99611092   80.49050140    4.86999989    2.66000009
   15.99944496   78.41310120    4.76000023    2.66000009
   16.00277710   78.48370361    4.48999977    2.67000008
   16.00583267   76.28790283    3.82999992    2.67000008
   16.00916672   81.94010162    4.26999998    2.67000008
   16.01138878   77.71910095    4.80000019    2.64000010
   16.01277733   79.25360107    4.90999985    2.66000009
   16.01583290   83.52760315    4.67999983    2.66000009
   16.02194405   83.52760315    4.90999985    2.64000010
   16.02611160   91.54299927    4.90999985    2.64000010
   16.02944374   81.32340240    4.90999985    2.61999989
   16.03249931   83.29669952    4.90999985    2.64000010
   16.03583336   81.73439789    4.90999985    2.64000010
   16.03916550   78.49060059    4.90999985    2.64000010
   16.04222107   80.39739990    4.90999985    2.64000010
   16.04472160   79.40029907    4.90999985    2.64000010
   16.04583359   80.98999786    4.90999985    2.61999989
   16.04888916   82.17669678    4.90999985    2.64000010
   16.05222130   79.89479828    4.90999985    2.61999989
   16.05555534   81.51460266    4.90999985    2.64000010
   16.05861092   83.08979797    4.90999985    2.61999989
   16.06499863   83.08979797    4.42999983    2.66000009
   16.06888962   78.80470276    3.55999994    2.69000006
   16.07222366   78.40450287    4.01999998    2.69000006
   16.07555580   81.13899994    4.55999994    2.64000010
   16.07805634   76.22660065    4.90999985    2.67000008
   16.07916832   81.57879639    4.90999985    2.67000008
   16.08222389   80.50769806    4.86999989    2.66000009
   16.08555603   80.27619934    4.84999990    2.66000009
   16.08889008   86.09249878    4.90999985    2.66000009
   16.09194565   78.22720337    4.53999996    2.64000010
   16.09527779   79.55269623    4.55999994    2.67000008
   16.09861183   82.12619781    4.46999979    2.66000009
   16.10166740   77.68329620    4.90999985    2.66000009
   16.10777855   77.68329620    4.90999985    2.61999989
   16.11194420   77.67929840    4.90999985    2.61999989
   16.11499977   78.21410370    4.90999985    2.64000010
   16.11833382   77.78659821    4.90999985    2.59999990
   16.12138939   80.43849945    4.90999985    2.59999990
   16.12472153   83.21549988    4.90999985    2.55999994
   16.12805557   86.14029694    4.90999985    2.50000000
   16.13111115   84.55560303    4.90999985    2.46000004
   16.13444519   82.83959961    4.90999985    2.48000002
   16.13777733   82.08350372    4.90999985    2.46000004
   16.14083290   88.08350372    4.90999985    2.50000000
   16.14416695   84.73090363    4.90999985    2.46000004
   16.14472198   86.77320099    4.90999985    2.46000004
   16.15055466   86.77320099    4.90999985    2.50000000
   16.15472221   90.94719696    4.90999985    2.42000008
   16.15777779   81.19589996    4.90999985    2.51999998
   16.16110992   80.75379944    4.90999985    2.53999996
   16.16444397   84.09190369    4.90999985    2.53999996
   16.16749954   85.18569946    4.90999985    2.53999996
   16.17083359   86.13800049    4.90999985    2.53999996
   16.17416573   85.84480286    4.90999985    2.57999992
   16.17722130   78.86930084    4.90999985    2.59999990
   16.17805481   79.68979645    4.90999985    2.61999989
   16.18083191   82.62229919    4.90999985    2.59999990
   16.18416595   78.34259796    4.90999985    2.64000010
   16.18722153   78.20480347    4.90999985    2.64000010
   16.19333267   78.20480347    4.90999985    2.59999990
   16.19749832   76.94139862    4.80999994    2.69000006
   16.20083427   77.50710297    3.86999989    2.69000006
   16.20388985   83.26380157    2.64000010    2.69000006
   16.20722389   76.15119934    2.23000002    2.71000004
   16.21055603   75.47370148    2.17000008    2.73000002
   16.21138954   81.78320313    2.21000004    2.71000004
   16.21416664   81.11370087    2.46000004    2.73000002
   16.21750069   78.62850189    2.57999992    2.69000006
   16.22055626   84.30670166    3.66000009    2.69000006
   16.22389030   80.22509766    4.90999985    2.66000009
   16.22694588   81.85849762    4.90999985    2.66000009
   16.23027802   83.42079926    4.90999985    2.66000009
   16.23638916   83.42079926    4.90999985    2.61999989
   16.24027824   80.01339722    4.90999985    2.64000010
   16.24361229   79.12249756    4.90999985    2.61999989
   16.24472237   77.53549957    4.90999985    2.61999989
   16.24722290   79.83059692    4.90999985    2.61999989
   16.25055504   80.37480164    4.90999985    2.64000010
   16.25361061   81.13320160    4.90999985    2.61999989
   16.25694466   78.99060059    4.90999985    2.61999989
   16.26000023   78.34980011    4.90999985    2.66000009
   16.26333427   79.21379852    4.90999985    2.64000010
   16.26666641   82.00789642    4.90999985    2.64000010
   16.26972198   72.83039856    4.90999985    2.66000009
   16.27305603   74.39559937    4.90999985    2.67000008
   16.27916718   74.39559937    4.90999985    2.64000010
   16.28333282   83.08429718    4.90999985    2.61999989
   16.28638840   84.24199677    4.90999985    2.53999996
   16.28972244   80.71209717    4.90999985    2.57999992
   16.29305458   83.87180328    4.90999985    2.61999989
   16.29611015   80.80729675    4.90999985    2.59999990
   16.29944420   87.29129791    4.90999985    2.55999994
   16.30249977   82.25779724    4.90999985    2.61999989
   16.30583191   82.48059845    4.90999985    2.57999992
   16.30916595   78.05290222    4.90999985    2.57999992
   16.31138802   81.59790039    4.90999985    2.64000010
   16.31277657   82.16739655    4.90999985    2.64000010
   16.31611061   83.78769684    4.90999985    2.57999992
   16.32194519   83.78769684    4.90999985    2.57999992
   16.32611275   90.34470367    4.90999985    2.51999998
   16.32944489   85.33119965    4.90999985    2.51999998
   16.33250046   83.40570068    4.90999985    2.55999994
   16.33583450   79.67079926    4.90999985    2.55999994
   16.33889008   86.15730286    4.90999985    2.51999998
   16.34222221   84.34449768    4.90999985    2.46000004
   16.34472275   87.50890350    4.90999985    2.48000002
   16.34583473   83.01129913    4.90999985    2.46000004
   16.34916687   88.29019928    4.90999985    2.48000002
   16.35222244   87.07180023    4.90999985    2.44000006
   16.35555649  100.03700256    4.90999985    2.40000010
   16.35861206   94.51219940    4.90999985    2.28999996
   16.36472321   94.51219940    4.90999985    2.34999990
   16.36888885   87.55490112    4.90999985    2.40000010
   16.37222290   91.04589844    4.90999985    2.40000010
   16.37527847   87.02929688    4.90999985    2.39000010
   16.37805557   92.07199860    4.90999985    2.39000010
   16.37916756   89.53119659    4.90999985    2.34999990
   16.38249969   86.33309937    4.90999985    2.39000010
   16.38555527   85.93370056    4.90999985    2.48000002
   16.38888931   84.94339752    4.90999985    2.51999998
   16.39194489   84.37329865    4.90999985    2.48000002
   16.39527702   80.57189941    4.90999985    2.57999992
   16.39861107   82.06659698    4.90999985    2.53999996
   16.40166664   86.33329773    4.90999985    2.59999990
   16.40777779   86.33329773    4.90999985    2.59999990
   16.41166687   80.69190216    4.90999985    2.59999990
   16.41499901   83.27269745    4.90999985    2.50000000
   16.41833305   77.57839966    4.90999985    2.57999992
   16.42138863   78.45539856    4.90999985    2.64000010
   16.42472076   80.79229736    4.90999985    2.69000006
   16.42805481   80.68080139    4.90999985    2.67000008
   16.43111038   77.14810181    4.90999985    2.61999989
   16.43444443   81.81099701    4.90999985    2.61999989
   16.43750000   87.67099762    4.84999990    2.66000009
   16.44083214   76.61710358    4.73999977    2.64000010
   16.44416618   82.28079987    4.19999981    2.66000009
   16.44472122   80.32420349    4.19999981    2.66000009
   16.45055580   80.32420349    3.97000003    2.61999989
   16.45472336   84.51909637    4.90999985    2.64000010
   16.45777893   85.74269867    4.90999985    2.64000010
   16.46111107   86.81829834    4.90999985    2.59999990
   16.46444511   83.28469849    4.90999985    2.64000010
   16.46750069   82.33380127    4.46999979    2.66000009
   16.47083473   85.52269745    4.03999996    2.67000008
   16.47416687   80.58609772    4.03999996    2.67000008
   16.47722244   82.23220062    4.51000023    2.69000006
   16.47805595   83.18640137    4.57999992    2.66000009
   16.48083305   81.34639740    4.90999985    2.64000010
   16.48416710   80.06600189    4.90999985    2.57999992
   16.48722267   82.33200073    4.90999985    2.57999992
   16.49333382   82.33200073    4.90999985    2.59999990
   16.49749947   73.63110352    4.90999985    2.53999996
   16.50083351   81.76039886    4.90999985    2.53999996
   16.50388908   81.69670105    4.90999985    2.53999996
   16.50722313   77.98079681    4.90999985    2.53999996
   16.51027870   75.95410156    4.90999985    2.59999990
   16.51138878   78.32640076    4.90999985    2.57999992
   16.51388931   81.65200043    4.90999985    2.57999992
   16.51722145   82.85810089    4.90999985    2.59999990
   16.52027702   81.44329834    4.90999985    2.53999996
   16.52361107   83.87270355    4.90999985    2.59999990
   16.52694511   85.13960266    4.90999985    2.66000009
   16.53000069   83.12940216    4.90999985    2.67000008
   16.53610992   83.12940216    4.90999985    2.67000008
   16.54027748   82.68789673    4.90999985    2.61999989
   16.54361153   83.33429718    4.90999985    2.64000010
   16.54472160   81.33979797    4.90999985    2.64000010
   16.54722214   82.54060364    4.90999985    2.61999989
   16.55055428   79.61710358    4.90999985    2.57999992
   16.55360985   81.46119690    4.90999985    2.66000009
   16.55694389   81.46219635    4.90999985    2.66000009
   16.56027794   77.99269867    4.90999985    2.66000009
   16.56333351   83.05889893    4.90999985    2.67000008
   16.56666756   82.59529877    4.90999985    2.66000009
   16.56972313   82.32749939    4.90999985    2.67000008
   16.57305717   80.08799744    4.90999985    2.61999989
   16.57916832   80.08799744    4.90999985    2.67000008
   16.58305550   84.01940155    4.90999985    2.67000008
   16.58638954   79.26450348    4.90999985    2.67000008
   16.58972359   82.93000031    4.90999985    2.67000008
   16.59277916   80.88899994    4.90999985    2.67000008
   16.59611130   81.41870117    4.90999985    2.67000008
   16.59944534   84.08090210    4.90999985    2.67000008
   16.60250092   79.70880127    4.42999983    2.69000006
   16.60583305   83.70379639    4.36999989    2.69000006
   16.60888863   81.42680359    4.90999985    2.66000009
   16.61138916   77.34889984    4.76000023    2.66000009
   16.61250114   75.92089844    4.76000023    2.66000009
   16.61583328   82.33699799    4.90999985    2.64000010
   16.62194443   82.33699799    4.90999985    2.61999989
   16.62611198   84.52059937    4.90999985    2.61999989
   16.62916756   90.24469757    4.90999985    2.57999992
   16.63249969   81.25720215    4.90999985    2.53999996
   16.63583374   79.31359863    4.90999985    2.53999996
   16.63888931   81.93460083    4.90999985    2.51999998
   16.64222145   83.63929749    4.90999985    2.55999994
   16.64500046   88.30259705    4.90999985    2.59999990
   16.64583397   92.32749939    4.90999985    2.61999989
   16.64916611   91.42060089    4.90999985    2.46000004
   16.65222168   89.34190369    4.90999985    2.39000010
   16.65555573   88.26380157    4.90999985    2.32999992
   16.65888786   95.55680084    4.90999985    2.34999990
   16.66472244   95.55680084    4.90999985    2.39000010
   16.66888809   83.98840332    4.90999985    2.39000010
   16.67222214   90.59480286    4.90999985    2.40000010
   16.67527771   85.68129730    4.90999985    2.44000006
   16.67833328   88.57009888    4.90999985    2.40000010
   16.67888832   91.50360107    4.90999985    2.40000010
   16.68222237   87.43350220    4.90999985    2.39000010
   16.68527603   91.69640350    4.90999985    2.46000004
   16.68861008   95.25630188    4.90999985    2.25000000
   16.69194412   94.08699799    4.90999985    2.25000000
   16.69499969   93.76210022    4.90999985    2.23000002
   16.69833183   92.82559967    4.90999985    2.34999990
   16.70138931   90.39320374    4.90999985    2.28999996
   16.70750046   90.39320374    4.90999985    2.40000010
   16.71166801   98.13089752    4.90999985    2.25000000
   16.71500015  105.18499756    4.90999985    2.21000004
   16.71805573   99.57389832    4.90999985    2.28999996
   16.72138977  121.08100128    4.90999985    2.30999994
   16.72472191   98.47190094    4.90999985    2.17000008
   16.72777748  104.44799805    4.90999985    2.23000002
   16.73111153  103.27600098    4.90999985    2.25000000
   16.73444557  119.87300110    4.90999985    2.23000002
   16.73750114  111.65100098    4.90999985    2.28999996
   16.74083328  108.88600159    4.90999985    2.23000002
   16.74388885  104.36100006    4.90999985    2.13000011
   16.74500084  103.48699951    4.90999985    2.11999989
   16.75055504  103.48699951    4.90999985    2.53999996
   16.75444412   85.42890167    4.90999985    2.51999998
   16.75777817   89.06829834    4.90999985    2.48000002
   16.76111031   90.16809845    4.90999985    2.48000002
   16.77861023   89.73049927    4.90999985    2.42000008
   16.78111076   87.58080292    4.90999985    2.40000010
   16.78416634   89.81870270    4.90999985    2.46000004
   16.78750038   85.21640015    4.90999985    2.39000010
   16.79333305   85.21640015    4.90999985    2.34999990
   16.79749870   94.27860260    4.90999985    2.40000010
   16.80083275   88.45829773    4.90999985    2.44000006
   16.80416679   86.94969940    4.90999985    2.44000006
   16.80722237   89.53869629    4.90999985    2.40000010
   16.81055450   84.60289764    4.90999985    2.32999992
   16.81194305   84.79309845    4.90999985    2.39000010
   16.81416512   83.95059967    4.90999985    2.50000000
   16.81750107   89.19920349    4.90999985    2.51999998
   16.82083511   83.59860229    4.90999985    2.55999994
   16.82389069   91.34529877    4.90999985    2.57999992
   16.82722282   89.74340057    4.90999985    2.46000004
   16.83055687   84.36489868    4.90999985    2.40000010
   16.83638954   84.36489868    4.90999985    2.48000002
   16.84055710   83.45610046    4.90999985    2.44000006
   16.84361267   87.84490204    4.90999985    2.46000004
   16.84527779   96.96379852    4.90999985    2.42000008
   16.84722328   91.84909821    4.90999985    2.28999996
   16.85055542   85.34980011    4.90999985    2.36999989
   16.85361099   84.23010254    4.90999985    2.44000006
   16.85694504   80.16680145    4.90999985    2.53999996
   16.86027908   83.99500275    4.90999985    2.51999998
   16.86333466   83.01170349    4.90999985    2.55999994
   16.86666679   79.88240051    4.90999985    2.66000009
   16.87000084   86.04280090    4.90999985    2.57999992
   16.87305641   80.43959808    4.90999985    2.59999990
   16.87916756   80.43959808    4.90999985    2.66000009
   16.88333321   79.52709961    4.90999985    2.57999992
   16.88638878   81.60340118    4.90999985    2.64000010
   16.88972282   78.93309784    4.90999985    2.64000010
   16.89305496   81.40769958    4.90999985    2.66000009
   16.89611053   78.41580200    4.90999985    2.67000008
   16.89944458   77.13430023    4.90999985    2.67000008
   16.90277672   83.76789856    4.90999985    2.57999992
   16.90583229   82.78900146    4.90999985    2.53999996
   16.90916634   85.44470215    4.90999985    2.57999992
   16.91194344   86.32879639    4.90999985    2.51999998
   16.91277695   78.07330322    4.90999985    2.51999998
   16.91611099   81.77770233    4.90999985    2.50000000
   16.92194366   81.77770233    4.90999985    2.53999996
   16.92611122   94.22769928    4.90999985    2.61999989
   16.92944336   84.87850189    4.90999985    2.57999992
   16.93249893   81.47669983    4.90999985    2.55999994
   16.93583298   82.35160065    4.90999985    2.53999996
   16.93916512   83.07289886    4.90999985    2.53999996
   16.94222069   90.02120209    4.90999985    2.53999996
   16.94527626   85.99140167    4.90999985    2.59999990
   16.94583321   82.89080048    4.90999985    2.53999996
   16.94916534   79.76450348    4.90999985    2.51999998
   16.95250130   81.99050140    4.90999985    2.55999994
   16.95555687   91.82150269    4.90999985    2.57999992
   16.95888901   91.30840302    4.90999985    2.57999992
   16.96472359   91.30840302    4.90999985    2.46000004
   16.96888924   80.70639801    4.90999985    2.40000010
   16.97222328   94.66560364    4.90999985    2.53999996
   16.97555542   82.47679901    4.90999985    2.57999992
   16.97861099   80.45269775    4.90999985    2.50000000
   16.97888947   88.43939972    4.90999985    2.51999998
   16.98222351   82.09950256    4.90999985    2.42000008
   16.98555565   86.52390289    4.90999985    2.40000010
   16.98861122   85.51619720    4.90999985    2.40000010
   16.99194527   83.28970337    4.90999985    2.55999994
   16.99527740   83.81839752    4.90999985    2.50000000
   16.99833298   84.46779633    4.90999985    2.42000008
   17.00166702   81.39050293    4.90999985    2.44000006
   17.00777817   81.39050293    4.90999985    2.57999992
   17.01194382   89.42590332    4.90999985    2.40000010
   17.01222229   94.51380157    4.90999985    2.36999989
   17.01555634   87.52300262    4.90999985    2.36999989
   17.01888847   89.04290009    4.90999985    2.44000006
   17.02194405   90.55490112    4.90999985    2.40000010
   17.02527809   90.53289795    4.90999985    2.34999990
   17.02833366   81.91639709    4.90999985    2.50000000
   17.03166580   92.92569733    4.90999985    2.59999990
   17.03499985   84.21820068    4.90999985    2.46000004
   17.03805542   84.07800293    4.90999985    2.44000006
   17.04138756   88.48470306    4.90999985    2.42000008
   17.04472160   87.15419769    4.90999985    2.42000008
   17.04527664   89.89089966    4.90999985    2.42000008
   17.05055428   89.89089966    4.90999985    2.39000010
   17.05472183   89.30439758    4.90999985    2.46000004
   17.05777740   89.32450104    4.90999985    2.42000008
   17.06110954   90.29840088    4.90999985    2.39000010
   17.06444359   92.85839844    4.90999985    2.30999994
   17.06750107  102.87400055    4.90999985    2.25000000
   17.07083511   87.88330078    4.90999985    2.34999990
   17.07416725   88.79989624    4.90999985    2.40000010
   17.07722282   83.03800201    4.90999985    2.40000010
   17.07861137   89.10500336    4.90999985    2.44000006
   17.08083344   89.76249695    4.90999985    2.46000004
   17.08416748   87.29070282    4.90999985    2.48000002
   17.08750153  110.01200104    4.90999985    2.26999998
   17.09333420  110.01200104    4.90999985    2.46000004
   17.09749985   86.07980347    4.90999985    2.46000004
   17.10083389   87.84999847    4.90999985    2.50000000
   17.10388947   94.99859619    4.90999985    2.28999996
   17.10722351   93.72219849    4.90999985    2.32999992
   17.11055565   95.69529724    4.90999985    2.25000000
   17.11194420  108.52200317    4.90999985    2.21000004
   17.11388969  124.09100342    4.90999985    2.25000000
   17.11722183   97.32369995    4.90999985    2.28999996
   17.12055588  107.45300293    4.90999985    2.25000000
   17.12361145  108.67199707    4.90999985    2.32999992
   17.12694550   89.93299866    4.90999985    2.40000010
   17.13027763   93.75949860    4.90999985    2.40000010
   17.13611031   93.75949860    4.90999985    2.25000000
   17.14027786  102.99700165    4.90999985    2.21000004
   17.14361191  121.88400269    4.90999985    2.26999998
   17.14527702  119.85199738    4.90999985    2.17000008
   17.14749908  118.74199677    4.90999985    2.23000002
   17.15055466  115.48100281    4.90999985    2.25000000
   17.15388870  141.10099792    4.90999985    2.23000002
   17.15694427  124.89900208    4.90999985    2.13000011
   17.16027832  102.10199738    4.90999985    2.13000011
   17.16361046   92.73269653    4.90999985    2.36999989
   17.16666603   -1.00000000    4.90999985    2.25000000
   17.17000008  110.95899963    4.90999985    2.26999998
   17.17333221  129.76899719    4.90999985    2.19000006
   17.17916679  129.76899719    4.90999985    2.07999992
   17.18333244  100.02999878    4.90999985    2.32999992
   17.18638802   93.10199738    4.90999985    2.25000000
   17.18972206  101.58599854    4.90999985    2.28999996
   17.19277763   92.99299622    4.90999985    2.30999994
   17.19610977   88.54769897    4.90999985    2.36999989
   17.19944382   92.93849945    4.90999985    2.28999996
   17.20250130   86.88169861    4.90999985    2.36999989
   17.20583344   92.36470032    4.90999985    2.34999990
   17.20916748   97.51159668    4.90999985    2.34999990
   17.21194458   96.24739838    4.90999985    2.36999989
   17.21250153   87.77780151    4.90999985    2.36999989
   17.21583366   -1.00000000    4.90999985    2.32999992
   17.22194481   -1.00000000    4.90999985    2.26999998
   17.22611237  104.67900085    4.90999985    2.32999992
   17.22916794  106.35099792    4.90999985    2.25000000
   17.23250008  125.55400085    4.90999985    2.07999992
   17.23583412  158.49099731    4.90999985    2.01999998
   17.23888969  146.59599304    4.90999985    1.96000004
   17.24222183  135.58500671    4.90999985    2.05999994
   17.24527740  165.16200256    4.90999985    2.01999998
   17.24583435  189.65800476    4.90999985    2.00000000
   17.24916649  201.20799255    4.90999985    1.91999996
   17.25250053  115.82700348    4.90999985    1.94000006
   17.25555611  129.81100464    4.90999985    2.15000010
   17.25888824  123.54699707    4.90999985    2.13000011
   17.26916695   -1.00000000    4.90999985    2.21000004
   17.27222252  106.43900299    4.90999985    2.19000006
   17.27555466  105.30300140    4.90999985    2.17000008
   17.27861023  110.93800354    4.90999985    2.23000002
   17.27916718  104.19200134    4.90999985    2.25000000
   17.28249931  111.13999939    4.90999985    2.19000006
   17.28583336  119.62799835    4.90999985    2.15000010
   17.28888893  102.34999847    4.90999985    2.19000006
   17.29222107  107.10600281    4.90999985    2.21000004
   17.29555511   96.47070313    4.90999985    2.21000004
   17.29861069  100.16600037    4.90999985    2.23000002
   17.30194283  108.11499786    4.90999985    2.26999998
   17.30749893  108.11499786    4.90999985    2.30999994
   17.31166649  102.32299805    4.90999985    2.15000010
   17.31222153  102.71900177    4.90999985    2.15000010
   17.31555557   -1.00000000    4.90999985    2.15000010
   17.31888962   -1.00000000    4.90999985    2.15000010
   17.32194519  114.64399719    4.90999985    2.21000004
   17.32527924  161.08500671    4.90999985    2.11999989
   17.32861137  205.00199890    4.90999985    2.00000000
   17.33166695  126.26100159    4.90999985    2.01999998
   17.33500099  111.19200134    4.90999985    2.19000006
   17.33805656   95.48819733    4.90999985    2.17000008
   17.34138870  116.20800018    4.90999985    2.21000004
   17.34472275  123.98300171    4.90999985    2.15000010
   17.34555626  109.80599976    4.90999985    2.15000010
   17.35055542  109.80599976    4.90999985    1.96000004
   17.35444450  115.99700165    4.90999985    2.11999989
   17.35777855  120.54199982    4.90999985    2.17000008
   17.36111069  131.84500122    4.90999985    2.11999989
   17.36416626   -1.00000000    4.90999985    2.01999998
   17.36750031   -1.00000000    4.90999985    2.21000004
   17.37083435  107.61900330    4.90999985    2.17000008
   17.37388992   92.96499634    4.90999985    2.23000002
   17.37722206  105.52700043    4.90999985    2.30999994
   17.37888908   98.74230194    4.90999985    2.32999992
   17.38083267  102.30500031    4.90999985    2.32999992
   17.38388824   93.42250061    4.90999985    2.23000002
   17.38722229   95.94300079    4.90999985    2.40000010
   17.39333344   95.94300079    4.90999985    2.34999990
   17.39749908   89.60549927    4.90999985    2.39000010
   17.40055466  100.04000092    4.90999985    2.40000010
   17.40388870   90.53859711    4.90999985    2.30999994
   17.40722275   95.64769745    4.90999985    2.26999998
   17.41027832  103.72000122    4.90999985    2.19000006
   17.41222191   89.00509644    4.90999985    2.19000006
   17.41388893   -1.00000000    4.90999985    2.28999996
   17.41694450   -1.00000000    4.90999985    2.42000008
   17.42027664   91.18879700    4.90999985    2.36999989
   17.42361069   90.66089630    4.90999985    2.39000010
   17.42666626   84.72319794    4.90999985    2.36999989
   17.43000031   87.70890045    4.90999985    2.36999989
   17.43610954   87.70890045    4.90999985    2.48000002
   17.44027710   84.91649628    4.90999985    2.51999998
   17.44361115   91.41230011    4.90999985    2.44000006
   17.44555473   93.54840088    4.90999985    2.40000010
   17.44722176   90.41660309    4.90999985    2.34999990
   17.45055580   96.74109650    4.90999985    2.36999989
   17.45361137   92.59790039    4.90999985    2.30999994
   17.45694542   89.78610229    4.90999985    2.30999994
   17.46000099   97.38639832    4.90999985    2.17000008
   17.46333504   97.74349976    4.90999985    2.25000000
   17.46666718   -1.00000000    4.90999985    2.25000000
   17.46972275   -1.00000000    4.90999985    2.23000002
   17.47305679   -1.00000000   -1.00000000   -1.00000000
   17.47888947   -1.00000000   -1.00000000   -1.00000000
   17.48305511   82.57859802    4.90999985    2.32999992
   17.48666763  110.07900238    4.90999985    2.23000002
   17.48999977  101.31400299    4.90999985    2.19000006
   17.49305534  133.41400146    4.90999985    2.26999998
   17.49638939  104.27100372    4.90999985    2.15000010
   17.49944496   -1.00000000   -1.00000000   -1.00000000
   17.50277710  136.90800476    4.90999985    2.05999994
   17.50611115  165.64399719    4.90999985    1.96000004
   17.50916672   77.94450378    4.90999985    2.01999998
   17.51222229  169.24099731    4.90999985    2.21000004
   17.51277733  180.08799744    4.90999985    2.23000002
   17.51611137   -1.00000000    4.90999985    2.26999998
   17.52583313   -1.00000000    4.90999985    2.30999994
   17.52916718   -1.00000000    4.90999985    2.40000010
   17.53222275   -1.00000000    4.90999985    2.48000002
   17.53555489   -1.00000000    4.90999985    2.40000010
   17.53888893   -1.00000000    4.90999985    2.46000004
   17.54194450   -1.00000000    4.90999985    2.30999994
   17.54527664   -1.00000000    4.90999985    2.40000010
   17.54861069   -1.00000000    4.90999985    2.40000010
   17.55194283   -1.00000000    4.90999985    2.42000008
   17.55499840   -1.00000000    4.90999985    2.48000002
   17.55833244   -1.00000000    4.90999985    2.40000010
   17.56861115   -1.00000000    4.90999985    2.44000006
   17.57194519   -1.00000000    4.90999985    2.46000004
   17.57527924   -1.00000000    4.90999985    2.46000004
   17.57833481   -1.00000000    4.90999985    2.50000000
   17.58194542   -1.00000000    4.90999985    2.46000004
   17.58527756   -1.00000000    4.90999985    2.55999994
   17.58833313   -1.00000000    4.90999985    2.59999990
   17.59166718   -1.00000000    4.90999985    2.55999994
   17.59472275   -1.00000000    4.90999985    2.53999996
