    HOUR (UT)   FLARE FACTOR    SKY TESTER    SUN TESTER
   12.11277771   -1.00000000   -1.00000000   -1.00000000
   12.21361065  196.76499939    0.00000000    0.00000000
   12.21694374  109.32900238    0.00000000    0.00000000
   12.21999931  126.47200012    0.00000000    0.00000000
   12.22333336  123.31300354    0.00000000    0.00000000
   12.22666645  102.63300323    0.00000000    0.00000000
   12.22972202  126.62300110    0.00000000    0.00000000
   12.23388958  126.62300110    0.00000000    0.00000000
   12.23805618  412.15899658    0.00000000    0.00000000
   12.24000072  230.63999939    0.00000000    0.00000000
   12.24027824  109.32900238    0.00000000    0.00000000
   12.24027824  126.47200012    0.00000000    0.00000000
   12.24027824  123.31300354    0.00000000    0.00000000
   12.24055576  102.63300323    0.00000000    0.00000000
   12.24055576  126.62300110    0.00000000    0.00000000
   12.24055576  412.15899658    0.00000000    0.00000000
   12.24250031  395.68701172    0.00000000    0.00000000
   12.24472237  405.05599976    0.00000000    0.00000000
   12.24583340  391.77801514    0.00000000    0.00000000
   12.24722290  380.50201416    0.00000000    0.00000000
   12.24861145  332.17199707    0.00000000    0.00000000
   12.25000000  285.27301025    0.00000000    0.00000000
   12.25138855  275.99600220    0.00000000    0.00000000
   12.25277805  265.14001465    0.00000000    0.00000000
   12.25416660  240.08799744    0.00000000    0.00000000
   12.25444412  395.68701172    0.00000000    0.00000000
   12.25500011  252.10099792    0.00000000    0.00000000
   12.25805569  253.26800537    0.00000000    0.00000000
   12.26138878  221.34899902    0.00000000    0.00000000
   12.26472187  289.71701050    0.00000000    0.00000000
   12.26777744  347.89999390    0.00000000    0.00000000
   12.26972198  373.57400513    0.00000000    0.00000000
   12.27111053  505.88400269    0.00000000    0.00000000
   12.27250004  310.05700684    0.00000000    0.00000000
   12.27388859  163.66299438    0.00000000    0.00000000
   12.27388859  252.10099792    0.00000000    0.00000000
   12.27416611  253.26800537    0.00000000    0.00000000
   12.27416611  221.34899902    0.00000000    0.00000000
   12.27416611  289.71701050    0.00000000    0.00000000
   12.27444458  347.89999390    0.00000000    0.00000000
   12.27499962  167.85299683    0.00000000    0.00000000
   12.27805519  369.96798706    0.00000000    0.00000000
   12.28027725  369.43399048    0.00000000    0.00000000
   12.28138828  383.42700195    0.00000000    0.00000000
   12.28277779  429.99899292    0.00000000    0.00000000
   12.28416729  456.03601074    0.00000000    0.00000000
   12.28555584  254.73500061    0.00000000    0.00000000
   12.28694534  155.16600037    0.00000000    0.00000000
   12.28722286  167.85299683    0.00000000    0.00000000
   12.28722286  369.96798706    0.00000000    0.00000000
   12.28777790  101.12899780    0.00000000    0.00000000
   12.29111195   46.27230072    0.00000000    0.00000000
   12.29416752   -1.00000000    0.00000000    0.00000000
   12.29750061   -1.00000000    0.00000000    0.00000000
   12.30083370   -1.00000000    0.00000000    0.00000000
   12.30388927   -1.00000000    0.00000000    0.00000000
   12.31222248   -1.00000000    0.00000000    0.00000000
   12.31527805   -1.00000000    0.00000000    0.00000000
   12.31861115   86.66860199    0.00000000    0.00000000
   12.32083321  188.86000061    0.00000000    0.00000000
   12.32222176  393.70700073    0.00000000    0.00000000
   12.32416630  382.98400879    0.00000000    0.00000000
   12.32555580  293.56201172    0.00000000    0.00000000
   12.32694435  407.58999634    0.00000000    0.00000000
   12.32833290  394.15600586    0.00000000    0.00000000
   12.32972240  429.57101440    0.00000000    0.00000000
   12.33111095  205.85400391    0.00000000    0.00000000
   12.33111095  393.70700073    0.00000000    0.00000000
   12.33138847   46.27230072    0.00000000    0.00000000
   12.33138847   -1.00000000    0.00000000    0.00000000
   12.33138847   -1.00000000    0.00000000    0.00000000
   12.33166695   -1.00000000    0.00000000    0.00000000
   12.33166695   -1.00000000    0.00000000    0.00000000
   12.33166695   -1.00000000    0.00000000    0.00000000
   12.33194447   -1.00000000    0.00000000    0.00000000
   12.33194447   86.66860199    0.00000000    0.00000000
   12.33249950  171.92999268    0.00000000    0.00000000
   12.33583260  100.71700287    0.00000000    0.00000000
   12.33888817   44.34830093    0.00000000    0.00000000
   12.34222221   -1.00000000    0.00000000    0.00000000
   12.34527779   -1.00000000    0.00000000    0.00000000
   12.35194492   -1.00000000    0.00000000    0.00000000
   12.35611153  257.80099487    0.00000000    0.00000000
   12.35916710  222.74099731    0.00000000    0.00000000
   12.36250019  195.44799805    0.00000000    0.00000000
   12.36500072  189.26300049    0.00000000    0.00000000
   12.36583328  171.60099792    0.00000000    0.00000000
   12.36916637  168.29400635    0.00000000    0.00000000
   12.37250042  205.24899292    0.00000000    0.00000000
   12.37555599  166.77900696    0.00000000    0.00000000
   12.37888908  174.24600220    0.00000000    0.00000000
   12.38194466  181.23199463    0.00000000    0.00000000
   12.38527775  159.90499878    0.00000000    0.00000000
   12.38861084  174.19500732    0.00000000    0.00000000
   12.39472198  174.19500732    0.00000000    0.00000000
   12.39888859  166.72900391    0.00000000    0.00000000
   12.40194416  155.37399292    0.00000000    0.00000000
   12.40527725  194.85800171    0.00000000    0.00000000
   12.40861034  286.15600586    0.00000000    0.00000000
   12.41166592  223.69299316    0.00000000    0.00000000
   12.41499996  339.19699097    0.00000000    0.00000000
   12.41694450  377.82501221    0.00000000    0.00000000
   12.41833401  146.30499268    0.00000000    0.00000000
   12.41833401  194.85800171    0.00000000    0.00000000
   12.41861153  286.15600586    0.00000000    0.00000000
   12.41861153  223.69299316    0.00000000    0.00000000
   12.41861153  339.19699097    0.00000000    0.00000000
   12.41888905  181.23199463    0.00000000    0.00000000
   12.41888905  159.90499878    0.00000000    0.00000000
   12.41888905  174.19500732    0.00000000    0.00000000
   12.41916656  166.72900391    0.00000000    0.00000000
   12.41916656  155.37399292    0.00000000    0.00000000
   12.42027855  330.48199463    0.00000000    0.00000000
   12.42222214  131.68400574    0.00000000    0.00000000
   12.42416668   90.98400116    0.00000000    0.00000000
   12.42750072  356.60501099    0.00000000    0.00000000
   12.42944431  232.05900574    0.00000000    0.00000000
   12.42944431   90.98400116    0.00000000    0.00000000
   12.42972279  356.60501099    0.00000000    0.00000000
   12.43166733  199.97799683    0.00000000    0.00000000
   12.43472195  178.41900635    0.00000000    0.00000000
   12.43805599  184.39199829    0.00000000    0.00000000
   12.44138908  253.01800537    0.00000000    0.00000000
   12.44444466  174.50000000    0.00000000    0.00000000
   12.45027733  174.50000000    0.00000000    0.00000000
   12.45444393  159.14399719    0.00000000    0.00000000
   12.45749950   -1.00000000    0.00000000    0.00000000
   12.46083355   -1.00000000    0.00000000    0.00000000
   12.46333313   94.85900116    0.00000000    0.00000000
   12.46444416  196.89599609    0.00000000    0.00000000
   12.46749973  158.73399353    0.00000000    0.00000000
   12.47083282   -1.00000000   -1.00000000   -1.00000000
   12.47388840  364.37799072    0.00000000    0.00000000
   12.47611046  340.10198975    0.00000000    0.00000000
   12.47722149  268.46499634    0.00000000    0.00000000
   12.47861099  226.70700073    0.00000000    0.00000000
   12.47888851  158.73399353    0.00000000    0.00000000
   12.47888851   -1.00000000   -1.00000000   -1.00000000
   12.47888851  364.37799072    0.00000000    0.00000000
   12.47916603  253.01800537    0.00000000    0.00000000
   12.47916603  174.50000000    0.00000000    0.00000000
   12.47916603  159.14399719    0.00000000    0.00000000
   12.47944355   -1.00000000    0.00000000    0.00000000
   12.47944355   -1.00000000    0.00000000    0.00000000
   12.47944355  196.89599609    0.00000000    0.00000000
   12.47999954  191.26499939    0.00000000    0.00000000
   12.48333359  193.51600647    0.00000000    0.00000000
   12.48666668  193.94299316    0.00000000    0.00000000
   12.48972225  185.35600281    0.00000000    0.00000000
   12.49305534  182.82899475    0.00000000    0.00000000
   12.49944496  182.82899475    0.00000000    0.00000000
   12.50361156  187.15499878    0.00000000    0.00000000
   12.50694466  238.87600708    0.00000000    0.00000000
   12.51000023  303.98199463    0.00000000    0.00000000
   12.51222229  427.97900391    0.00000000    0.00000000
   12.51333332  364.79598999    0.00000000    0.00000000
   12.51472187  387.91198730    0.00000000    0.00000000
   12.51611137  392.52600098    0.00000000    0.00000000
   12.51749992  301.94299316    0.00000000    0.00000000
   12.51888847  274.23098755    0.00000000    0.00000000
   12.52027798  245.10800171    0.00000000    0.00000000
   12.52055550  191.26499939    0.00000000    0.00000000
   12.52055550  193.51600647    0.00000000    0.00000000
   12.52055550  193.94299316    0.00000000    0.00000000
   12.52083302  185.35600281    0.00000000    0.00000000
   12.52083302  182.82899475    0.00000000    0.00000000
   12.52083302  187.15499878    0.00000000    0.00000000
   12.52111053  238.87600708    0.00000000    0.00000000
   12.52111053  303.98199463    0.00000000    0.00000000
   12.52166653  196.77299500    0.00000000    0.00000000
   12.52499962  228.50100708    0.00000000    0.00000000
   12.52805519  311.82800293    0.00000000    0.00000000
   12.53027725  294.30200195    0.00000000    0.00000000
   12.53138828  114.94200134    0.00000000    0.00000000
   12.53166676  196.77299500    0.00000000    0.00000000
   12.53166676  228.50100708    0.00000000    0.00000000
   12.53166676  311.82800293    0.00000000    0.00000000
   12.53277779  304.93600464    0.00000000    0.00000000
   12.53500080  342.55099487    0.00000000    0.00000000
   12.53611183  311.23098755    0.00000000    0.00000000
   12.53750038  336.81298828    0.00000000    0.00000000
   12.53888893  146.26400757    0.00000000    0.00000000
   12.53916740  304.93600464    0.00000000    0.00000000
   12.53972244   97.38490295    0.00000000    0.00000000
   12.54277802  108.40699768    0.00000000    0.00000000
   12.54611111  333.48098755    0.00000000    0.00000000
   12.54805565  256.07000732    0.00000000    0.00000000
   12.54944515  243.05499268    0.00000000    0.00000000
   12.54944515   97.38490295    0.00000000    0.00000000
   12.54944515  108.40699768    0.00000000    0.00000000
   12.54972267  333.48098755    0.00000000    0.00000000
   12.55083370  178.77699280    0.00000000    0.00000000
   12.55388927  191.69200134    0.00000000    0.00000000
   12.55722237  175.36199951    0.00000000    0.00000000
   12.56055546  201.43200684    0.00000000    0.00000000
   12.56361103  216.23699951    0.00000000    0.00000000
   12.57027817  216.23699951    0.00000000    0.00000000
   12.57416630  203.85299683    0.00000000    0.00000000
   12.57750034  196.17500305    0.00000000    0.00000000
   12.58083344  167.89300537    0.00000000    0.00000000
   12.58333302  173.66499329    0.00000000    0.00000000
   12.58416653  210.43200684    0.00000000    0.00000000
   12.58749962  254.42999268    0.00000000    0.00000000
   12.59055519  245.62500000    0.00000000    0.00000000
   12.59388828   -1.00000000    0.00000000    0.00000000
   12.59722233   -1.00000000    0.00000000    0.00000000
   12.60027790   -1.00000000    0.00000000    0.00000000
   12.60361195   -1.00000000    0.00000000    0.00000000
   12.60694504   -1.00000000    0.00000000    0.00000000
   12.61694431   -1.00000000    0.00000000    0.00000000
   12.62027836   -1.00000000    0.00000000    0.00000000
   12.62361145   -1.00000000    0.00000000    0.00000000
   12.62666702   -1.00000000    0.00000000    0.00000000
   12.63000011   -1.00000000    0.00000000    0.00000000
   12.63333321   -1.00000000    0.00000000    0.00000000
   12.63638878   -1.00000000    0.00000000    0.00000000
   12.63972187   -1.00000000    0.00000000    0.00000000
   12.64277744   -1.00000000    0.00000000    0.00000000
   12.64611053   -1.00000000    0.00000000    0.00000000
   12.64944458   -1.00000000    0.00000000    0.00000000
   12.65999985   -1.00000000    0.00000000    0.00000000
   12.66305542   -1.00000000    0.00000000    0.00000000
   12.66638851   -1.00000000    0.00000000    0.00000000
   12.66944504   -1.00000000    0.00000000    0.00000000
   12.67277813   -1.00000000    0.00000000    0.00000000
   12.67611122   -1.00000000    0.00000000    0.00000000
   12.67916679   -1.00000000    0.00000000    0.00000000
   12.68249989   -1.00000000    0.00000000    0.00000000
   12.68611145  267.09100342    0.00000000    0.00000000
   12.68944454   95.56210327    0.00000000    0.00000000
   12.69250011  201.19099426    0.00000000    0.00000000
   12.69861126  201.19099426    0.00000000    0.00000000
   12.70277786  109.61499786    0.00000000    0.00000000
   12.70611095  256.61599731    0.00000000    0.00000000
   12.70944405  225.24400330    0.00000000    0.00000000
   12.71249962  315.23498535    0.00000000    0.00000000
   12.71444416  253.22399902    0.00000000    0.00000000
   12.71583271  193.35200500    0.00000000    0.00000000
   12.71583271   95.56210327    0.00000000    0.00000000
   12.71611118  201.19099426    0.00000000    0.00000000
   12.71611118  109.61499786    0.00000000    0.00000000
   12.71611118  256.61599731    0.00000000    0.00000000
   12.71638870  225.24400330    0.00000000    0.00000000
   12.71638870  315.23498535    0.00000000    0.00000000
   12.71666622   -1.00000000    0.00000000    0.00000000
   12.71666622   -1.00000000    0.00000000    0.00000000
   12.71666622  267.09100342    0.00000000    0.00000000
   12.71777725  269.96301270    0.00000000    0.00000000
   12.72111034  222.51100159    0.00000000    0.00000000
   12.72416592  309.60800171    0.00000000    0.00000000
   12.72638798  388.41500854    0.00000000    0.00000000
   12.72749996  114.58499908    0.00000000    0.00000000
   12.72777748  269.96301270    0.00000000    0.00000000
   12.72777748  222.51100159    0.00000000    0.00000000
   12.72777748  309.60800171    0.00000000    0.00000000
   12.72888851   98.78540039    0.00000000    0.00000000
   12.73222160  126.67700195    0.00000000    0.00000000
   12.73555565  409.68499756    0.00000000    0.00000000
   12.73750019  190.44400024    0.00000000    0.00000000
   12.73750019   98.78540039    0.00000000    0.00000000
   12.73777771  126.67700195    0.00000000    0.00000000
   12.73777771  409.68499756    0.00000000    0.00000000
   12.73944473  256.64999390    0.00000000    0.00000000
   12.74277782  242.56900024    0.00000000    0.00000000
   12.74583340  277.81698608    0.00000000    0.00000000
   12.74916649  388.93701172    0.00000000    0.00000000
   12.75111103  312.23001099    0.00000000    0.00000000
   12.75249958  266.02600098    0.00000000    0.00000000
   12.75388908  319.75201416    0.00000000    0.00000000
   12.75527763  185.64900208    0.00000000    0.00000000
   12.75527763  256.64999390    0.00000000    0.00000000
   12.75527763  242.56900024    0.00000000    0.00000000
   12.75555515  277.81698608    0.00000000    0.00000000
   12.75555515  388.93701172    0.00000000    0.00000000
   12.75611115  148.91000366    0.00000000    0.00000000
   12.75944424  261.00000000    0.00000000    0.00000000
   12.76249981  350.69699097    0.00000000    0.00000000
   12.76472187  245.13299561    0.00000000    0.00000000
   12.76472187  148.91000366    0.00000000    0.00000000
   12.76472187  261.00000000    0.00000000    0.00000000
   12.76500034  350.69699097    0.00000000    0.00000000
   12.76694393  275.91198730    0.00000000    0.00000000
   12.76999950  272.62799072    0.00000000    0.00000000
   12.77333355  288.05099487    0.00000000    0.00000000
   12.77666664  417.93798828    0.00000000    0.00000000
   12.77861118  235.05599976    0.00000000    0.00000000
   12.77861118  275.91198730    0.00000000    0.00000000
   12.77888870  272.62799072    0.00000000    0.00000000
   12.77888870  288.05099487    0.00000000    0.00000000
   12.77888870  417.93798828    0.00000000    0.00000000
   12.78083324  246.27299500    0.00000000    0.00000000
   12.78416729  318.95300293    0.00000000    0.00000000
   12.78611183  258.24700928    0.00000000    0.00000000
   12.78750038  361.61801147    0.00000000    0.00000000
   12.78888893  268.50201416    0.00000000    0.00000000
   12.79027843  200.35899353    0.00000000    0.00000000
   12.79027843  246.27299500    0.00000000    0.00000000
   12.79055595  318.95300293    0.00000000    0.00000000
   12.79111195  219.46699524    0.00000000    0.00000000
   12.79416752  174.11300659    0.00000000    0.00000000
   12.79750061  316.27099609    0.00000000    0.00000000
   12.79944515  176.85499573    0.00000000    0.00000000
   12.79944515  219.46699524    0.00000000    0.00000000
   12.79972267  174.11300659    0.00000000    0.00000000
   12.79972267  316.27099609    0.00000000    0.00000000
   12.80166721  185.95599365    0.00000000    0.00000000
   12.80500031  180.93499756    0.00000000    0.00000000
   12.80805588  152.94999695    0.00000000    0.00000000
   12.81138897  169.52799988    0.00000000    0.00000000
   12.81472206  194.04699707    0.00000000    0.00000000
   12.82027817  194.04699707    0.00000000    0.00000000
   12.82444477   61.45009995    0.00000000    0.00000000
   12.82750034   -1.00000000    0.00000000    0.00000000
   12.83083344   -1.00000000    0.00000000    0.00000000
   12.83416653   -1.00000000    0.00000000    0.00000000
   12.83749962  102.07099915    0.00000000    0.00000000
   12.84083271  255.39300537    0.00000000    0.00000000
   12.84388828   37.16469955    0.00000000    0.00000000
   12.84722233   93.59760284    0.00000000    0.00000000
   12.85027790  112.91300201    0.00000000    0.00000000
   12.85361195  106.36000061    0.00000000    0.00000000
   12.85694504  102.44599915    0.00000000    0.00000000
   12.86305618  102.44599915    0.00000000    0.00000000
   12.86722279  293.36499023    0.00000000    0.00000000
   12.87055588  382.70901489    0.00000000    0.00000000
   12.87250042  342.15100098    0.00000000    0.00000000
   12.87388897  328.91500854    0.00000000    0.00000000
   12.87527752  275.21301270    0.00000000    0.00000000
   12.87666702  270.99600220    0.00000000    0.00000000
   12.87805557  281.58599854    0.00000000    0.00000000
   12.87944412  223.80499268    0.00000000    0.00000000
   12.87944412  102.07099915    0.00000000    0.00000000
   12.87944412  255.39300537    0.00000000    0.00000000
   12.87972260   37.16469955    0.00000000    0.00000000
   12.87972260   93.59760284    0.00000000    0.00000000
   12.87972260  112.91300201    0.00000000    0.00000000
   12.88000011  106.36000061    0.00000000    0.00000000
   12.88000011  102.44599915    0.00000000    0.00000000
   12.88000011  293.36499023    0.00000000    0.00000000
   12.88027763  382.70901489    0.00000000    0.00000000
   12.88083363  175.15899658    0.00000000    0.00000000
   12.88388920  178.72599792    0.00000000    0.00000000
   12.88722229  229.83099365    0.00000000    0.00000000
   12.89055538  241.46000671    0.00000000    0.00000000
   12.89361095  239.08500671    0.00000000    0.00000000
   12.90027714  239.08500671    0.00000000    0.00000000
   12.90416622  193.52099609    0.00000000    0.00000000
   12.90749931  202.48500061    0.00000000    0.00000000
   12.91083336  234.74699402    0.00000000    0.00000000
   12.91333294  229.66200256    0.00000000    0.00000000
   12.91444397  257.15200806    0.00000000    0.00000000
   12.91777802  196.34300232    0.00000000    0.00000000
   12.92083359  204.79400635    0.00000000    0.00000000
   12.92416668  361.90399170    0.00000000    0.00000000
   12.92611122  339.91400146    0.00000000    0.00000000
   12.92750072  314.58099365    0.00000000    0.00000000
   12.92888927  216.95700073    0.00000000    0.00000000
   12.92888927  196.34300232    0.00000000    0.00000000
   12.92916679  204.79400635    0.00000000    0.00000000
   12.92916679  361.90399170    0.00000000    0.00000000
   12.92916679  241.46000671    0.00000000    0.00000000
   12.92944431  239.08500671    0.00000000    0.00000000
   12.92944431  193.52099609    0.00000000    0.00000000
   12.92944431  202.48500061    0.00000000    0.00000000
   12.92972279  234.74699402    0.00000000    0.00000000
   12.92972279  257.15200806    0.00000000    0.00000000
   12.93027782  289.89199829    0.00000000    0.00000000
   12.93361092  246.15800476    0.00000000    0.00000000
   12.93666649  270.07501221    0.00000000    0.00000000
   12.94000053  229.91299438    0.00000000    0.00000000
   12.94305515  153.48300171    0.00000000    0.00000000
   12.94972229  153.48300171    0.00000000    0.00000000
   12.95388889  162.80799866    0.00000000    0.00000000
   12.95694447  131.52099609    0.00000000    0.00000000
   12.96027756  138.12100220    0.00000000    0.00000000
   12.96277714  133.16799927    0.00000000    0.00000000
   12.96361065  137.81100464    0.00000000    0.00000000
   12.96694374  138.86099243    0.00000000    0.00000000
   12.97027779  136.98800659    0.00000000    0.00000000
   12.97333336  153.11900330    0.00000000    0.00000000
   12.97666645  135.77499390    0.00000000    0.00000000
   12.97999954  138.96499634    0.00000000    0.00000000
   12.98305511  129.20100403    0.00000000    0.00000000
   12.98638916  128.79600525    0.00000000    0.00000000
   12.99250031  128.79600525    0.00000000    0.00000000
   12.99666691  129.09700012    0.00000000    0.00000000
   12.99972248  125.13200378    0.00000000    0.00000000
   13.00305557  131.45799255    0.00000000    0.00000000
   13.00638866  121.64099884    0.00000000    0.00000000
   13.00944424  142.25399780    0.00000000    0.00000000
   13.01277733  129.37899780    0.00000000    0.00000000
   13.01583290  137.15400696    0.00000000    0.00000000
   13.01916599  131.35099792    0.00000000    0.00000000
   13.02250004  151.54899597    0.00000000    0.00000000
   13.02555561  123.48400116    0.00000000    0.00000000
   13.02888870  140.43899536    0.00000000    0.00000000
   13.02944374  154.14199829    0.00000000    0.00000000
   13.03527832  154.14199829    0.00000000    0.00000000
   13.03944492  135.17100525    0.00000000    0.00000000
   13.04277802  134.12899780    0.00000000    0.00000000
   13.04583359  131.46499634    0.00000000    0.00000000
   13.04916668  134.87699890    0.00000000    0.00000000
   13.05249977  140.48300171    0.00000000    0.00000000
   13.05555534  136.40199280    0.00000000    0.00000000
   13.05888939  131.71600342    0.00000000    0.00000000
   13.06194496  146.75799561    0.00000000    0.00000000
   13.06277752  142.95199585    0.00000000    0.00000000
   13.06555557  133.56799316    0.00000000    0.00000000
   13.06888866  132.98300171    0.00000000    0.00000000
   13.07222176  126.23300171    0.00000000    0.00000000
   13.07833290  126.23300171    0.00000000    0.00000000
   13.08222198  128.37699890    0.00000000    0.00000000
   13.08555508  129.34500122    0.00000000    0.00000000
   13.08888817  132.54299927    0.00000000    0.00000000
   13.09194374  129.83299255    0.00000000    0.00000000
   13.09527779  128.49699402    0.00000000    0.00000000
   13.09611034  136.78100586    0.00000000    0.00000000
   13.09861088  128.39199829    0.00000000    0.00000000
   13.10194492  125.67400360    0.00000000    0.00000000
   13.10527802  132.79499817    0.00000000    0.00000000
   13.10833359  127.11399841    0.00000000    0.00000000
   13.11166668  128.77499390    0.00000000    0.00000000
   13.11500072  131.27400208    0.00000000    0.00000000
   13.12111092  131.27400208    0.00000000    0.00000000
   13.12527752  128.68899536    0.00000000    0.00000000
   13.12833309  125.58000183    0.00000000    0.00000000
   13.12944412  129.68099976    0.00000000    0.00000000
   13.13222218  127.01599884    0.00000000    0.00000000
   13.13527775  127.40000153    0.00000000    0.00000000
   13.13861084  130.66299438    0.00000000    0.00000000
   13.14166641  126.81099701    0.00000000    0.00000000
   13.14499950  144.47399902    0.00000000    0.00000000
   13.14833355  130.60400391    0.00000000    0.00000000
   13.15138817  129.13099670    0.00000000    0.00000000
   13.15472221  129.49899292    0.00000000    0.00000000
   13.15805531  131.65199280    0.00000000    0.00000000
   13.16388893  131.65199280    0.00000000    0.00000000
   13.16805553  129.94400024    0.00000000    0.00000000
   13.17111111  133.76800537    0.00000000    0.00000000
   13.17444515  131.24499512    0.00000000    0.00000000
   13.17777824  127.21499634    0.00000000    0.00000000
   13.18083382  129.00500488    0.00000000    0.00000000
   13.18416691  143.48699951    0.00000000    0.00000000
   13.18750000  128.39700317    0.00000000    0.00000000
   13.19055557  128.75100708    0.00000000    0.00000000
   13.19388866  139.98899841    0.00000000    0.00000000
   13.19611073  135.58299255    0.00000000    0.00000000
   13.19750023  138.76400757    0.00000000    0.00000000
   13.20055580  134.88000488    0.00000000    0.00000000
   13.20666695  134.88000488    0.00000000    0.00000000
   13.21083355  140.34300232    0.00000000    0.00000000
   13.21416664  149.02299500    0.00000000    0.00000000
   13.23111057  139.33900452    0.00000000    0.00000000
   13.23416710  135.30900574    0.00000000    0.00000000
   13.23722267  137.07699585    0.00000000    0.00000000
   13.24055576  159.58700562    0.00000000    0.00000000
   13.24388885  146.71299744    0.00000000    0.00000000
   13.24972248  146.71299744    0.00000000    0.00000000
   13.25388908  123.86000061    0.00000000    0.00000000
   13.25694466  146.66700745    0.00000000    0.00000000
   13.26027775  136.22799683    0.00000000    0.00000000
   13.26333332  169.81500244    0.00000000    0.00000000
   13.26444435  192.37100220    0.00000000    0.00000000
   13.26722240  179.23199463    0.00000000    0.00000000
   13.27027798  144.47300720    0.00000000    0.00000000
   13.27361107  130.17199707    0.00000000    0.00000000
   13.27666664  149.13499451    0.00000000    0.00000000
   13.27999973  162.59599304    0.00000000    0.00000000
   13.28333378  138.42399597    0.00000000    0.00000000
   13.28638935  157.51499939    0.00000000    0.00000000
   13.29250050  157.51499939    0.00000000    0.00000000
   13.29666710  179.46499634    0.00000000    0.00000000
   13.29777813  160.41400146    0.00000000    0.00000000
   13.30027771  186.65800476    0.00000000    0.00000000
   13.30333328  172.72099304    0.00000000    0.00000000
   13.30666733  152.31599426    0.00000000    0.00000000
   13.30972195  134.84700012    0.00000000    0.00000000
   13.31305599  157.71400452    0.00000000    0.00000000
   13.31638908  146.69599915    0.00000000    0.00000000
   13.31944466  144.85899353    0.00000000    0.00000000
   13.32277775  139.45799255    0.00000000    0.00000000
   13.32611084  143.09500122    0.00000000    0.00000000
   13.32916641  138.21800232    0.00000000    0.00000000
   13.33111095  157.86900330    0.00000000    0.00000000
   13.33527756  157.86900330    0.00000000    0.00000000
   13.33944416  143.03900146    0.00000000    0.00000000
   13.34277725  143.49899292    0.00000000    0.00000000
   13.34583282  156.79299927    0.00000000    0.00000000
   13.34916592  136.37399292    0.00000000    0.00000000
   13.35249996  137.36399841    0.00000000    0.00000000
   13.35555553  149.28100586    0.00000000    0.00000000
   13.35888958  134.50500488    0.00000000    0.00000000
   13.36194515  127.53800201    0.00000000    0.00000000
   13.36444473  144.78799438    0.00000000    0.00000000
   13.36583328  130.77200317    0.00000000    0.00000000
   13.36888885  141.50999451    0.00000000    0.00000000
   13.37222195  146.33299255    0.00000000    0.00000000
   13.37805557  146.33299255    0.00000000    0.00000000
   13.38222218  144.02200317    0.00000000    0.00000000
   13.38555527  128.89999390    0.00000000    0.00000000
   13.38888836  139.84100342    0.00000000    0.00000000
   13.39194393  143.59399414    0.00000000    0.00000000
   13.39527798  136.17700195    0.00000000    0.00000000
   13.39777756  146.41999817    0.00000000    0.00000000
   13.39888859  135.37699890    0.00000000    0.00000000
   13.40194416  131.22999573    0.00000000    0.00000000
   13.40527725  137.07699585    0.00000000    0.00000000
   13.40833282  129.09100342    0.00000000    0.00000000
   13.41166592  151.03599548    0.00000000    0.00000000
   13.41499996  137.44799805    0.00000000    0.00000000
   13.42111111  137.44799805    0.00000000    0.00000000
   13.42500019  129.78900146    0.00000000    0.00000000
   13.42833328  131.94200134    0.00000000    0.00000000
   13.43111134  122.63200378    0.00000000    0.00000000
   13.43194485  135.75700378    0.00000000    0.00000000
   13.43500042  126.73300171    0.00000000    0.00000000
   13.43833351  142.70199585    0.00000000    0.00000000
   13.44166660  148.20799255    0.00000000    0.00000000
   13.44472218  131.20700073    0.00000000    0.00000000
   13.44805527  129.24099731    0.00000000    0.00000000
   13.45138836  133.98399353    0.00000000    0.00000000
   13.45444393  122.98500061    0.00000000    0.00000000
   13.45777798  128.46000671    0.00000000    0.00000000
   13.46388912  128.46000671    0.00000000    0.00000000
   13.46805477  131.37399292    0.00000000    0.00000000
   13.47111034  141.93499756    0.00000000    0.00000000
   13.47444439  137.98699951    0.00000000    0.00000000
   13.47777748  135.52400208    0.00000000    0.00000000
   13.48083305  159.64999390    0.00000000    0.00000000
   13.48416710  130.40400696    0.00000000    0.00000000
   13.48750019  148.47799683    0.00000000    0.00000000
   13.49055576  167.47300720    0.00000000    0.00000000
   13.49388885  145.20399475    0.00000000    0.00000000
   13.49694443  146.41000366    0.00000000    0.00000000
   13.49888897  142.20399475    0.00000000    0.00000000
   13.50083351  141.21800232    0.00000000    0.00000000
   13.50666714  141.21800232    0.00000000    0.00000000
   13.51083374  144.78199768    0.00000000    0.00000000
   13.51416683  141.79299927    0.00000000    0.00000000
   13.51722240  143.92300415    0.00000000    0.00000000
   13.52055550  145.60400391    0.00000000    0.00000000
   13.52388859  142.00500488    0.00000000    0.00000000
   13.52694416  144.30999756    0.00000000    0.00000000
   13.53027725  152.97799683    0.00000000    0.00000000
   13.53222179  162.91200256    0.00000000    0.00000000
   13.53388977  151.22200012    0.00000000    0.00000000
   13.53694534  129.30599976    0.00000000    0.00000000
   13.54027843  132.81700134    0.00000000    0.00000000
   13.54361153  128.47900391    0.00000000    0.00000000
   13.54944515  128.47900391    0.00000000    0.00000000
   13.55361176  148.30400085    0.00000000    0.00000000
   13.55694485  143.37199402    0.00000000    0.00000000
   13.56027794  142.47500610    0.00000000    0.00000000
   13.56333351  141.05700684    0.00000000    0.00000000
   13.56583309  145.10299683    0.00000000    0.00000000
   13.56694412  143.91900635    0.00000000    0.00000000
   13.57027817  136.71400452    0.00000000    0.00000000
   13.57361126  118.21399689    0.00000000    0.00000000
   13.57666683  128.76499939    0.00000000    0.00000000
   13.57999992  130.80099487    0.00000000    0.00000000
   13.58333302  142.34500122    0.00000000    0.00000000
   13.58638859  141.41900635    0.00000000    0.00000000
   13.59249973  141.41900635    0.00000000    0.00000000
   13.59666634  131.66600037    0.00000000    0.00000000
   13.59916592  128.33000183    0.00000000    0.00000000
   13.60027790  140.25700378    0.00000000    0.00000000
   13.60333347  127.65799713    0.00000000    0.00000000
   13.60666752  124.12400055    0.00000000    0.00000000
   13.61000061  124.85700226    0.00000000    0.00000000
   13.61305618  121.89700317    0.00000000    0.00000000
   13.61638927  139.43899536    0.00000000    0.00000000
   13.61944485  117.61499786    0.00000000    0.00000000
   13.62277794  125.42700195    0.00000000    0.00000000
   13.62611103  133.76400757    0.00000000    0.00000000
   13.62916660  135.47300720    0.00000000    0.00000000
   13.63527775  135.47300720    0.00000000    0.00000000
   13.63944435  128.09500122    0.00000000    0.00000000
   13.64249992  126.05200195    0.00000000    0.00000000
   13.64583302  124.92600250    0.00000000    0.00000000
   13.64916611  129.56500244    0.00000000    0.00000000
   13.65222168  127.54900360    0.00000000    0.00000000
   13.65555477  120.14399719    0.00000000    0.00000000
   13.65861034  126.66600037    0.00000000    0.00000000
   13.66194439  127.00499725    0.00000000    0.00000000
   13.66527748  126.33100128    0.00000000    0.00000000
   13.66611099  122.67600250    0.00000000    0.00000000
   13.66888905  133.80000305    0.00000000    0.00000000
   13.67194462  129.60899353    0.00000000    0.00000000
   13.67805576  129.60899353    0.00000000    0.00000000
   13.68222237  123.27200317    0.00000000    0.00000000
   13.68555546  123.37999725    0.00000000    0.00000000
   13.68861103  129.52099609    0.00000000    0.00000000
   13.69194412  115.05799866    0.00000000    0.00000000
   13.69527817  127.93299866    0.00000000    0.00000000
   13.69833374  137.68400574    0.00000000    0.00000000
   13.69944477  124.17299652    0.00000000    0.00000000
   13.70194435  122.18000031    0.00000000    0.00000000
   13.70499992  119.44100189    0.00000000    0.00000000
   13.70833302  115.31199646    0.00000000    0.00000000
   13.71166611  118.76999664    0.00000000    0.00000000
   13.71472168  123.83300018    0.00000000    0.00000000
   13.72111034  123.83300018    0.00000000    0.00000000
   13.72499943  121.54900360    0.00000000    0.00000000
   13.72833252  126.34100342    0.00000000    0.00000000
   13.73166656  123.15899658    0.00000000    0.00000000
   13.73305511  116.88099670    0.00000000    0.00000000
   13.73527813  126.49099731    0.00000000    0.00000000
   13.73833370  118.88999939    0.00000000    0.00000000
   13.74166679  125.41200256    0.00000000    0.00000000
   13.74472237  122.18800354    0.00000000    0.00000000
   13.74805546  127.88600159    0.00000000    0.00000000
   13.75138855  120.09200287    0.00000000    0.00000000
   13.75444412  126.76999664    4.90999985    2.48000002
   13.75777817  117.52899933    4.90999985    2.48000002
   13.76388931  117.52899933    4.90999985    2.48000002
   13.76805496  128.47799683    4.90999985    2.48000002
   13.77111053  125.98799896    4.90999985    2.48000002
   13.77444458  120.68800354    4.90999985    2.48000002
   13.77750015  126.44100189    4.90999985    2.48000002
   13.78083324  122.73699951    4.90999985    2.48000002
   13.78416729  117.76499939    4.90999985    2.48000002
   13.78722286  116.19300079    4.90999985    2.48000002
   13.79055595  118.78600311    4.90999985    2.48000002
   13.79388905  119.55699921    4.90999985    2.48000002
   13.79694462  117.48899841    4.90999985    2.48000002
   13.79972267  123.32499695    4.90999985    2.48000002
   13.80083370  128.44500732    4.90999985    2.48000002
   13.80666733  128.44500732    4.90999985    2.48000002
   13.81083393  130.92999268    4.90999985    2.48000002
   13.81388950  125.47000122    4.90999985    2.48000002
   13.81722260  123.63300323    4.90999985    2.48000002
   13.82055569  121.17800140    4.90999985    2.48000002
   13.82361126  121.61599731    4.90999985    2.48000002
   13.82694435  125.56800079    4.90999985    2.48000002
   13.83027744  116.72899628    4.90999985    2.48000002
   13.83305550  122.85600281    4.90999985    2.48000002
   13.83388901  128.66799927    4.90999985    2.48000002
   13.83694458  136.69999695    4.90999985    2.48000002
   13.84027767  122.05100250    4.90999985    2.48000002
   13.84361076  136.25000000    4.90999985    2.48000002
   13.84944439  136.25000000    4.90999985    2.48000002
   13.85361195  126.08799744    4.90999985    2.48000002
   13.85694504  134.07899475    4.90999985    2.48000002
   13.86000061  132.30799866    4.90999985    2.48000002
   13.86333370  126.45300293    4.90999985    2.48000002
   13.86638927  141.48699951    4.90999985    2.48000002
   13.86694431  128.73199463    4.90999985    2.48000002
   13.86999989  127.90599823    4.90999985    2.48000002
   13.87333393  126.72799683    4.90999985    2.48000002
   13.87666702  124.65299988    4.90999985    2.48000002
   13.87972260  127.67900085    4.90999985    2.48000002
   13.88305569  119.68399811    4.90999985    2.48000002
   13.88611126  126.62699890    4.90999985    2.48000002
   13.89249992  126.62699890    4.90999985    2.48000002
   13.89638901  135.34399414    4.90999985    2.48000002
   13.89972210  134.11799622    4.90999985    2.48000002
   13.90027714  118.35299683    4.90999985    2.48000002
   13.90333271  138.75900269    4.90999985    2.48000002
   13.90666676  121.43900299    4.90999985    2.48000002
   13.90999985  125.17299652    4.90999985    2.48000002
   13.91305542  119.94599915    4.90999985    2.48000002
   13.91638851  132.29499817    4.90999985    2.48000002
   13.91944504  132.94000244    4.90999985    2.48000002
   13.92277813  152.89999390    4.90999985    2.48000002
   13.92611122  130.36199951    4.90999985    2.48000002
   13.92916679  131.21099854    4.90999985    2.48000002
   13.93527794  131.21099854    4.90999985    2.48000002
   13.93944454  140.58399963    4.90999985    2.48000002
   13.94250011  127.14700317    4.90999985    2.48000002
   13.94583321  127.74199677    4.90999985    2.48000002
   13.94888878  123.12599945    4.90999985    2.48000002
   13.95222187  141.36099243    4.90999985    2.48000002
   13.95555496  134.07099915    4.90999985    2.48000002
   13.95861053  129.30799866    4.90999985    2.48000002
   13.96194458  125.84999847    4.90999985    2.48000002
   13.96527767  121.75700378    4.90999985    2.48000002
   13.96638870  129.56799316    4.90999985    2.48000002
   13.96888828  125.03299713    4.90999985    2.48000002
   13.97194386  110.26999664    4.90999985    2.48000002
   13.97805500  110.26999664    4.90999985    2.48000002
   13.98222160  111.85800171    4.90999985    2.48000002
   13.98527813  132.59399414    4.90999985    2.48000002
   13.98861122  124.42400360    4.90999985    2.48000002
   13.99194431  120.68099976    4.90999985    2.48000002
   13.99499989  134.19200134    4.90999985    2.48000002
   13.99833393  135.46099854    4.90999985    2.48000002
   13.99972248  134.07400513    4.90999985    2.48000002
   14.00194454  137.77699280    4.90999985    2.48000002
   14.00500011  134.39900208    4.90999985    2.48000002
   14.00833321  137.79800415    4.90999985    2.48000002
   14.01166630  130.97000122    4.90999985    2.48000002
   14.01472187  127.04199982    4.90999985    2.48000002
   14.02083302  127.04199982    4.90999985    2.48000002
   14.02499962  125.56700134    4.90999985    2.48000002
   14.02833271  133.84100342    4.90999985    2.48000002
   14.03138828  128.46899414    4.90999985    2.48000002
   14.03333378  135.86599731    4.90999985    2.48000002
   14.03527832  135.65800476    4.90999985    2.48000002
   14.03833389  129.68400574    4.90999985    2.48000002
   14.04166698  141.77299500    4.90999985    2.48000002
   14.04472256  123.90499878    4.90999985    2.48000002
   14.04805565  122.46399689    4.90999985    2.48000002
   14.05138874  129.88699341    4.90999985    2.48000002
   14.05444431  121.36599731    4.90999985    2.48000002
   14.05777836  121.60199738    4.90999985    2.48000002
   14.06388950  121.60199738    4.90999985    2.48000002
   14.06777763  115.68599701    4.90999985    2.48000002
   14.07111073  121.59400177    4.90999985    2.48000002
   14.07444477  128.88499451    4.90999985    2.48000002
   14.07750034  126.01300049    4.90999985    2.48000002
   14.08083344  132.94099426    4.90999985    2.48000002
   14.08388901  150.96600342    4.90999985    2.48000002
   14.08722210  130.19000244    4.90999985    2.48000002
   14.09055519  136.75399780    4.90999985    2.48000002
   14.09361076  131.46200562    4.90999985    2.48000002
   14.09694386  128.20100403    4.90999985    2.48000002
   14.10000038  124.71499634    4.90999985    2.48000002
   14.10055637  125.75399780    4.90999985    2.48000002
   14.10666752  125.75399780    4.90999985    2.48000002
   14.11083412  118.02799988    4.90999985    2.48000002
   14.11388969  122.82900238    4.90999985    2.48000002
   14.11722279  129.38200378    4.90999985    2.48000002
   14.12055588  122.23500061    4.90999985    2.48000002
   14.12361145  124.78199768    4.90999985    2.48000002
   14.12694454  127.86699677    4.90999985    2.48000002
   14.13000011  119.48500061    4.90999985    2.48000002
   14.13333321  118.71499634    4.90999985    2.48000002
   14.13388920  124.03399658    4.90999985    2.48000002
   14.13694477  118.81199646    4.90999985    2.48000002
   14.14027786  117.11499786    4.90999985    2.48000002
   14.14333344  128.07400513    4.90999985    2.48000002
   14.14944458  128.07400513    4.90999985    2.48000002
   14.15361118  129.50300598    4.90999985    2.48000002
   14.15666676  126.57900238    4.90999985    2.48000002
   14.15999985  122.33300018    4.90999985    2.48000002
   14.16333294  126.26100159    4.90999985    2.48000002
   14.16638851  118.69699860    4.90999985    2.48000002
   14.16694450  125.40699768    4.90999985    2.48000002
   14.17027855  117.51699829    4.90999985    2.48000002
   14.17361164  113.14499664    4.90999985    2.48000002
   14.17666721  118.44999695    4.90999985    2.48000002
   14.18000031  117.77899933    4.90999985    2.48000002
   14.18305588  113.68800354    4.90999985    2.48000002
   14.18638897  112.23600006    4.90999985    2.48000002
   14.19222260  112.23600006    4.90999985    2.48000002
   14.19638920  112.24900055    4.90999985    2.48000002
   14.19972229  117.96199799    4.90999985    2.48000002
   14.20027733  117.08200073    4.90999985    2.48000002
   14.20333290  111.09899902    4.90999985    2.48000002
   14.20666695  114.14399719    4.90999985    2.48000002
   14.20972157  115.51100159    4.90999985    2.48000002
   14.21305561  115.67400360    4.90999985    2.48000002
   14.21611118  120.41200256    4.90999985    2.48000002
   14.21944427  118.92700195    4.90999985    2.48000002
   14.22277737  120.74199677    4.90999985    2.48000002
   14.22583294  114.77300262    4.90999985    2.48000002
   14.22916603  119.51200104    4.90999985    2.48000002
   14.24944496   69.93730164    4.90999985    2.48000002
   14.25000000   82.05229950    4.90999985    2.48000002
   14.25333309  127.57800293    4.90999985    2.48000002
   14.25638866  120.11199951    4.90999985    2.48000002
   14.25972176  115.29100037    4.90999985    2.48000002
   14.26305580  115.60600281    4.90999985    2.48000002
   14.26611137  118.65599823    4.90999985    2.48000002
   14.26944447  112.99900055    4.90999985    2.48000002
   14.27250004  113.48999786    4.90999985    2.48000002
   14.27805519  113.48999786    4.90999985    2.48000002
   14.28222179  111.89800262    4.90999985    2.48000002
   14.28277779  107.20500183    4.90999985    2.48000002
   14.28583336  113.65100098    4.90999985    2.48000002
   14.28916740  114.40000153    4.90999985    2.48000002
   14.29222298  119.75099945    4.90999985    2.48000002
   14.29555607  115.86299896    4.90999985    2.48000002
   14.29888916  121.87999725    4.90999985    2.48000002
   14.30222225  109.28800201    4.90999985    2.48000002
   14.30527782  118.94400024    4.90999985    2.48000002
   14.30861092  118.98300171    4.90999985    2.48000002
   14.31166649  115.10399628    4.90999985    2.48000002
   14.31500053  105.96099854    4.90999985    2.48000002
   14.31611156  110.00000000    4.90999985    2.48000002
   14.32083321  110.00000000    4.90999985    2.48000002
   14.32499981  124.26000214    4.90999985    2.48000002
   14.32805538  114.38400269    4.90999985    2.48000002
   14.33138847  113.31199646    4.90999985    2.48000002
   14.33472157  115.26699829    4.90999985    2.48000002
   14.33777714  123.12400055    4.90999985    2.48000002
   14.34111118  129.86799622    4.90999985    2.48000002
   14.34444427  111.34600067    4.90999985    2.48000002
   14.34749985  110.89700317    4.90999985    2.48000002
   14.34944439  117.51399994    4.90999985    2.48000002
   14.35111141  115.59999847    4.90999985    2.48000002
   14.35444450  120.24199677    4.90999985    2.48000002
   14.35750008  107.52899933    4.90999985    2.48000002
   14.36361122  107.52899933    4.90999985    2.48000002
   14.36777782  111.87599945    4.90999985    2.48000002
   14.37111092  105.70700073    4.90999985    2.48000002
   14.37416649  114.59600067    4.90999985    2.48000002
   14.37750053  118.43399811    4.90999985    2.48000002
   14.38083363  110.51200104    4.90999985    2.48000002
   14.38277817  110.43399811    4.90999985    2.48000002
   14.38444424  115.87899780    4.90999985    2.48000002
   14.38777733  111.12200165    4.90999985    2.48000002
   14.39111137  122.34999847    4.90999985    2.48000002
   14.39416695  113.59799957    4.90999985    2.48000002
   14.39750004  116.40000153    4.90999985    2.48000002
   14.40083313  119.36799622    4.90999985    2.48000002
   14.40638828  119.36799622    4.90999985    2.48000002
   14.41055489  121.41000366    4.90999985    2.48000002
   14.41388893  116.77700043    4.90999985    2.48000002
   14.41611099  112.96600342    4.90999985    2.48000002
   14.41750050  106.47599792    4.90999985    2.48000002
   14.42083359  121.69899750    4.90999985    2.48000002
   14.42388916  116.64800262    4.90999985    2.48000002
   14.42722225  107.12999725    4.90999985    2.48000002
   14.43055630  110.71199799    4.90999985    2.48000002
   14.43361092  113.02100372    4.90999985    2.48000002
   14.43694496  112.34100342    4.90999985    2.48000002
   14.44027805  106.96399689    4.90999985    2.48000002
   14.44333363  116.16300201    4.90999985    2.48000002
   14.44944477  116.16300201    4.90999985    2.48000002
   14.45361137  113.61199951    4.90999985    2.48000002
   14.45666695  111.80400085    4.90999985    2.48000002
   14.46000004  106.55699921    4.90999985    2.48000002
   14.46305561  109.35099792    4.90999985    2.48000002
   14.46638870  112.68699646    4.90999985    2.48000002
   14.46972179  108.61399841    4.90999985    2.48000002
   14.47277737  114.22200012    4.90999985    2.48000002
   14.47611046  111.44999695    4.90999985    2.48000002
   14.47944355  109.77999878    4.90999985    2.48000002
   14.48249912  111.34100342    4.90999985    2.48000002
   14.48305511  111.55799866    4.90999985    2.48000002
   14.48638916  112.32399750    4.90999985    2.48000002
   14.49222279  112.32399750    4.90999985    2.48000002
   14.49638939  114.82299805    4.90999985    2.48000002
   14.49972248  116.22100067    4.90999985    2.48000002
   14.50277805  121.72699738    4.90999985    2.48000002
   14.50611115  113.90899658    4.90999985    2.48000002
   14.50916672  117.55000305    4.90999985    2.48000002
   14.51249981  120.98799896    4.90999985    2.48000002
   14.51583290  108.93199921    4.90999985    2.48000002
   14.51638889  116.76899719    4.90999985    2.48000002
   14.51944447  108.53399658    4.90999985    2.48000002
   14.52250004  116.56800079    4.90999985    2.48000002
   14.52583313  113.16500092    4.90999985    2.48000002
   14.52916622  110.22399902    4.90999985    2.48000002
   14.53500080  110.22399902    4.90999985    2.48000002
   14.53916740  121.81300354    4.90999985    2.48000002
   14.54250050  109.87999725    4.90999985    2.48000002
   14.54555607  109.68900299    4.90999985    2.48000002
   14.54888916  114.45899963    4.90999985    2.48000002
   14.54972267  111.55200195    4.90999985    2.48000002
   14.55249977  119.49800110    4.90999985    2.48000002
   14.55583382  105.12799835    4.90999985    2.48000002
   14.55888939  109.70999908    4.90999985    2.48000002
   14.56222248  108.56099701    4.90999985    2.48000002
   14.56527805  108.22599792    4.90999985    2.48000002
   14.56861115  110.03199768    4.90999985    2.48000002
   14.57194424  108.79100037    4.90999985    2.48000002
   14.57777786  108.79100037    4.90999985    2.48000002
   14.58194447  102.90100098    4.90999985    2.48000002
   14.58305550  101.32700348    4.90999985    2.48000002
   14.58555508  120.01899719    4.90999985    2.48000002
   14.58861065  112.83399963    4.90999985    2.48000002
   14.59194374  115.09799957    4.90999985    2.48000002
   14.59527779  110.93800354    4.90999985    2.48000002
   14.59833336  120.58599854    4.90999985    2.48000002
   14.60166740  120.24900055    4.90999985    2.48000002
   14.60500050  114.26399994    4.90999985    2.48000002
   14.60805607  112.95300293    4.90999985    2.48000002
   14.61138916  110.22899628    4.90999985    2.48000002
   14.61444473  117.31999969    4.90999985    2.48000002
   14.61638927  106.87000275    4.90999985    2.48000002
   14.62083340  106.87000275    4.90999985    2.48000002
   14.62472248  114.00000000    4.90999985    2.48000002
   14.62805557  112.08399963    4.90999985    2.48000002
   14.63138866  119.50000000    4.90999985    2.48000002
   14.63444424  114.46499634    4.90999985    2.48000002
   14.63777733  120.22799683    4.90999985    2.48000002
   14.64111137  116.09100342    4.90999985    2.48000002
   14.64416695  114.19400024    4.90999985    2.48000002
   14.64750004  110.84500122    4.90999985    2.48000002
   14.64972210  109.96800232    4.90999985    2.48000002
   14.65111065  107.52400208    4.90999985    2.48000002
   14.65416622  113.75800323    4.90999985    2.48000002
   14.65749931  113.60399628    4.90999985    2.48000002
   14.66361046  113.60399628    4.90999985    2.48000002
   14.66777802  106.57900238    4.90999985    2.48000002
   14.67083359  109.60500336    4.90999985    2.48000002
   14.67416668  110.31500244    4.90999985    2.48000002
   14.67750072  106.42199707    4.90999985    2.48000002
   14.68055630  114.18699646    4.90999985    2.48000002
   14.68305588  117.68199921    4.90999985    2.48000002
   14.68416691  113.19300079    4.90999985    2.48000002
   14.68722248  115.72899628    4.90999985    2.48000002
   14.69055557  111.55000305    4.90999985    2.48000002
   14.69388866  115.41300201    4.90999985    2.48000002
   14.69694424  110.12899780    4.90999985    2.48000002
   14.70027733  121.94899750    4.90999985    2.48000002
   14.70638847  121.94899750    4.90999985    2.48000002
   14.71055508  114.51499939    4.90999985    2.48000002
   14.71388912  109.52300262    4.90999985    2.48000002
   14.71638870  112.45700073    4.90999985    2.48000002
   14.71749973  106.78800201    4.90999985    2.48000002
   14.72083282  119.35800171    4.90999985    2.48000002
   14.72388840  122.23400116    4.90999985    2.48000002
   14.72722149  112.28099823    4.90999985    2.48000002
   14.73027706   99.84850311    4.90999985    2.48000002
   14.73361111  109.91100311    4.90999985    2.48000002
   14.73694515  110.36000061    4.90999985    2.48000002
   14.74000072  103.54000092    4.90999985    2.48000002
   14.74333382  116.70200348    4.90999985    2.48000002
   14.74916649  116.70200348    4.90999985    2.48000002
   14.75333309  100.77899933    4.90999985    2.48000002
   14.75666714   99.25199890    4.90999985    2.48000002
   14.76000023  107.52500153    4.90999985    2.48000002
   14.76305580  110.24800110    4.90999985    2.48000002
   14.76638889  109.98400116    4.90999985    2.48000002
   14.76944447  109.28199768    4.90999985    2.48000002
   14.77277756  114.02700043    4.90999985    2.48000002
   14.77583313  106.73200226    4.90999985    2.48000002
   14.77916622  103.00099945    4.90999985    2.48000002
   14.78249931  108.16699982    4.90999985    2.48000002
   14.78444481  110.11599731    4.90999985    2.48000002
   14.78611183  108.20999908    4.90999985    2.48000002
   14.79222298  108.20999908    4.90999985    2.48000002
   14.79638958  100.85399628    4.90999985    2.48000002
   14.79944515  104.23600006    4.90999985    2.48000002
   14.80277824  104.04299927    4.90999985    2.48000002
   14.80583382  117.47399902    4.90999985    2.48000002
   14.80916691  110.72699738    4.90999985    2.48000002
   14.81250000   98.77069855    4.90999985    2.48000002
   14.81555557  115.84100342    4.90999985    2.48000002
   14.81777763  101.97499847    4.90999985    2.48000002
   14.81916618  113.06700134    4.90999985    2.48000002
   14.82250023   97.90180206    4.90999985    2.48000002
   14.82555580  106.77500153    4.90999985    2.48000002
   14.82888889  108.03800201    4.90999985    2.48000002
   14.83500004  108.03800201    4.90999985    2.48000002
   14.83916664  108.38999939    4.90999985    2.48000002
   14.84222221  111.01100159    4.90999985    2.48000002
   14.84555531  107.99199677    4.90999985    2.48000002
   14.84888840  107.65299988    4.90999985    2.48000002
   14.85111141  111.43800354    4.90999985    2.48000002
   14.85249996  107.05500031    4.90999985    2.48000002
   14.85583401  107.26000214    4.90999985    2.48000002
   14.85888958  111.03500366    4.90999985    2.48000002
   14.86222267  116.38999939    4.90999985    2.48000002
   14.86527824  101.61499786    4.90999985    2.48000002
   14.86861134  112.77400208    4.90999985    2.48000002
   14.87166691  118.33799744    4.90999985    2.48000002
   14.87777805  118.33799744    4.90999985    2.48000002
   14.88194466  107.27500153    4.90999985    2.48000002
   14.88444424  112.64499664    4.90999985    2.48000002
   14.88555527  111.37000275    4.90999985    2.48000002
   14.88888836  115.86900330    4.90999985    2.48000002
   14.89194393  117.38400269    4.90999985    2.48000002
   14.89527798  115.18299866    4.90999985    2.48000002
   14.89833355  107.45899963    4.90999985    2.48000002
   14.90166664  106.68499756    4.90999985    2.48000002
   14.90499973  105.09700012    4.90999985    2.48000002
   14.90805531  102.20600128    4.90999985    2.48000002
   14.91138840  108.11399841    4.90999985    2.48000002
   14.91472149  117.26899719    4.90999985    2.48000002
   14.92055607  117.26899719    4.90999985    2.48000002
   14.92472267  112.00800323    4.90999985    2.48000002
   14.92805576  102.39600372    4.90999985    2.48000002
   14.93111134  110.75399780    4.90999985    2.48000002
   14.93444443  113.50800323    4.90999985    2.48000002
   14.93777752  110.68000031    4.90999985    2.48000002
   14.94083309  117.69300079    4.90999985    2.48000002
   14.94416714  105.26599884    4.90999985    2.48000002
   14.94750023  110.17099762    4.90999985    2.48000002
   14.95055580  107.98500061    4.90999985    2.48000002
   14.95166683  112.39299774    4.90999985    2.48000002
   14.95416641  114.44699860    4.90999985    2.48000002
   14.95749950  109.46700287    4.90999985    2.48000002
   14.96361065  109.46700287    4.90999985    2.48000002
   14.96777725  109.12599945    4.90999985    2.48000002
   14.97083282  106.45999908    4.90999985    2.48000002
   14.97416592  106.15100098    4.90999985    2.48000002
   14.97722149  103.67700195    4.90999985    2.48000002
   14.98055553   98.47200012    4.90999985    2.48000002
   14.98388958  108.59500122    4.90999985    2.48000002
   14.98500061  107.65599823    4.90999985    2.48000002
   14.98722267  110.36699677    4.90999985    2.48000002
   14.99055576  102.10399628    4.90999985    2.48000002
   14.99388885  109.70899963    4.90999985    2.48000002
   14.99694443  108.58000183    4.90999985    2.48000002
   15.00027752  107.48799896    4.90999985    2.48000002
   15.00638866  107.48799896    4.90999985    2.48000002
   15.01055527  110.16500092    4.90999985    2.48000002
   15.01361084  110.63800049    4.90999985    2.48000002
   15.01694393  113.09700012    4.90999985    2.48000002
   15.01833344  108.06900024    4.90999985    2.48000002
   15.02055550  105.66000366    4.90999985    2.48000002
   15.02388859  108.22799683    4.90999985    2.48000002
   15.02694416  111.05100250    4.90999985    2.48000002
   15.03027725  116.15499878    4.90999985    2.48000002
   15.03361130  101.83000183    4.90999985    2.48000002
   15.03666687  107.48699951    4.90999985    2.48000002
   15.04000092  103.54699707    4.90999985    2.48000002
   15.04305553  110.89499664    4.90999985    2.48000002
   15.04916668  110.89499664    4.90999985    2.48000002
   15.05333328  108.42500305    4.90999985    2.48000002
   15.05666733  109.66600037    4.90999985    2.48000002
   15.05972195  107.05100250    4.90999985    2.48000002
   15.06305599  106.54699707    4.90999985    2.48000002
   15.06638908  114.10399628    4.90999985    2.48000002
   15.06944466  109.87500000    4.90999985    2.48000002
   15.07277775  101.47699738    4.90999985    2.48000002
   15.07583332  120.04000092    4.90999985    2.48000002
   15.07916641  110.03700256    4.90999985    2.48000002
   15.08249950  108.26699829    4.90999985    2.48000002
   15.08527756  108.53199768    4.90999985    2.48000002
   15.08611107  111.76899719    4.90999985    2.48000002
   15.09194374  111.76899719    4.90999985    2.48000002
   15.09611034  108.06700134    4.90999985    2.48000002
   15.09944439  112.61000061    4.90999985    2.48000002
   15.10277843  108.75900269    4.90999985    2.48000002
   15.10583401  106.16200256    4.90999985    2.48000002
   15.10916710  107.93399811    4.90999985    2.48000002
   15.11222267  107.66500092    4.90999985    2.48000002
   15.11555576  114.87999725    4.90999985    2.48000002
   15.11861134  113.08200073    4.90999985    2.48000002
   15.11916637  119.06400299    4.90999985    2.48000002
   15.12250042  106.69999695    4.90999985    2.48000002
   15.12555599  114.53299713    4.90999985    2.48000002
   15.12888908  116.73400116    4.90999985    2.48000002
   15.13500023  116.73400116    4.90999985    2.48000002
   15.13916683  113.14900208    4.90999985    2.48000002
   15.14222240  113.69499969    4.90999985    2.48000002
   15.14555550  110.93900299    4.90999985    2.48000002
   15.14861107   96.76640320    4.90999985    2.48000002
   15.15194416  102.57299805    4.90999985    2.48000002
   15.15222168  106.25800323    4.90999985    2.48000002
   15.15555477  105.64800262    4.90999985    2.48000002
   15.15861034  109.90399933    4.90999985    2.48000002
   15.16194439  108.68199921    4.90999985    2.48000002
   15.16527748  105.33599854    4.90999985    2.48000002
   15.16833401  100.04299927    4.90999985    2.48000002
   15.17166710  101.48699951    4.90999985    2.48000002
   15.17777824  101.48699951    4.90999985    2.48000002
   15.18194485  103.93599701    4.90999985    2.48000002
   15.18527794   97.96219635    4.90999985    2.48000002
   15.18555546  103.79599762    4.90999985    2.48000002
   15.18888855   98.85220337    4.90999985    2.48000002
   15.19194412  109.58499908    4.90999985    2.48000002
   15.19527817  104.93099976    4.90999985    2.48000002
   15.19861126  111.70200348    4.90999985    2.48000002
   15.20166683  111.31900024    4.90999985    2.48000002
   15.20499992  116.55200195    4.90999985    2.48000002
   15.20833302  102.48500061    4.90999985    2.48000002
   15.21138859  106.55899811    4.90999985    2.48000002
   15.21472168  104.01399994    4.90999985    2.48000002
   15.22055531  104.01399994    4.90999985    2.48000002
   15.22472191  113.87200165    4.90999985    2.48000002
   15.22805500  112.85099792    4.90999985    2.48000002
   15.23111057  116.45099640    4.90999985    2.48000002
   15.23444462  117.77600098    4.90999985    2.48000002
   15.23777771  111.11100006    4.90999985    2.48000002
   15.24083328  115.38099670    4.90999985    2.48000002
   15.24416733  107.24400330    4.90999985    2.48000002
   15.24722290  101.38800049    4.90999985    2.48000002
   15.26611137  100.61100006    4.90999985    2.48000002
   15.27027798  100.61100006    4.90999985    2.48000002
   15.27444458   99.33399963    4.90999985    2.48000002
   15.27777767  101.69000244    4.90999985    2.48000002
   15.28083324  100.05699921    4.90999985    2.48000002
   15.28416729  103.31999969    4.90999985    2.48000002
   15.28750038  102.84600067    4.90999985    2.48000002
   15.29055595   99.23329926    4.90999985    2.48000002
   15.29388905   97.55090332    4.90999985    2.48000002
   15.29694462   95.56980133    4.90999985    2.48000002
   15.29944515  107.49400330    4.90999985    2.48000002
   15.30083370  100.91400146    4.90999985    2.48000002
   15.30388927  100.43099976    4.90999985    2.48000002
   15.30722237  104.64399719    4.90999985    2.48000002
   15.31333351  104.64399719    4.90999985    2.48000002
   15.31722260  109.55400085    4.90999985    2.48000002
   15.32055569  105.21199799    4.90999985    2.48000002
   15.32388878  105.30599976    4.90999985    2.48000002
   15.32694435  104.42800140    4.90999985    2.48000002
   15.33027744  108.87599945    4.90999985    2.48000002
   15.33277798  107.23799896    4.90999985    2.48000002
   15.33388901  107.18900299    4.90999985    2.48000002
   15.33694458   99.62429810    4.90999985    2.48000002
   15.34027767   98.88610077    4.90999985    2.48000002
   15.34333324  100.35900116    4.90999985    2.48000002
   15.34666634  107.46700287    4.90999985    2.48000002
   15.35000038  102.62000275    4.90999985    2.48000002
   15.35611153  102.62000275    4.90999985    2.48000002
   15.36027813  106.91799927    4.90999985    2.48000002
   15.36333370  106.80699921    4.90999985    2.48000002
   15.36611176  103.73100281    4.90999985    2.48000002
   15.36722279  111.30599976    4.90999985    2.48000002
   15.37027836  110.75099945    4.90999985    2.48000002
   15.37361145  111.22299957    4.90999985    2.48000002
   15.37666702  105.67600250    4.90999985    2.48000002
   15.38000011  108.29699707    4.90999985    2.48000002
   15.38333321  105.28900146    4.90999985    2.48000002
   15.38638878   98.29129791    4.90999985    2.48000002
   15.38972187  103.31199646    4.90999985    2.48000002
   15.39277744   99.90499878    4.90999985    2.48000002
   15.39888859   99.90499878    4.90999985    2.48000002
   15.40305519  101.75099945    4.90999985    2.48000002
   15.40611076  100.05200195    4.90999985    2.48000002
   15.40944386  110.62200165    4.90999985    2.48000002
   15.41277695  101.86699677    4.90999985    2.48000002
   15.41583252  102.48999786    4.90999985    2.48000002
   15.41916656  109.82299805    4.90999985    2.48000002
   15.42222214  110.62699890    4.90999985    2.48000002
   15.42555618  109.87500000    4.90999985    2.48000002
   15.42888927  107.66200256    4.90999985    2.48000002
   15.43194485  105.11699677    4.90999985    2.48000002
   15.43388939   98.48690033    4.90999985    2.48000002
   15.43583298  106.39900208    4.90999985    2.48000002
   15.44166660  106.39900208    4.90999985    2.48000002
   15.44583321  101.55200195    4.90999985    2.48000002
   15.44916630  100.47699738    4.90999985    2.48000002
   15.45222187   98.88469696    4.90999985    2.48000002
   15.45555496   99.85530090    4.90999985    2.48000002
   15.45888901   99.08950043    4.90999985    2.48000002
   15.46194458   96.96269989    4.90999985    2.48000002
   15.46527767  102.48100281    4.90999985    2.48000002
   15.46722221  106.50900269    4.90999985    2.48000002
   15.46888828   95.45189667    4.90999985    2.48000002
   15.47194386   98.66719818    4.90999985    2.48000002
   15.47527695  113.69000244    4.90999985    2.48000002
   15.47861099  100.95700073    4.90999985    2.48000002
   15.48472214  100.95700073    4.90999985    2.48000002
   15.48861122  106.09300232    4.90999985    2.48000002
   15.49194431  104.11499786    4.90999985    2.48000002
   15.49527836  101.01100159    4.90999985    2.48000002
   15.49833393  107.47000122    4.90999985    2.48000002
   15.50083351  101.88899994    4.90999985    2.48000002
   15.50222206  104.47499847    4.90999985    2.48000002
   15.50527763  100.42199707    4.90999985    2.48000002
   15.50861073  102.13899994    4.90999985    2.48000002
   15.51166630  106.30100250    4.90999985    2.48000002
   15.51500034  103.41500092    4.90999985    2.48000002
   15.51833344  105.62500000    4.90999985    2.48000002
   15.52138901  104.08699799    4.90999985    2.48000002
   15.52750015  104.08699799    4.90999985    2.48000002
   15.53166676   95.44390106    4.90999985    2.48000002
   15.53416729   96.48400116    4.90999985    2.48000002
   15.53527832  100.63999939    4.90999985    2.48000002
   15.53833389   94.66750336    4.90999985    2.48000002
   15.54166698   99.48549652    4.90999985    2.48000002
   15.54472256  103.65899658    4.90999985    2.48000002
   15.54805565  101.03800201    4.90999985    2.48000002
   15.55138874  103.34899902    4.90999985    2.48000002
   15.55444431  104.58100128    4.90999985    2.48000002
   15.55777836   95.49099731    4.90999985    2.48000002
   15.56083393   99.02529907    4.90999985    2.48000002
   15.56416702  100.64600372    4.90999985    2.48000002
   15.57027817  100.64600372    4.90999985    2.48000002
   15.57444477  107.38099670    4.90999985    2.48000002
   15.57750034  100.26300049    4.90999985    2.48000002
   15.58083344  107.73899841    4.90999985    2.48000002
   15.58416653  103.75000000    4.90999985    2.48000002
   15.58749962   98.49259949    4.90999985    2.48000002
   15.59055519  101.68199921    4.90999985    2.48000002
   15.59388828   97.27220154    4.90999985    2.48000002
   15.59694386  102.53399658    4.90999985    2.48000002
   15.60027790   98.97499847    4.90999985    2.48000002
   15.60111141  107.34500122    4.90999985    2.48000002
   15.60388947   99.58139801    4.90999985    2.48000002
   15.60694504  108.01699829    4.90999985    2.48000002
   15.61305618  108.01699829    4.90999985    2.48000002
   15.61722279  103.66400146    4.90999985    2.48000002
   15.62055588  101.06099701    4.90999985    2.48000002
   15.62361145  100.64700317    4.90999985    2.48000002
   15.62694454   97.90059662    4.90999985    2.48000002
   15.63027763   95.34390259    4.90999985    2.48000002
   15.63333321   99.69370270    4.90999985    2.48000002
   15.63444424  104.97599792    4.90999985    2.48000002
   15.63694477  101.56800079    4.90999985    2.48000002
   15.64000034  108.64800262    4.90999985    2.48000002
   15.64333344  104.10600281    4.90999985    2.48000002
   15.64666653  103.05200195    4.90999985    2.48000002
   15.64972210  103.80300140    4.90999985    2.48000002
   15.65611076  103.80300140    4.90999985    2.48000002
   15.65999985  105.74299622    4.90999985    2.48000002
   15.66333294  106.88400269    4.90999985    2.48000002
   15.66666698  114.87699890    4.90999985    2.48000002
   15.66805553   97.64669800    4.90999985    2.48000002
   15.67027855  101.87500000    4.90999985    2.48000002
   15.67333412  102.03399658    4.90999985    2.48000002
   15.67666721  106.82900238    4.90999985    2.48000002
   15.68000031  106.10199738    4.90999985    2.48000002
   15.68305588  104.61699677    4.90999985    2.48000002
   15.68638897  102.64399719    4.90999985    2.48000002
   15.68972206   99.87259674    4.90999985    2.48000002
   15.69277763  104.83100128    4.90999985    2.48000002
   15.69888878  104.83100128    4.90999985    2.48000002
   15.70305538  103.20500183    4.90999985    2.48000002
   15.70611095   97.33779907    4.90999985    2.48000002
   15.70944405  107.83999634    4.90999985    2.48000002
   15.71249962  113.24900055    4.90999985    2.48000002
   15.71583271   99.47200012    4.90999985    2.48000002
   15.71916580   95.95939636    4.90999985    2.48000002
   15.72222137  104.74800110    4.90999985    2.48000002
   15.72555542   97.14810181    4.90999985    2.48000002
   15.72888851   94.30500031    4.90999985    2.48000002
   15.73194408  101.91300201    4.90999985    2.48000002
   15.73472214   97.99179840    4.90999985    2.48000002
   15.73583317   95.65599823    4.90999985    2.48000002
   15.74166679   95.65599823    4.90999985    2.48000002
   15.74583340   95.97669983    4.90999985    2.48000002
   15.74888897  107.24099731    4.90999985    2.48000002
   15.75222206  101.28600311    4.90999985    2.48000002
   15.75555515  106.06600189    4.90999985    2.48000002
   15.75861073  100.94300079    4.90999985    2.48000002
   15.76194477   98.84819794    4.90999985    2.48000002
   15.76527786  106.89299774    4.90999985    2.48000002
   15.76805496  106.87699890    4.90999985    2.48000002
   15.76888847  106.15200043    4.90999985    2.48000002
   15.77194405  102.82399750    4.90999985    2.48000002
   15.77527714  104.36199951    4.90999985    2.48000002
   15.77861118  102.96499634    4.90999985    2.48000002
   15.78444481  102.96499634    4.90999985    2.48000002
   15.78861141  106.46299744    4.90999985    2.48000002
   15.79194450  104.47499847    4.90999985    2.48000002
   15.79500008   99.86519623    4.90999985    2.48000002
   15.79833412   98.02459717    4.90999985    2.48000002
   15.80138874  102.71800232    4.90999985    2.48000002
   15.80194473   99.83070374    4.90999985    2.48000002
   15.80500031  108.39499664    4.90999985    2.48000002
   15.80833340  103.03600311    4.90999985    2.48000002
   15.81166649   97.29689789    4.90999985    2.48000002
   15.81472206   99.42079926    4.90999985    2.48000002
   15.81805515  104.13099670    4.90999985    2.48000002
   15.82111073   99.09819794    4.90999985    2.48000002
   15.91583252   -1.00000000   -1.00000000   -1.00000000
   15.94277763  104.79599762    4.90999985    2.48000002
   15.94611073  105.04199982    4.90999985    2.48000002
   15.94916630  105.18000031    4.90999985    2.48000002
   15.95249939  100.81199646    4.90999985    2.48000002
   15.95583344   99.38909912    4.90999985    2.48000002
   15.95888901  107.52500153    4.90999985    2.48000002
   15.96305561  107.52500153    4.90999985    2.48000002
   15.96722221  104.29599762    4.90999985    2.48000002
   15.97055531  108.36900330    4.90999985    2.48000002
   15.97361088  101.84700012    4.90999985    2.48000002
   15.97611046  106.29299927    4.90999985    2.48000002
   15.97749996  101.28099823    4.90999985    2.48000002
   15.98055553  101.84700012    4.90999985    2.48000002
   15.98388958  106.39399719    4.90999985    2.48000002
   15.98722267   97.97329712    4.90999985    2.48000002
   15.99027824   99.39939880    4.90999985    2.48000002
   15.99361134  100.10299683    4.90999985    2.48000002
   15.99694443  107.09999847    4.90999985    2.48000002
   16.00000000  106.21800232    4.90999985    2.48000002
   16.00583267  106.21800232    4.90999985    2.48000002
   16.01000023  102.90000153    4.90999985    2.48000002
   16.01333427   98.05599976    4.90999985    2.48000002
   16.01666641  103.22499847    4.90999985    2.48000002
   16.01972198   99.76640320    4.90999985    2.48000002
   16.02305603  101.80200195    4.90999985    2.48000002
   16.02611160  102.02100372    4.90999985    2.48000002
   16.02944374  107.11499786    4.90999985    2.48000002
   16.03277779   91.52310181    4.90999985    2.48000002
   16.03583336  108.73200226    4.90999985    2.48000002
   16.03916550  103.22599792    4.90999985    2.48000002
   16.04249954  103.61699677    4.90999985    2.48000002
   16.04305458  101.66200256    4.90999985    2.48000002
   16.04888916  101.66200256    4.90999985    2.48000002
   16.05305481  107.48699951    4.90999985    2.48000002
   16.05611038  103.83599854    4.90999985    2.48000002
   16.05944443  113.02600098    4.90999985    2.48000002
   16.06250000  109.70899963    4.90999985    2.48000002
   16.06583214  106.69300079    4.90999985    2.48000002
   16.06916809  109.71700287    4.90999985    2.48000002
   16.07222366  107.89299774    4.90999985    2.48000002
   16.07555580  113.63700104    4.90999985    2.48000002
   16.07638931  108.15200043    4.90999985    2.48000002
   16.07916832  106.13700104    4.90999985    2.48000002
   16.08250046  108.66300201    4.90999985    2.48000002
   16.08555603   98.31659698    4.90999985    2.48000002
   16.09166718   98.31659698    4.90999985    2.48000002
   16.09583473   91.20829773    4.90999985    2.48000002
   16.09889030  104.43399811    4.90999985    2.48000002
   16.10222244   87.09069824    4.90999985    2.48000002
   16.10555649  103.68000031    4.90999985    2.48000002
   16.10861206   95.83419800    4.90999985    2.48000002
   16.10972214   97.57189941    4.90999985    2.48000002
   16.11222267   93.39579773    4.90999985    2.48000002
   16.11555672   97.14910126    4.90999985    2.48000002
   16.11861038  105.03900146    4.90999985    2.48000002
   16.12194443  111.27100372    4.90999985    2.48000002
   16.12527847  105.62799835    4.90999985    2.48000002
   16.12833405  104.48799896    4.90999985    2.48000002
   16.13444519  104.48799896    4.90999985    2.48000002
   16.13861084  101.15499878    4.90999985    2.48000002
   16.14194489  101.39499664    4.90999985    2.48000002
   16.14305496  108.78700256    4.90999985    2.48000002
   16.14555550   94.64649963    4.90999985    2.48000002
   16.14888954   98.88230133    4.90999985    2.48000002
   16.15194321  100.39700317    4.90999985    2.48000002
   16.15527725   95.62779999    4.90999985    2.48000002
   16.15861130  102.39900208    4.90999985    2.48000002
   16.16166687  103.91500092    4.90999985    2.48000002
   16.16499901   95.26889801    4.90999985    2.48000002
   16.16833305   92.38359833    4.90999985    2.48000002
   16.17138863  101.08100128    4.90999985    2.48000002
   16.17722130  101.08100128    4.90999985    2.48000002
   16.18138885   98.51959991    4.90999985    2.48000002
   16.18472099  106.15000153    4.90999985    2.48000002
   16.18805504  107.86299896    4.90999985    2.48000002
   16.19111061  102.36799622    4.90999985    2.48000002
   16.19444275  103.42600250    4.90999985    2.48000002
   16.19749832  102.36699677    4.90999985    2.48000002
   16.20083427  106.84899902    4.90999985    2.48000002
   16.20416832  107.98600006    4.90999985    2.48000002
   16.20722389  105.17600250    4.90999985    2.48000002
   16.20972252  104.07700348    4.90999985    2.48000002
   16.21083450  107.50700378    4.90999985    2.48000002
   16.21416664  102.00000000    4.90999985    2.48000002
   16.22027779  102.00000000    4.90999985    2.48000002
   16.22444534  101.41600037    4.90999985    2.48000002
   16.22750092  110.96800232    4.90999985    2.48000002
   16.23083305  103.11499786    4.90999985    2.48000002
   16.23388863   95.73359680    4.90999985    2.48000002
   16.23722267  101.06199646    4.90999985    2.48000002
   16.24055672  108.06400299    4.90999985    2.48000002
   16.24305534  111.11299896    4.90999985    2.48000002
   16.24416733  100.39700317    4.90999985    2.48000002
   16.24749947  107.11000061    4.90999985    2.48000002
   16.25055504  100.20500183    4.90999985    2.48000002
   16.25388908  105.10900116    4.90999985    2.48000002
   16.25722313  100.55999756    4.90999985    2.48000002
   16.26305580  100.55999756    4.90999985    2.48000002
   16.26722145  112.30200195    4.90999985    2.48000002
   16.27027702  102.91699982    4.90999985    2.48000002
   16.27361107   98.33830261    4.90999985    2.48000002
   16.27638817  101.89499664    4.90999985    2.48000002
   16.27722168  119.85800171    4.90999985    2.48000002
   16.28055573  109.63899994    4.90999985    2.48000002
   16.28361130  103.60900116    4.90999985    2.48000002
   16.28694344  108.54000092    4.90999985    2.48000002
   16.29027748  100.82199860    4.90999985    2.48000002
   16.29333305  105.65799713    4.90999985    2.48000002
   16.29666710  108.40499878    4.90999985    2.48000002
   16.29999924  112.13700104    4.90999985    2.48000002
   16.30583191  112.13700104    4.90999985    2.48000002
   16.30999947  118.86599731    4.90999985    2.48000002
   16.31333351  124.58100128    4.90999985    2.48000002
   16.31638718  118.77999878    4.90999985    2.48000002
   16.31972313  108.66300201    4.90999985    2.48000002
   16.32305717  106.53399658    4.90999985    2.48000002
   16.32611275  103.77600098    4.90999985    2.48000002
   16.32944489  113.84999847    4.90999985    2.48000002
   16.33277893  116.06900024    4.90999985    2.48000002
   16.33583450  118.09999847    4.90999985    2.48000002
   16.33916664  126.31500244    4.90999985    2.48000002
   16.34222221  109.16899872    4.90999985    2.48000002
   16.34305573  114.02999878    4.90999985    2.48000002
   16.34861183  114.02999878    4.90999985    2.48000002
   16.35277748  108.29499817    4.90999985    2.48000002
   16.35611153  106.12799835    4.90999985    2.48000002
   16.35944557  118.21499634    4.90999985    2.48000002
   16.36250114  104.93499756    4.90999985    2.48000002
   16.36583328  106.77700043    4.90999985    2.48000002
   16.36888885   96.78890228    4.90999985    2.48000002
   16.37222290   98.82430267    4.90999985    2.48000002
   16.37555504  106.73899841    4.90999985    2.48000002
   16.37638855  106.19000244    4.90999985    2.48000002
   16.37888908  107.98300171    4.90999985    2.48000002
   16.38222313  117.29199982    4.90999985    2.48000002
   16.38555527   99.44190216    4.90999985    2.48000002
   16.39166641   99.44190216    4.90999985    2.48000002
   16.39583397  110.20500183    4.90999985    2.48000002
   16.39888954  102.81900024    4.90999985    2.48000002
   16.40222168  108.08200073    4.90999985    2.48000002
   16.40527725  114.92800140    4.90999985    2.48000002
   16.40861130  109.83100128    4.90999985    2.48000002
   16.40972137  105.83399963    4.90999985    2.48000002
   16.41222191  110.48699951    4.90999985    2.48000002
   16.41555595  110.81800079    4.90999985    2.48000002
   16.41888809  108.11499786    4.90999985    2.48000002
   16.42194366  102.64199829    4.90999985    2.48000002
   16.42527771  105.12300110    4.90999985    2.48000002
   16.42833328  106.90599823    4.90999985    2.48000002
   16.43444443  106.90599823    4.90999985    2.48000002
   16.43861008  103.56300354    4.90999985    2.48000002
   16.44166565  106.76599884    4.90999985    2.48000002
   16.44305420  119.27999878    4.90999985    2.48000002
   16.44527626  112.39800262    4.90999985    2.48000002
   16.44861031  101.16000366    4.90999985    2.48000002
   16.45194435  100.61199951    4.90999985    2.48000002
   16.45499992  110.64800262    4.90999985    2.48000002
   16.45833397  118.22299957    4.90999985    2.48000002
   16.46138954  108.52200317    4.90999985    2.48000002
   16.46472359  115.01699829    4.90999985    2.48000002
   16.46805573  109.22399902    4.90999985    2.48000002
   16.47111130  111.62100220    4.90999985    2.48000002
   16.47722244  111.62100220    4.90999985    2.48000002
   16.48139000  102.01599884    4.90999985    2.48000002
   16.48472214  107.83200073    4.90999985    2.48000002
   16.48777771  103.69400024    4.90999985    2.48000002
   16.49111176  114.22399902    4.90999985    2.48000002
   16.49444389  116.37999725    4.90999985    2.48000002
   16.49749947  121.08999634    4.90999985    2.48000002
   16.50083351  121.66500092    4.90999985    2.48000002
   16.50416756  105.93000031    4.90999985    2.48000002
   16.50722313  112.53199768    4.90999985    2.48000002
   16.50972176  114.00299835    4.90999985    2.48000002
   16.51083374  107.68299866    4.90999985    2.48000002
   16.51416588  114.69000244    4.90999985    2.48000002
   16.52027702  114.69000244    4.90999985    2.48000002
   16.52416611   97.27200317    4.90999985    2.48000002
   16.52750015  108.96499634    4.90999985    2.48000002
   16.53083229   99.42449951    4.90999985    2.48000002
   16.53388786  102.03900146    4.90999985    2.48000002
   16.53722191  101.38300323    4.90999985    2.48000002
   16.54027748  101.02999878    4.90999985    2.48000002
   16.54305458   99.97299957    4.90999985    2.48000002
   16.54388809   95.84950256    4.90999985    2.48000002
   16.54722214   98.44689941    4.90999985    2.48000002
   16.55055428  105.45899963    4.90999985    2.48000002
   16.55360985  110.33899689    4.90999985    2.48000002
   16.55694389  107.78099823    4.90999985    2.48000002
   16.56305504  107.78099823    4.90999985    2.48000002
   16.56722260  114.02600098    4.90999985    2.48000002
   16.57027817  111.57700348    4.90999985    2.48000002
   16.57361221  107.39700317    4.90999985    2.48000002
   16.57638931  108.38800049    4.90999985    2.48000002
   16.57722282  112.95500183    4.90999985    2.48000002
   16.58055687  101.56500244    4.90999985    2.48000002
   16.58388901  105.10600281    4.90999985    2.48000002
   16.58694458   91.18730164    4.90999985    2.48000002
   16.59027863   96.95069885    4.90999985    2.48000002
   16.59333420  104.70600128    4.90999985    2.48000002
   16.59666824  120.40899658    4.90999985    2.48000002
   16.60000038  110.40299988    4.90999985    2.48000002
   16.60583305  110.40299988    4.90999985    2.48000002
   16.61000061  112.33799744    4.90999985    2.48000002
   16.61305618  104.42299652    4.90999985    2.48000002
   16.61638832  122.90599823    4.90999985    2.48000002
   16.61972237  118.68399811    4.90999985    2.48000002
   16.62277794  126.34200287    4.90999985    2.48000002
   16.62611198  128.09300232    4.90999985    2.48000002
   16.62944412  138.06199646    4.90999985    2.48000002
   16.63249969  167.39799500    4.90999985    2.48000002
   16.63583374  298.69400024    4.90999985    2.48000002
   16.63888931  117.23999786    4.90999985    2.48000002
   16.64222145  108.79100037    4.90999985    2.48000002
   16.64305496  108.93699646    4.90999985    2.48000002
   16.64861107  108.93699646    4.90999985    2.48000002
   16.65277672  119.07900238    4.90999985    2.48000002
   16.65611076  130.46499634    4.90999985    2.48000002
   16.65916634  125.59400177    4.90999985    2.48000002
   16.66250038  110.12999725    4.90999985    2.48000002
   16.66583252  118.82800293    4.90999985    2.48000002
   16.66888809  109.92800140    4.90999985    2.48000002
   16.67222214  107.58499908    4.90999985    2.48000002
   16.67527771  101.13300323    4.90999985    2.48000002
   16.67638779  101.73000336    4.90999985    2.48000002
   16.67888832  109.25199890    4.90999985    2.48000002
   16.68222237  108.17400360    4.90999985    2.48000002
   16.68555450  110.60700226    4.90999985    2.48000002
   16.69166565  110.60700226    4.90999985    2.48000002
   16.69555473  112.04900360    4.90999985    2.48000002
   16.69888878  108.76300049    4.90999985    2.48000002
   16.70222282  110.75900269    4.90999985    2.48000002
   16.70527840  120.09799957    4.90999985    2.48000002
   16.70861244  132.95599365    4.90999985    2.48000002
   16.70972252  127.43099976    4.90999985    2.48000002
   16.71194458  113.09400177    4.90999985    2.48000002
   16.71527863  116.95099640    4.90999985    2.48000002
   16.71861076  116.55300140    4.90999985    2.48000002
   16.72166634  101.63400269    4.90999985    2.48000002
   16.72500038  106.08999634    4.90999985    2.48000002
   16.72833443   98.84829712    4.90999985    2.48000002
   16.73444557   98.84829712    4.90999985    2.48000002
   16.73861122  108.44599915    4.90999985    2.48000002
   16.74166679   -1.00000000    4.90999985    2.48000002
   16.74527740   -1.00000000    4.90999985    2.48000002
   16.74861145   -1.00000000    4.90999985    2.48000002
   16.75166702   -1.00000000    4.90999985    2.48000002
   16.75499916   -1.00000000    4.90999985    2.48000002
   16.75833321   -1.00000000    4.90999985    2.48000002
   16.76138878  187.96000671    4.90999985    2.48000002
   16.76472282  158.07400513    4.90999985    2.48000002
   16.76777840  121.12300110    4.90999985    2.48000002
   16.77111053  134.19099426    4.90999985    2.48000002
   16.77722168  134.19099426    4.90999985    2.48000002
   16.78138924  121.12799835    4.90999985    2.48000002
   16.78444481  123.24900055    4.90999985    2.48000002
   16.78777695  118.95600128    4.90999985    2.48000002
   16.79111099  113.17299652    4.90999985    2.48000002
   16.79416656  115.14199829    4.90999985    2.48000002
   16.79749870  106.81500244    4.90999985    2.48000002
   16.80083275  100.94999695    4.90999985    2.48000002
   16.80388832  110.00499725    4.90999985    2.48000002
   16.80722237  116.45600128    4.90999985    2.48000002
   16.80972099  105.81099701    4.90999985    2.48000002
   16.81083298  108.33699799    4.90999985    2.48000002
   16.81388855  112.59899902    4.90999985    2.48000002
   16.82000160  112.59899902    4.90999985    2.48000002
   16.82416725  103.42299652    4.90999985    2.48000002
   16.82750130  104.06600189    4.90999985    2.48000002
   16.83055687  115.89099884    4.90999985    2.48000002
   16.83388901  121.70899963    4.90999985    2.48000002
   16.83722305  118.18000031    4.90999985    2.48000002
   16.84027863  113.52200317    4.90999985    2.48000002
   16.84305573  149.58900452    4.90999985    2.48000002
   16.84416771  136.06700134    4.90999985    2.48000002
   16.84722328  141.22999573    4.90999985    2.48000002
   16.85055542  111.89099884    4.90999985    2.48000002
   16.85361099  104.54100037    4.90999985    2.48000002
   16.85694504  113.85199738    4.90999985    2.48000002
   16.86305618  113.85199738    4.90999985    2.48000002
   16.86694527  107.07800293    4.90999985    2.48000002
   16.87027740  107.66000366    4.90999985    2.48000002
   16.87361145  103.04199982    4.90999985    2.48000002
   16.87638855  113.41500092    4.90999985    2.48000002
   16.87722206  112.57800293    4.90999985    2.48000002
   16.88027763  107.58799744    4.90999985    2.48000002
   16.88361168  115.11100006    4.90999985    2.48000002
   16.88666725  105.10299683    4.90999985    2.48000002
   16.88999939  120.53800201    4.90999985    2.48000002
   16.89333344  110.34600067    4.90999985    2.48000002
   16.89638901  109.31300354    4.90999985    2.48000002
   16.89972115  111.39199829    4.90999985    2.48000002
   16.90583229  111.39199829    4.90999985    2.48000002
   16.90999985  108.96199799    4.90999985    2.48000002
   16.91305542  108.45700073    4.90999985    2.48000002
   16.91638756  121.83699799    4.90999985    2.48000002
   16.91972160  124.12599945    4.90999985    2.48000002
   16.92277718  119.70300293    4.90999985    2.48000002
   16.92611122  110.20099640    4.90999985    2.48000002
   16.92916679  107.53800201    4.90999985    2.48000002
   16.93249893   98.52790070    4.90999985    2.48000002
   16.93583298   91.92729950    4.90999985    2.48000002
   16.93888855  110.05200195    4.90999985    2.48000002
   16.94222069  106.33999634    4.90999985    2.48000002
   16.94305420  111.90399933    4.90999985    2.48000002
   16.96361160  111.90399933    4.90999985    2.48000002
   16.96777916  116.12500000    4.90999985    2.48000002
   16.97111130  115.95899963    4.90999985    2.48000002
   16.97444534  109.66500092    4.90999985    2.48000002
   16.97638893  109.45700073    4.90999985    2.48000002
   16.97805595  122.75199890    4.90999985    2.48000002
   16.98111153  118.35600281    4.90999985    2.48000002
   16.98444557  126.90100098    4.90999985    2.48000002
   16.98750114  119.95700073    4.90999985    2.48000002
   16.99083328  122.27500153    4.90999985    2.48000002
   16.99416733  116.05899811    4.90999985    2.48000002
   16.99722290  119.85900116    4.90999985    2.48000002
   17.00055504  106.91999817    4.90999985    2.48000002
   17.00638962  106.91999817    4.90999985    2.48000002
   17.01055527  112.56400299    4.90999985    2.48000002
   17.01388931  106.21499634    4.90999985    2.48000002
   17.01694489  113.42299652    4.90999985    2.48000002
   17.02027702  111.62599945    4.90999985    2.48000002
   17.02361107  121.68299866    4.90999985    2.48000002
   17.02666664  119.15599823    4.90999985    2.48000002
   17.03000069  109.10399628    4.90999985    2.48000002
   17.03305435  122.78199768    4.90999985    2.48000002
   17.03638840  100.22799683    4.90999985    2.48000002
   17.03972244  113.13999939    4.90999985    2.48000002
   17.04277802   99.49629974    4.90999985    2.48000002
   17.04333305  112.44100189    4.90999985    2.48000002
   17.04916573  112.44100189    4.90999985    2.48000002
   17.05333328   99.54309845    4.90999985    2.48000002
   17.05666542  106.24600220    4.90999985    2.48000002
   17.05999947  103.06800079    4.90999985    2.48000002
   17.06305504  108.81500244    4.90999985    2.48000002
   17.06638718  101.89600372    4.90999985    2.48000002
   17.06944466  105.25800323    4.90999985    2.48000002
   17.07277870  112.62200165    4.90999985    2.48000002
   17.07611275  103.41600037    4.90999985    2.48000002
   17.07666779  113.09400177    4.90999985    2.48000002
   17.07972336  103.03299713    4.90999985    2.48000002
   17.08305550  106.42600250    4.90999985    2.48000002
   17.08611107  107.94100189    4.90999985    2.48000002
   17.09222221  107.94100189    4.90999985    2.48000002
   17.09638977  111.67500305    4.90999985    2.48000002
   17.09944534  100.17299652    4.90999985    2.48000002
   17.10277748  101.80300140    4.90999985    2.48000002
   17.10583305   92.74199677    4.90999985    2.48000002
   17.10916710  108.06900024    4.90999985    2.48000002
   17.11000061  106.45200348    4.90999985    2.48000002
   17.11277771  107.21199799    4.90999985    2.48000002
   17.11611176  103.88700104    4.90999985    2.48000002
   17.11916733  105.18900299    4.90999985    2.48000002
   17.12249947  104.22599792    4.90999985    2.48000002
   17.12555504   99.42700195    4.90999985    2.48000002
   17.12888908  101.25000000    4.90999985    2.48000002
   17.13500023  101.25000000    4.90999985    2.48000002
   17.13916588  112.99800110    4.90999985    2.48000002
   17.14222145  108.77400208    4.90999985    2.48000002
   17.14333344  104.68399811    4.90999985    2.48000002
   17.14611053  109.62599945    4.90999985    2.48000002
   17.14944458  112.46199799    4.90999985    2.48000002
   17.15250015  106.09100342    4.90999985    2.48000002
   17.15583229   99.92140198    4.90999985    2.48000002
   17.15888786  109.04699707    4.90999985    2.48000002
   17.16222191  120.67500305    4.90999985    2.48000002
   17.16555595   97.97830200    4.90999985    2.48000002
   17.16860962  108.12200165    4.90999985    2.48000002
   17.17194366  112.06300354    4.90999985    2.48000002
   17.17777634  112.06300354    4.90999985    2.48000002
   17.18194389  110.94300079    4.90999985    2.48000002
   17.18527603  111.07599640    4.90999985    2.48000002
   17.18833160  115.15499878    4.90999985    2.48000002
   17.19166565  110.84500122    4.90999985    2.48000002
   17.19499969  119.61000061    4.90999985    2.48000002
   17.19805527  116.16300201    4.90999985    2.48000002
   17.20138931  113.76799774    4.90999985    2.48000002
   17.20444489  109.31199646    4.90999985    2.48000002
   17.20777893  106.02700043    4.90999985    2.48000002
   17.21000099  108.55200195    4.90999985    2.48000002
   17.21138954  127.95999908    4.90999985    2.48000002
   17.21472359  112.79499817    4.90999985    2.48000002
   17.22055626  112.79499817    4.90999985    2.48000002
   17.22472191  122.76100159    4.90999985    2.48000002
   17.22805595  106.19599915    4.90999985    2.48000002
   17.23139000  112.26599884    4.90999985    2.48000002
   17.23444557  105.44999695    4.90999985    2.48000002
   17.23777771  104.46499634    4.90999985    2.48000002
   17.24083328  104.60700226    4.90999985    2.48000002
   17.24333382  107.68499756    4.90999985    2.48000002
   17.24472237  113.07700348    4.90999985    2.48000002
   17.24805641  107.27700043    4.90999985    2.48000002
   17.25111198  108.30500031    4.90999985    2.48000002
   17.25444412  102.31400299    4.90999985    2.48000002
   17.25749969  103.34500122    4.90999985    2.48000002
   17.26361084  103.34500122    4.90999985    2.48000002
   17.26749992  102.91200256    4.90999985    2.48000002
   17.27083397  102.49600220    4.90999985    2.48000002
   17.27416611  108.61499786    4.90999985    2.48000002
   17.27666664  105.87899780    4.90999985    2.48000002
   17.27777672  112.25700378    4.90999985    2.48000002
   17.28111076  103.90699768    4.90999985    2.48000002
   17.28416634  101.82800293    4.90999985    2.48000002
   17.28750038  106.37500000    4.90999985    2.48000002
   17.29055595  108.18099976    4.90999985    2.48000002
   17.29388809  111.44599915    4.90999985    2.48000002
   17.29722214  113.89600372    4.90999985    2.48000002
   17.30027771  100.54199982    4.90999985    2.48000002
   17.30638885  100.54199982    4.90999985    2.48000002
   17.31055450  109.04000092    4.90999985    2.48000002
   17.31361008  109.20999908    4.90999985    2.48000002
   17.31694603  116.13800049    4.90999985    2.48000002
   17.32027817  105.04399872    4.90999985    2.48000002
   17.32333374  114.93399811    4.90999985    2.48000002
   17.32666779  106.38200378    4.90999985    2.48000002
   17.32972336  104.84100342    4.90999985    2.48000002
   17.33305550  109.62999725    4.90999985    2.48000002
   17.33638954  114.19400024    4.90999985    2.48000002
   17.33944511  100.61199951    4.90999985    2.48000002
   17.34277916  104.66699982    4.90999985    2.48000002
   17.34333420  101.33100128    4.90999985    2.48000002
   17.34916687  101.33100128    4.90999985    2.48000002
   17.35333443  103.61799622    4.90999985    2.48000002
   17.35666656  102.88899994    4.90999985    2.48000002
   17.35972214  105.20600128    4.90999985    2.48000002
   17.36305618  103.40599823    4.90999985    2.48000002
   17.36638832  116.96499634    4.90999985    2.48000002
   17.36944389  120.20899963    4.90999985    2.48000002
   17.37277794  107.88800049    4.90999985    2.48000002
   17.37611198  101.34999847    4.90999985    2.48000002
   17.37666702  110.48000336    4.90999985    2.48000002
   17.37972260  114.51000214    4.90999985    2.48000002
   17.38305473  109.63800049    4.90999985    2.48000002
   17.38611031  110.12200165    4.90999985    2.48000002
   17.39194489  110.12200165    4.90999985    2.48000002
   17.39611053  108.19100189    4.90999985    2.48000002
   17.39944458  100.35500336    4.90999985    2.48000002
   17.40250015  103.24099731    4.90999985    2.48000002
   17.40583229  108.50499725    4.90999985    2.48000002
   17.40916634  104.46299744    4.90999985    2.48000002
   17.40999985   99.60289764    4.90999985    2.48000002
   17.41277695   92.15670013    4.90999985    2.48000002
   17.41611099   96.65260315    4.90999985    2.48000002
   17.41916656   99.18620300    4.90999985    2.48000002
   17.42249870  101.51799774    4.90999985    2.48000002
   17.42583275  100.60199738    4.90999985    2.48000002
   17.42888832  102.27500153    4.90999985    2.48000002
   17.43499947  102.27500153    4.90999985    2.48000002
   17.43888855  100.56600189    4.90999985    2.48000002
   17.44222069  105.16000366    4.90999985    2.48000002
   17.44333267  104.98400116    4.90999985    2.48000002
   17.44583321  110.14800262    4.90999985    2.48000002
   17.44916534  103.52600098    4.90999985    2.48000002
   17.45250130   98.14469910    4.90999985    2.48000002
   17.45555687  106.04699707    4.90999985    2.48000002
   17.45888901  108.57099915    4.90999985    2.48000002
   17.46194458  112.66999817    4.90999985    2.48000002
   17.46527863  103.01599884    4.90999985    2.48000002
   17.46861076  109.20300293    4.90999985    2.48000002
   17.47166634  113.75199890    4.90999985    2.48000002
   17.47777748  113.75199890    4.90999985    2.48000002
   17.48194504  111.80699921    4.90999985    2.48000002
   17.48500061  112.76200104    4.90999985    2.48000002
   17.48833275  106.43499756    4.90999985    2.48000002
   17.49166679  101.67900085    4.90999985    2.48000002
   17.49472237  107.31099701    4.90999985    2.48000002
   17.49805641  113.88999939    4.90999985    2.48000002
   17.50111198   98.38279724    4.90999985    2.48000002
   17.50444412  103.91600037    4.90999985    2.48000002
   17.50777817  104.43599701    4.90999985    2.48000002
   17.51000023  111.50199890    4.90999985    2.48000002
   17.51138878  113.66699982    4.90999985    2.48000002
   17.51472282  109.02100372    4.90999985    2.48000002
   17.52055550  109.02100372    4.90999985    2.48000002
   17.52472115  106.98000336    4.90999985    2.48000002
   17.52805519  105.40799713    4.90999985    2.48000002
   17.53111076   98.99759674    4.90999985    2.48000002
   17.53444481   95.90509796    4.90999985    2.48000002
   17.53750038   98.79799652    4.90999985    2.48000002
   17.54083252  100.90299988    4.90999985    2.48000002
   17.54361153   99.71019745    4.90999985    2.48000002
   17.54444313  100.51499939    4.90999985    2.48000002
   17.54777718  102.05200195    4.90999985    2.48000002
   17.55083275  102.40399933    4.90999985    2.48000002
   17.55416679  105.27200317    4.90999985    2.48000002
   17.55749893   97.87830353    4.90999985    2.48000002
   17.56333351   97.87830353    4.90999985    2.48000002
   17.56750107   96.99389648    4.90999985    2.48000002
   17.57083511  124.51200104    4.90999985    2.48000002
   17.57389069  155.08399963    4.90999985    2.48000002
   17.57694626   92.68049622    4.90999985    2.48000002
   17.57750130   97.80130005    4.90999985    2.48000002
   17.58083344   86.12490082    4.90999985    2.48000002
   17.58388901  100.44499969    4.90999985    2.48000002
   17.58722305   96.48059845    4.90999985    2.48000002
   17.59055710   92.48950195    4.90999985    2.48000002
   17.59361267   98.09380341    4.90999985    2.48000002
   17.59694481   99.90899658    4.90999985    2.48000002
   17.60000038   91.67320251    4.90999985    2.48000002
   17.60639000   91.67320251    4.90999985    2.48000002
   17.61027908   97.54519653    4.90999985    2.48000002
   17.61361122   94.48349762    4.90999985    2.48000002
   17.61694527   99.73079681    4.90999985    2.48000002
   17.62000084   -1.00000000    4.90999985    2.48000002
   17.62333298  100.70300293    4.90999985    2.48000002
   17.62666702  101.47100067    4.90999985    2.48000002
   17.62972260   94.75340271    4.90999985    2.48000002
   17.63305473  109.43399811    4.90999985    2.48000002
   17.63638878   91.73130035    4.90999985    2.48000002
   17.63944435  104.37400055    4.90999985    2.48000002
   17.64277840  103.03600311    4.90999985    2.48000002
   17.64361191  109.20200348    4.90999985    2.48000002
   17.64916611  109.20200348    4.90999985    2.48000002
   17.65333366  107.26399994    4.90999985    2.48000002
   17.65638924  109.33699799    4.90999985    2.48000002
   17.65972137   98.51239777    4.90999985    2.48000002
   17.66305542   95.31919861    4.90999985    2.48000002
   17.66611099  102.92700195    4.90999985    2.48000002
   17.66944313   -1.00000000    4.90999985    2.48000002
   17.67249870   97.64430237    4.90999985    2.48000002
   17.67583275  105.38500214    4.90999985    2.48000002
   17.67694473  101.22799683    4.90999985    2.48000002
   17.67944336  101.53199768    4.90999985    2.48000002
   17.68277740   98.63169861    4.90999985    2.48000002
   17.68583298  100.55500031    4.90999985    2.48000002
   17.69194412  100.55500031    4.90999985    2.48000002
   17.69610977   97.28479767    4.90999985    2.48000002
   17.69944382  107.83499908    4.90999985    2.48000002
   17.70250130  102.73600006    4.90999985    2.48000002
   17.70583344  106.08399963    4.90999985    2.48000002
   17.70888901  102.28900146    4.90999985    2.48000002
   17.71027946  103.51200104    4.90999985    2.48000002
   17.71250153  109.01100159    4.90999985    2.48000002
   17.71583366  101.10500336    4.90999985    2.48000002
   17.71888924   -1.00000000    4.90999985    2.48000002
   17.72222328   -1.00000000    4.90999985    2.48000002
   17.72555542   99.89260101    4.90999985    2.48000002
   17.72861099  107.31199646    4.90999985    2.48000002
   17.73472214  107.31199646    4.90999985    2.48000002
   17.73888969   92.78790283    4.90999985    2.48000002
   17.74222183   90.98829651    4.90999985    2.48000002
   17.74361229   96.18329620    4.90999985    2.48000002
   17.74583435   97.03240204    4.90999985    2.48000002
   17.74916649   99.86209869    4.90999985    2.48000002
   17.75222206  100.03099823    4.90999985    2.48000002
   17.75555611   94.71489716    4.90999985    2.48000002
   17.75888824   91.05000305    4.90999985    2.48000002
   17.76194382  100.92299652    4.90999985    2.48000002
   17.76527786   99.50279999    4.90999985    2.48000002
   17.76861000   96.84400177    4.90999985    2.48000002
   17.77166557  101.22699738    4.90999985    2.48000002
   17.77777672  101.22699738    4.90999985    2.48000002
   17.78166580   97.12750244    4.90999985    2.48000002
   17.78499985  103.12300110    4.90999985    2.48000002
   17.78833199   98.22070313    4.90999985    2.48000002
   17.79138756  103.63600159    4.90999985    2.48000002
   17.79472160   90.59429932    4.90999985    2.48000002
   17.79805565   99.52050018    4.90999985    2.48000002
   17.80111122  100.83300018    4.90999985    2.48000002
   17.80444336  105.65399933    4.90999985    2.48000002
   17.80749893  100.29199982    4.90999985    2.48000002
   17.81027794   95.34670258    4.90999985    2.48000002
   17.81110954   99.25350189    4.90999985    2.48000002
   17.81444359  101.97100067    4.90999985    2.48000002
   17.82055664  101.97100067    4.90999985    2.48000002
   17.82472229   95.83769989    4.90999985    2.48000002
   17.82777786  100.90100098    4.90999985    2.48000002
   17.83111191   95.63390350    4.90999985    2.48000002
   17.83444595  100.74700165    4.90999985    2.48000002
   17.83750153   97.69770050    4.90999985    2.48000002
   17.84083366   97.28479767    4.90999985    2.48000002
   17.84361267   93.30059814    4.90999985    2.48000002
   17.84444427   95.76519775    4.90999985    2.48000002
   17.84777832  102.72799683    4.90999985    2.48000002
   17.85111237   88.54699707    4.90999985    2.48000002
   17.85416794   99.08000183    4.90999985    2.48000002
   17.85750008   91.77600098    4.90999985    2.48000002
   17.86333466   91.77600098    4.90999985    2.48000002
   17.86750031   93.87439728    4.90999985    2.48000002
   17.87083435   89.08110046    4.90999985    2.48000002
   17.87388992   91.81819916    4.90999985    2.48000002
   17.87694550   87.49729919    4.90999985    2.48000002
   17.87750053   83.48989868    4.90999985    2.48000002
   17.88083267   86.96279907    4.90999985    2.48000002
   17.88416672   99.53170013    4.90999985    2.48000002
   17.88722229   91.81269836    4.90999985    2.48000002
   17.89055634   95.68389893    4.90999985    2.48000002
   17.89361191   92.98979950    4.90999985    2.48000002
   17.89694405   93.47570038    4.90999985    2.48000002
   17.90027809   86.68090057    4.90999985    2.48000002
   17.90611076   86.68090057    4.90999985    2.48000002
   17.91027832   89.91310120    4.90999985    2.48000002
   17.91361046   83.71219635    4.90999985    2.48000002
   17.91666603   87.28430176    4.90999985    2.48000002
   17.92000008   92.83489990    4.90999985    2.48000002
   17.92333221   90.70539856    4.90999985    2.48000002
   17.92638779   96.33429718    4.90999985    2.48000002
   17.92972183  102.41100311    4.90999985    2.48000002
   17.93305397   96.29840088    4.90999985    2.48000002
   17.93610954  100.47100067    4.90999985    2.48000002
   17.93944359   91.71369934    4.90999985    2.48000002
   17.94249916   97.29170227    4.90999985    2.48000002
   17.94361115   99.78589630    4.90999985    2.48000002
   17.94916534   99.78589630    4.90999985    2.48000002
   17.95305634  100.89700317    4.90999985    2.48000002
   17.95639038   95.01210022    4.90999985    2.48000002
   17.95972252   99.90540314    4.90999985    2.48000002
   17.97722244   93.20300293    4.90999985    2.48000002
   17.97972298   91.14179993    4.90999985    2.48000002
   17.98277855   96.73120117    4.90999985    2.48000002
   17.98611069   98.06330109    4.90999985    2.48000002
   17.99222183   98.06330109    4.90999985    2.48000002
   17.99638939   99.06719971    4.90999985    2.48000002
   17.99944496   99.67459869    4.90999985    2.48000002
   18.00277710   93.55169678    4.90999985    2.48000002
   18.00583267   94.06629944    4.90999985    2.48000002
   18.00916672   96.25170135    4.90999985    2.48000002
   18.01055527  101.35399628    4.90999985    2.48000002
   18.01277733   95.05419922    4.90999985    2.48000002
   18.01611137   88.48570251    4.90999985    2.48000002
   18.01944351  101.61399841    4.90999985    2.48000002
   18.02249908   93.28880310    4.90999985    2.48000002
   18.02583313   92.92469788    4.90999985    2.48000002
   18.02916718   98.91010284    4.90999985    2.48000002
   18.03499985   98.91010284    4.90999985    2.48000002
   18.03916550  108.89800262    4.90999985    2.48000002
   18.04222107   94.94660187    4.90999985    2.48000002
   18.04388809  103.37100220    4.90999985    2.48000002
   18.04583359   99.71320343    4.90999985    2.48000002
   18.04916573  102.70700073    4.90999985    2.48000002
   18.05249977  103.35800171    4.90999985    2.48000002
   18.05555534  101.63600159    4.90999985    2.48000002
   18.05888748  100.05400085    4.90999985    2.48000002
   18.06222153  101.32499695    4.90999985    2.48000002
   18.06527710  100.49600220    4.90999985    2.48000002
   18.06861115   95.21790314    4.90999985    2.48000002
   18.07166672   91.95559692    4.90999985    2.48000002
   18.07777786   91.95559692    4.90999985    2.48000002
   18.08194542   95.36509705    4.90999985    2.48000002
   18.08527756   84.33370209    4.90999985    2.48000002
   18.08833313   87.57959747    4.90999985    2.48000002
   18.09166718   88.48729706    4.90999985    2.48000002
   18.09472275   89.69000244    4.90999985    2.48000002
   18.09805679   91.34649658    4.90999985    2.48000002
   18.10138893   94.53669739    4.90999985    2.48000002
   18.10444450   92.55429840    4.90999985    2.48000002
   18.10777855   97.46189880    4.90999985    2.48000002
   18.11055565   94.72669983    4.90999985    2.48000002
   18.11138916   95.21289825    4.90999985    2.48000002
   18.11472321   95.65129852    4.90999985    2.48000002
   18.12055588   95.65129852    4.90999985    2.48000002
   18.12472153  111.08300018    4.90999985    2.48000002
   18.12805557   99.75610352    4.90999985    2.48000002
   18.13111115   93.28140259    4.90999985    2.48000002
   18.13444519   99.83899689    4.90999985    2.48000002
   18.13777733  108.14399719    4.90999985    2.48000002
   18.14083290  100.46499634    4.90999985    2.48000002
   18.14388847  105.62999725    4.90999985    2.48000002
   18.14444351   95.36519623    4.90999985    2.48000002
   18.14777756   92.93840027    4.90999985    2.48000002
   18.15111160   95.34239960    4.90999985    2.48000002
   18.15416718   99.54630280    4.90999985    2.48000002
   18.15749931   94.35569763    4.90999985    2.48000002
   18.16333389   94.35569763    4.90999985    2.48000002
   18.16749954   93.74330139    4.90999985    2.48000002
   18.17083359   87.46540070    4.90999985    2.48000002
   18.17416573   98.29049683    4.90999985    2.48000002
   18.17722130   85.92489624    4.90999985    2.48000002
   18.17749977   91.17489624    4.90999985    2.48000002
   18.18083191   99.64040375    4.90999985    2.48000002
   18.18416595   94.20999908    4.90999985    2.48000002
   18.18722153  100.38800049    4.90999985    2.48000002
   18.19055557   91.42759705    4.90999985    2.48000002
   18.19388771   91.62889862    4.90999985    2.48000002
   18.19694328  102.22000122    4.90999985    2.48000002
   18.20027924   93.52909851    4.90999985    2.48000002
   18.20639038   93.52909851    4.90999985    2.48000002
   18.21055603  105.39199829    4.90999985    2.48000002
   18.21111107  100.23000336    4.90999985    2.48000002
   18.21416664   86.41349792    4.90999985    2.48000002
   18.21750069   91.69419861    4.90999985    2.48000002
   18.22083473   83.55940247    4.90999985    2.48000002
   18.22389030   95.23110199    4.90999985    2.48000002
   18.22722244  100.59999847    4.90999985    2.48000002
   18.23027802   97.99829865    4.90999985    2.48000002
   18.23361206   97.84629822    4.90999985    2.48000002
   18.23694420   93.50289917    4.90999985    2.48000002
   18.23999977   93.14029694    4.90999985    2.48000002
   18.24333382   90.26629639    4.90999985    2.48000002
   18.24388885   94.58979797    4.90999985    2.48000002
   18.24916649   94.58979797    4.90999985    2.48000002
   18.25333405   93.65039825    4.90999985    2.48000002
   18.25638962   93.86910248    4.90999985    2.48000002
   18.25972176   93.87300110    4.90999985    2.48000002
   18.26305580   95.61589813    4.90999985    2.48000002
   18.26611137   92.90940094    4.90999985    2.48000002
   18.26944351   89.96659851    4.90999985    2.48000002
   18.27277756   93.29450226    4.90999985    2.48000002
   18.27583313   93.79669952    4.90999985    2.48000002
   18.27722168   94.92569733    4.90999985    2.48000002
   18.27972221   87.86430359    4.90999985    2.48000002
   18.28277779   90.20610046    4.90999985    2.48000002
   18.28610992   92.57469940    4.90999985    2.48000002
   18.29194450   92.57469940    4.90999985    2.48000002
   18.29611015   93.14550018    4.90999985    2.48000002
   18.29944420   97.87069702    4.90999985    2.48000002
   18.30249977   95.51950073    4.90999985    2.48000002
   18.30583191   93.11309814    4.90999985    2.48000002
   18.30916595   90.26470184    4.90999985    2.48000002
   18.31055450   98.11070251    4.90999985    2.48000002
   18.31277657   97.16359711    4.90999985    2.48000002
   18.31583214   96.99629974    4.90999985    2.48000002
   18.31916809   96.58329773    4.90999985    2.48000002
   18.32222366  107.98999786    4.90999985    2.48000002
   18.32555580   94.74770355    4.90999985    2.48000002
   18.32888985   99.22360229    4.90999985    2.48000002
   18.33472252   99.22360229    4.90999985    2.48000002
   18.33889008   99.64260101    4.90999985    2.48000002
   18.34222221   98.44380188    4.90999985    2.48000002
   18.34388924   98.07589722    4.90999985    2.48000002
   18.34611130   93.24579620    4.90999985    2.48000002
   18.34916687  100.79599762    4.90999985    2.48000002
   18.35250092  103.23000336    4.90999985    2.48000002
   18.35555649   97.84049988    4.90999985    2.48000002
   18.35888863   94.56970215    4.90999985    2.48000002
   18.36222267   94.96040344    4.90999985    2.48000002
   18.36527824   97.58110046    4.90999985    2.48000002
   18.36861038  100.38800049    4.90999985    2.48000002
   18.37194443  100.07700348    4.90999985    2.48000002
   18.37777710  100.07700348    4.90999985    2.48000002
   18.38194466   87.53230286    4.90999985    2.48000002
   18.38500023   88.14679718    4.90999985    2.48000002
   18.38833237  108.04000092    4.90999985    2.48000002
   18.39138794   87.84709930    4.90999985    2.48000002
   18.39472198   95.05760193    4.90999985    2.48000002
   18.39805603   87.22889709    4.90999985    2.48000002
   18.40111160   88.56179810    4.90999985    2.48000002
   18.40444374   89.51850128    4.90999985    2.48000002
   18.40777779   87.43160248    4.90999985    2.48000002
   18.41055489   94.58409882    4.90999985    2.48000002
   18.41138840   92.18879700    4.90999985    2.48000002
   18.41444397   90.96800232    4.90999985    2.48000002
   18.42055511   90.96800232    4.90999985    2.48000002
   18.42472076   90.37899780    4.90999985    2.48000002
   18.42777634   91.98079681    4.90999985    2.48000002
   18.43111038   98.15820313    4.90999985    2.48000002
   18.43444443   91.56870270    4.90999985    2.48000002
   18.43750000   89.79630280    4.90999985    2.48000002
   18.44083214   94.74120331    4.90999985    2.48000002
   18.44388771   91.32129669    4.90999985    2.48000002
   18.44444275   92.62359619    4.90999985    2.48000002
   18.44749832   98.91439819    4.90999985    2.48000002
   18.45083427  100.23500061    4.90999985    2.48000002
   18.45388985   95.59100342    4.90999985    2.48000002
   18.45722389   96.41609955    4.90999985    2.48000002
   18.46333504   96.41609955    4.90999985    2.48000002
   18.46750069  105.32700348    4.90999985    2.48000002
   18.47083473   94.25730133    4.90999985    2.48000002
   18.47389030  109.31999969    4.90999985    2.48000002
   18.47722244   96.82710266    4.90999985    2.48000002
   18.47777748   96.11009979    4.90999985    2.48000002
   18.48083305   88.58940125    4.90999985    2.48000002
   18.48416710   96.89880371    4.90999985    2.48000002
   18.48722267  106.03199768    4.90999985    2.48000002
   18.49055672   93.51039886    4.90999985    2.48000002
   18.49388885  101.97299957    4.90999985    2.48000002
   18.49694443   97.87779999    4.90999985    2.48000002
   18.50027847  104.47499847    4.90999985    2.48000002
   18.50611115  104.47499847    4.90999985    2.48000002
   18.51027870  102.99099731    4.90999985    2.48000002
   18.51083374   98.66970062    4.90999985    2.48000002
   18.51416588   99.38300323    4.90999985    2.48000002
   18.51722145  106.99500275    4.90999985    2.48000002
   18.52055550   93.46379852    4.90999985    2.48000002
   18.52388954  100.31400299    4.90999985    2.48000002
   18.52694511  103.70800018    4.90999985    2.48000002
   18.53027725  102.69999695    4.90999985    2.48000002
   18.53361130   99.28459930    4.90999985    2.48000002
   18.53666687   96.34239960    4.90999985    2.48000002
   18.53999901   96.67469788    4.90999985    2.48000002
   18.54305458  104.03600311    4.90999985    2.48000002
   18.54416656   92.30519867    4.90999985    2.48000002
   18.54916573   92.30519867    4.90999985    2.48000002
   18.55305481   93.01390076    4.90999985    2.48000002
   18.55638885   94.16580200    4.90999985    2.48000002
   18.55972099   90.75219727    4.90999985    2.48000002
   18.56277657   95.56079865    4.90999985    2.48000002
   18.56611061   94.00579834    4.90999985    2.48000002
   18.56944466   96.71360016    4.90999985    2.48000002
   18.57277870   95.83670044    4.90999985    2.48000002
   18.57583427  101.24099731    4.90999985    2.48000002
   18.57750130   95.59870148    4.90999985    2.48000002
   18.57944489  101.26000214    4.90999985    2.48000002
   18.58250046   88.56659698    4.90999985    2.48000002
   18.58583450   96.75569916    4.90999985    2.48000002
   18.59194565   96.75569916    4.90999985    2.48000002
   18.59611130   98.99169922    4.90999985    2.48000002
   18.59916687   91.35099792    4.90999985    2.48000002
   18.60250092   95.73500061    4.90999985    2.48000002
   18.60583305   91.95970154    4.90999985    2.48000002
   18.60888863   92.89859772    4.90999985    2.48000002
   18.61083412   91.64489746    4.90999985    2.48000002
   18.61277771   97.12349701    4.90999985    2.48000002
   18.61583328  102.99600220    4.90999985    2.48000002
   18.61916733   94.98930359    4.90999985    2.48000002
   18.62249947  102.67400360    4.90999985    2.48000002
   18.62555504   95.69680023    4.90999985    2.48000002
   18.62888908   97.57189941    4.90999985    2.48000002
   18.63472176   97.57189941    4.90999985    2.48000002
   18.63888931  104.34100342    4.90999985    2.48000002
   18.64222145   93.30100250    4.90999985    2.48000002
   18.64416695   89.31960297    4.90999985    2.48000002
   18.64583397   99.95400238    4.90999985    2.48000002
   18.64916611   98.77189636    4.90999985    2.48000002
   18.65222168  103.02999878    4.90999985    2.48000002
   18.65555573  102.52799988    4.90999985    2.48000002
   18.65861130  103.86100006    4.90999985    2.48000002
   18.66194344  106.63999939    4.90999985    2.48000002
   18.66527748  103.48100281    4.90999985    2.48000002
   18.66833305  104.26100159    4.90999985    2.48000002
   18.67166519   97.62390137    4.90999985    2.48000002
   18.67749977   97.62390137    4.90999985    2.48000002
   18.68166542   99.26509857    4.90999985    2.48000002
   18.68499947   92.14450073    4.90999985    2.48000002
   18.68833160   94.15869904    4.90999985    2.48000002
   18.69138718   91.73699951    4.90999985    2.48000002
   18.69472122  103.84100342    4.90999985    2.48000002
   18.69777679  103.80400085    4.90999985    2.48000002
   18.70111275   98.67990112    4.90999985    2.48000002
   18.70444489   94.58609772    4.90999985    2.48000002
   18.70750046   96.20909882    4.90999985    2.48000002
   18.71083450   99.53109741    4.90999985    2.48000002
   18.71138954   93.36350250    4.90999985    2.48000002
   18.71472359  107.19200134    4.90999985    2.48000002
   18.72055626  107.19200134    4.90999985    2.48000002
   18.72444534  102.59899902    4.90999985    2.48000002
   18.72777748   97.47879791    4.90999985    2.48000002
   18.73111153   95.51119995    4.90999985    2.48000002
   18.73416710  100.38700104    4.90999985    2.48000002
   18.73750114   92.38929749    4.90999985    2.48000002
   18.74083328   94.27200317    4.90999985    2.48000002
   18.74388885   99.07230377    4.90999985    2.48000002
   18.74444389   95.28749847    4.90999985    2.48000002
   18.74777794   92.63289642    4.90999985    2.48000002
   18.75111198   93.74710083    4.90999985    2.48000002
   18.75416756   97.92669678    4.90999985    2.48000002
   18.75749969  105.07900238    4.90999985    2.48000002
   18.76333427  105.07900238    4.90999985    2.48000002
   18.76749992   96.90229797    4.90999985    2.48000002
   18.77055550   94.99250031    4.90999985    2.48000002
   18.77388954   92.03859711    4.90999985    2.48000002
   18.77722168   93.98500061    4.90999985    2.48000002
   18.77777672   96.00869751    4.90999985    2.48000002
   18.78083229   95.22239685    4.90999985    2.48000002
   18.78388786   99.76149750    4.90999985    2.48000002
   18.78722191   98.36380005    4.90999985    2.48000002
   18.79055595   99.51589966    4.90999985    2.48000002
   18.79361153  105.69000244    4.90999985    2.48000002
   18.79694366  105.09600067    4.90999985    2.48000002
   18.80027771  105.41500092    4.90999985    2.48000002
   18.80611038  105.41500092    4.90999985    2.48000002
   18.81027794  111.83200073    4.90999985    2.48000002
   18.81110954  102.48899841    4.90999985    2.48000002
   18.81388855  102.13700104    4.90999985    2.48000002
   18.81694603  104.81800079    4.90999985    2.48000002
   18.82027817   98.38790131    4.90999985    2.48000002
   18.82361221  108.26300049    4.90999985    2.48000002
   18.82666779  103.55400085    4.90999985    2.48000002
   18.83000183  102.33499908    4.90999985    2.48000002
   18.83333397   97.54820251    4.90999985    2.48000002
   18.83638954  109.39700317    4.90999985    2.48000002
   18.83972359  105.03600311    4.90999985    2.48000002
   18.84277916  104.18000031    4.90999985    2.48000002
   18.84444427  103.12699890    4.90999985    2.48000002
   18.84889030  103.12699890    4.90999985    2.48000002
   18.85305595   99.75360107    4.90999985    2.48000002
   18.85639000   99.53160095    4.90999985    2.48000002
   18.85972214   99.73629761    4.90999985    2.48000002
   18.86277771  108.64600372    4.90999985    2.48000002
   18.86611176  102.56600189    4.90999985    2.48000002
   18.86916733  110.38099670    4.90999985    2.48000002
   18.87249947  112.61699677    4.90999985    2.48000002
   18.87583351  103.96299744    4.90999985    2.48000002
   18.87777710  106.37500000    4.90999985    2.48000002
   18.87944412   88.73940277    4.90999985    2.48000002
   18.88249969  107.68599701    4.90999985    2.48000002
   18.88583374  100.46499634    4.90999985    2.48000002
   18.89194489  100.46499634    4.90999985    2.48000002
   18.89583397  108.74099731    4.90999985    2.48000002
   18.89916611   92.48670197    4.90999985    2.48000002
   18.90250015   98.49559784    4.90999985    2.48000002
   18.90555573  104.15899658    4.90999985    2.48000002
   18.90888786   97.09010315    4.90999985    2.48000002
   18.91110992   97.85690308    4.90999985    2.48000002
   18.91250038  102.20899963    4.90999985    2.48000002
   18.91555595   99.50350189    4.90999985    2.48000002
   18.91888809  100.09899902    4.90999985    2.48000002
   18.92222214  101.42500305    4.90999985    2.48000002
   18.92527771   93.24279785    4.90999985    2.48000002
   18.92860985  104.03600311    4.90999985    2.48000002
   18.93472099  104.03600311    4.90999985    2.48000002
   18.93888855   99.84259796    4.90999985    2.48000002
   18.94194412  101.45800018    4.90999985    2.48000002
   18.94444275  100.71499634    4.90999985    2.48000002
   18.94583321   98.55429840    4.90999985    2.48000002
   18.94888878  103.10800171    4.90999985    2.48000002
   18.95250130   94.71209717    4.90999985    2.48000002
   18.95555687   93.38569641    4.90999985    2.48000002
   18.95888901   98.44460297    4.90999985    2.48000002
   18.96194458   91.48229980    4.90999985    2.48000002
   18.96527863   91.03220367    4.90999985    2.48000002
   18.96861076  109.07499695    4.90999985    2.48000002
   18.97166634  103.54199982    4.90999985    2.48000002
   18.97750092  103.54199982    4.90999985    2.48000002
   18.99583435  100.94100189    4.90999985    2.48000002
   18.99916649   94.51709747    4.90999985    2.48000002
   19.00250053   94.51110077    4.90999985    2.48000002
   19.00555611   97.77839661    4.90999985    2.48000002
   19.00888824   95.35489655    4.90999985    2.48000002
   19.01194382  100.09500122    4.90999985    2.48000002
   19.01527786  108.34200287    4.90999985    2.48000002
   19.02055550  108.34200287    4.90999985    2.48000002
   19.02472115   98.28029633    4.90999985    2.48000002
   19.02805519  100.54799652    4.90999985    2.48000002
   19.02888870  100.43599701    4.90999985    2.48000002
   19.03166580   95.22080231    4.90999985    2.48000002
   19.03499985   96.30010223    4.90999985    2.48000002
   19.03805542  102.42199707    4.90999985    2.48000002
   19.04138756  105.07700348    4.90999985    2.48000002
   19.04444313  104.46600342    4.90999985    2.48000002
   19.04777718  105.44400024    4.90999985    2.48000002
   19.05111122  110.98699951    4.90999985    2.48000002
   19.05416679  104.30300140    4.90999985    2.48000002
   19.05749893  103.61299896    4.90999985    2.48000002
   19.06333351  103.61299896    4.90999985    2.48000002
   19.06750107  106.61900330    4.90999985    2.48000002
   19.07083511  105.20099640    4.90999985    2.48000002
   19.07416725  101.52600098    4.90999985    2.48000002
   19.07722282  104.10700226    4.90999985    2.48000002
   19.08055687  101.27100372    4.90999985    2.48000002
   19.08388901   94.68139648    4.90999985    2.48000002
   19.08694458   96.82689667    4.90999985    2.48000002
   19.09027863  101.70500183    4.90999985    2.48000002
   19.09333420  101.97499847    4.90999985    2.48000002
   19.09555626   92.33969879    4.90999985    2.48000002
   19.09722328   97.03800201    4.90999985    2.48000002
   19.10055542   99.53420258    4.90999985    2.48000002
   19.10639000   99.53420258    4.90999985    2.48000002
   19.11055565   97.19840240    4.90999985    2.48000002
   19.11361122   98.01370239    4.90999985    2.48000002
   19.11694527   98.22879791    4.90999985    2.48000002
   19.12000084   97.42179871    4.90999985    2.48000002
   19.12333298   98.84770203    4.90999985    2.48000002
   19.12666702  101.42199707    4.90999985    2.48000002
   19.12888908   94.21230316    4.90999985    2.48000002
   19.13027763   96.49030304    4.90999985    2.48000002
   19.13361168  102.02200317    4.90999985    2.48000002
   19.13666725   99.60389709    4.90999985    2.48000002
   19.13999939   96.72299957    4.90999985    2.48000002
   19.14305496  105.03099823    4.90999985    2.48000002
   19.14916611  105.03099823    4.90999985    2.48000002
   19.15333366  101.10099792    4.90999985    2.48000002
   19.15666580   98.91999817    4.90999985    2.48000002
   19.15972137  103.50199890    4.90999985    2.48000002
   19.16222191  100.36199951    4.90999985    2.48000002
   19.16333389  102.54100037    4.90999985    2.48000002
   19.16666603  108.17199707    4.90999985    2.48000002
   19.16972160   99.16649628    4.90999985    2.48000002
   19.17305565   93.23899841    4.90999985    2.48000002
   19.17638779   97.33390045    4.90999985    2.48000002
   19.17944336  103.22000122    4.90999985    2.48000002
   19.18277740  104.45099640    4.90999985    2.48000002
   19.18610954  102.04699707    4.90999985    2.48000002
   19.19194412  102.04699707    4.90999985    2.48000002
   19.19610977  100.09500122    4.90999985    2.48000002
   19.19944382  108.01899719    4.90999985    2.48000002
   19.20250130  102.69499969    4.90999985    2.48000002
   19.20583344  101.58999634    4.90999985    2.48000002
   19.20916748  106.75900269    4.90999985    2.48000002
   19.21222305   97.06990051    4.90999985    2.48000002
   19.21555710  104.16300201    4.90999985    2.48000002
   19.21861076   94.61550140    4.90999985    2.48000002
   19.22194481  100.67400360    4.90999985    2.48000002
   19.22527885  100.55400085    4.90999985    2.48000002
   19.22833443  102.70800018    4.90999985    2.48000002
   19.22888947  100.07900238    4.90999985    2.48000002
   19.23500061  100.07900238    4.90999985    2.48000002
   19.23888969   98.64569855    4.90999985    2.48000002
   19.24222183   97.47940063    4.90999985    2.48000002
   19.24555588   95.29720306    4.90999985    2.48000002
   19.24861145   95.65630341    4.90999985    2.48000002
   19.25194359  100.20400238    4.90999985    2.48000002
   19.25527763  102.79199982    4.90999985    2.48000002
   19.25833321   99.87500000    4.90999985    2.48000002
   19.26166725  112.50299835    4.90999985    2.48000002
   19.26222229  100.43900299    4.90999985    2.48000002
   19.26527786  105.39199829    4.90999985    2.48000002
   19.26861000  105.41200256    4.90999985    2.48000002
   19.27166557  105.51499939    4.90999985    2.48000002
   19.27777672  105.51499939    4.90999985    2.48000002
   19.28194427  101.17700195    4.90999985    2.48000002
   19.28499985   92.24189758    4.90999985    2.48000002
   19.28833199  104.85299683    4.90999985    2.48000002
   19.29138756   96.84220123    4.90999985    2.48000002
   19.29472160  102.60399628    4.90999985    2.48000002
   19.29555511  104.58899689    4.90999985    2.48000002
   19.29833221  102.41100311    4.90999985    2.48000002
   19.30166626  107.10700226    4.90999985    2.48000002
   19.30472183  101.96900177    4.90999985    2.48000002
   19.30805397  118.01799774    4.90999985    2.48000002
   19.31138802  106.88500214    4.90999985    2.48000002
   19.31444359   99.20819855    4.90999985    2.48000002
   19.32055664   99.20819855    4.90999985    2.48000002
   19.32472229  107.41100311    4.90999985    2.48000002
   19.32777786   97.26760101    4.90999985    2.48000002
   19.32888985   99.93939972    4.90999985    2.48000002
   19.33139038   98.42199707    4.90999985    2.48000002
   19.33472252  103.02899933    4.90999985    2.48000002
   19.33777809  115.29199982    4.90999985    2.48000002
   19.34111214  107.26599884    4.90999985    2.48000002
   19.34444427  101.23000336    4.90999985    2.48000002
   19.34749985  103.49600220    4.90999985    2.48000002
   19.35083389  114.80300140    4.90999985    2.48000002
   19.35388947  104.23799896    4.90999985    2.48000002
   19.35722351   98.31860352    4.90999985    2.48000002
   19.36333466   98.31860352    4.90999985    2.48000002
   19.36750031   95.12300110    4.90999985    2.48000002
   19.37083435   93.53230286    4.90999985    2.48000002
   19.37388992   97.70919800    4.90999985    2.48000002
   19.37722206  104.96800232    4.90999985    2.48000002
   19.38027763  100.74500275    4.90999985    2.48000002
   19.38361168  102.13500214    4.90999985    2.48000002
   19.38694382   97.28369904    4.90999985    2.48000002
   19.38999939  100.51599884    4.90999985    2.48000002
   19.39333344  105.95200348    4.90999985    2.48000002
   19.39555550   98.77050018    4.90999985    2.48000002
   19.39694405  101.14399719    4.90999985    2.48000002
   19.40027809  100.20500183    4.90999985    2.48000002
   19.40611076  100.20500183    4.90999985    2.48000002
   19.41027832  109.71499634    4.90999985    2.48000002
   19.41361046  105.08399963    4.90999985    2.48000002
   19.41666603  107.28500366    4.90999985    2.48000002
   19.42000008  107.91699982    4.90999985    2.48000002
   19.42333221  106.53399658    4.90999985    2.48000002
   19.42638779  101.13200378    4.90999985    2.48000002
   19.42888832  106.66300201    4.90999985    2.48000002
   19.43000031  105.39399719    4.90999985    2.48000002
   19.43333244  107.00099945    4.90999985    2.48000002
   19.43638802  107.37500000    4.90999985    2.48000002
   19.43972206  106.73100281    4.90999985    2.48000002
   19.44305420  105.52300262    4.90999985    2.48000002
   19.44916534  105.52300262    4.90999985    2.48000002
   19.45305634  107.60900116    4.90999985    2.48000002
   19.45639038  104.19699860    4.90999985    2.48000002
   19.45972252  102.55100250    4.90999985    2.48000002
   19.46222305  105.66100311    4.90999985    2.48000002
   19.46333504   95.86340332    4.90999985    2.48000002
   19.46666718  105.13300323    4.90999985    2.48000002
   19.46972275  107.55000305    4.90999985    2.48000002
   19.47305679  102.91899872    4.90999985    2.48000002
   19.47638893  109.49800110    4.90999985    2.48000002
   19.47944450   98.36479950    4.90999985    2.48000002
   19.48277855   96.52159882    4.90999985    2.48000002
   19.48611069  102.25399780    4.90999985    2.48000002
   19.49194527  102.25399780    4.90999985    2.48000002
   19.49611092  102.55500031    4.90999985    2.48000002
   19.49916649  106.14299774    4.90999985    2.48000002
   19.50250053  104.64499664    4.90999985    2.48000002
   19.50583267  104.04900360    4.90999985    2.48000002
   19.50888824  103.31400299    4.90999985    2.48000002
   19.51222229  104.85700226    4.90999985    2.48000002
   19.51555634  103.01599884    4.90999985    2.48000002
   19.51861000  109.38899994    4.90999985    2.48000002
   19.52194405  100.79000092    4.90999985    2.48000002
   19.52499962  102.65200043    4.90999985    2.48000002
   19.52833366  106.44200134    4.90999985    2.48000002
   19.52916718  108.71499634    4.90999985    2.48000002
   19.53472137  108.71499634    4.90999985    2.48000002
   19.53888893  107.25399780    4.90999985    2.48000002
   19.54222107  100.48600006    4.90999985    2.48000002
   19.54527664  114.04299927    4.90999985    2.48000002
   19.54861069  108.01100159    4.90999985    2.48000002
   19.55194283   99.85820007    4.90999985    2.48000002
   19.55499840  105.38600159    4.90999985    2.48000002
   19.55833244  102.20700073    4.90999985    2.48000002
   19.56138802   99.11640167    4.90999985    2.48000002
   19.56250000  104.87400055    4.90999985    2.48000002
   19.56499863  108.31600189    4.90999985    2.48000002
   19.56833458  105.48200226    4.90999985    2.48000002
   19.57139015  101.15599823    4.90999985    2.48000002
   19.57750130  101.15599823    4.90999985    2.48000002
   19.58166695  104.79100037    4.90999985    2.48000002
   19.58500099  104.49800110    4.90999985    2.48000002
   19.58805656  108.74199677    4.90999985    2.48000002
   19.59138870  101.78099823    4.90999985    2.48000002
   19.59472275  103.43000031    4.90999985    2.48000002
   19.59583473  105.73200226    4.90999985    2.48000002
   19.59833336  107.11299896    4.90999985    2.48000002
   19.60166740  105.76599884    4.90999985    2.48000002
   19.60472298  120.21800232    4.90999985    2.48000002
   19.60805511  105.98100281    4.90999985    2.48000002
   19.61138916  108.32299805    4.90999985    2.48000002
   19.61444473  110.63999939    4.90999985    2.48000002
   19.62055588  110.63999939    4.90999985    2.48000002
   19.62472153  105.95400238    4.90999985    2.48000002
   19.62777710  108.09400177    4.90999985    2.48000002
   19.62916756  105.54100037    4.90999985    2.48000002
   19.63138962  105.30000305    4.90999985    2.48000002
   19.63472176  104.99700165    4.90999985    2.48000002
   19.63805580  103.73200226    4.90999985    2.48000002
   19.64111137  102.50900269    4.90999985    2.48000002
   19.64444351  106.32700348    4.90999985    2.48000002
   19.64749908  100.59200287    4.90999985    2.48000002
   19.65083313  107.91600037    4.90999985    2.48000002
   19.65416718  106.29699707    4.90999985    2.48000002
   19.65722275  107.44300079    4.90999985    2.48000002
   19.66333389  107.44300079    4.90999985    2.48000002
   19.66749954  100.85600281    4.90999985    2.48000002
   19.67055511  103.64099884    4.90999985    2.48000002
   19.67388916  105.86399841    4.90999985    2.48000002
   19.67722130  100.41100311    4.90999985    2.48000002
   19.68027687  103.41100311    4.90999985    2.48000002
   19.68361092  102.44100189    4.90999985    2.48000002
   19.68666649  102.52400208    4.90999985    2.48000002
   19.68999863   95.62090302    4.90999985    2.48000002
   19.69333267  104.48100281    4.90999985    2.48000002
   19.69583321   93.73120117    4.90999985    2.48000002
   19.69694328   85.32180023    4.90999985    2.48000002
   19.70027924   94.63410187    4.90999985    2.48000002
   19.70611191   94.63410187    4.90999985    2.48000002
   19.71027946   94.69550323    4.90999985    2.48000002
   19.71361160  135.60699463    4.90999985    2.48000002
   19.71666718  177.62600708    4.90999985    2.48000002
   19.72000122   -1.00000000    4.90999985    2.48000002
   19.72305679   -1.00000000    4.90999985    2.48000002
   19.72638893   -1.00000000    4.90999985    2.48000002
   19.73000145   -1.00000000    4.90999985    2.48000002
   19.73305511   -1.00000000    4.90999985    2.48000002
   19.73638916   -1.00000000    4.90999985    2.48000002
   19.73972321   -1.00000000    4.90999985    2.48000002
   19.74277878   -1.00000000    4.90999985    2.48000002
   19.75305557   -1.00000000    4.90999985    2.48000002
   19.75638962   -1.00000000    4.90999985    2.48000002
   19.75944519   -1.00000000    4.90999985    2.48000002
   19.76305580   -1.00000000    4.90999985    2.48000002
   19.76611137   -1.00000000    4.90999985    2.48000002
   19.76944351   -1.00000000    4.90999985    2.48000002
   19.77277756   -1.00000000    4.90999985    2.48000002
   19.77583313   -1.00000000    4.90999985    2.48000002
   19.77916718   -1.00000000    4.90999985    2.48000002
   19.78249931   -1.00000000    4.90999985    2.48000002
   19.78555489   -1.00000000    4.90999985    2.48000002
   19.79583359   -1.00000000    4.90999985    2.48000002
   19.79916573   -1.00000000    4.90999985    2.48000002
   19.80222130   -1.00000000    4.90999985    2.48000002
   19.80555534   -1.00000000    4.90999985    2.48000002
   19.80888748   -1.00000000    4.90999985    2.48000002
   19.81194305   -1.00000000    4.90999985    2.48000002
   19.81527710   -1.00000000    4.90999985    2.48000002
   19.81833458   -1.00000000    4.90999985    2.48000002
   19.82166672   -1.00000000    4.90999985    2.48000002
   19.82500076   -1.00000000    4.90999985    2.48000002
   19.82805634   -1.00000000    4.90999985    2.48000002
   19.83861160   -1.00000000    4.90999985    2.48000002
   19.84194565   -1.00000000    4.90999985    2.48000002
   19.84527779   -1.00000000    4.90999985    2.48000002
   19.84833336   -1.00000000    4.90999985    2.48000002
   19.85166740   -1.00000000    4.90999985    2.48000002
   19.85472298   -1.00000000    4.90999985    2.48000002
   19.85805511   -1.00000000    4.90999985    2.48000002
   19.86138916   -1.00000000    4.90999985    2.48000002
   19.86499977   -1.00000000    4.90999985    2.48000002
   19.86833382   -1.00000000    4.90999985    2.48000002
   19.87138939   -1.00000000    4.90999985    2.48000002
   19.88166618   -1.00000000    4.90999985    2.48000002
   19.88472176   -1.00000000    4.90999985    2.48000002
   19.88805580   -1.00000000    4.90999985    2.48000002
   19.89138794   -1.00000000    4.90999985    2.48000002
   19.89444351   -1.00000000    4.90999985    2.48000002
   19.89805603   -1.00000000    4.90999985    2.48000002
   19.90138817   -1.00000000    4.90999985    2.48000002
   19.90444374   -1.00000000    4.90999985    2.48000002
   19.90777779   -1.00000000    4.90999985    2.48000002
   19.91083336   -1.00000000    4.90999985    2.48000002
   19.91416550   -1.00000000    4.90999985    2.48000002
   19.92444420   -1.00000000    4.90999985    2.48000002
   19.92749977   -1.00000000    4.90999985    2.48000002
   19.93111038   -1.00000000    4.90999985    2.48000002
   19.93444443   -1.00000000    4.90999985    2.48000002
   19.93750000   -1.00000000    4.90999985    2.48000002
   19.94083214   -1.00000000    4.90999985    2.48000002
   19.94388771   -1.00000000    4.90999985    2.48000002
   19.94722176   -1.00000000    4.90999985    2.48000002
   19.95055580   -1.00000000    4.90999985    2.48000002
   19.95361137   -1.00000000    4.90999985    2.48000002
   19.95694542   -1.00000000    4.90999985    2.48000002
   19.96722221   -1.00000000    4.90999985    2.48000002
   19.97055626   -1.00000000    4.90999985    2.48000002
   19.97361183   -1.00000000    4.90999985    2.48000002
   19.97694588   -1.00000000    4.90999985    2.48000002
   19.98027802   -1.00000000    4.90999985    2.48000002
   19.98333359   -1.00000000    4.90999985    2.48000002
   19.98666763   -1.00000000    4.90999985    2.48000002
   19.98972321   -1.00000000    4.90999985    2.48000002
   19.99305534   -1.00000000    4.90999985    2.48000002
   20.02027702   -1.00000000    4.90999985    2.48000002
   20.02361107   -1.00000000    4.90999985    2.48000002
   20.02694511   -1.00000000    4.90999985    2.48000002
   20.03027725   -1.00000000    4.90999985    2.48000002
   20.03361130   -1.00000000    4.90999985    2.48000002
   20.03666687   -1.00000000    4.90999985    2.48000002
   20.03999901   -1.00000000    4.90999985    2.48000002
   20.04333305   -1.00000000    4.90999985    2.48000002
   20.04638863   -1.00000000    4.90999985    2.48000002
   20.04972076   -1.00000000    4.90999985    2.48000002
   20.05277634   -1.00000000    4.90999985    2.48000002
   20.06305504   -1.00000000    4.90999985    2.48000002
   20.06638718   -1.00000000    4.90999985    2.48000002
   20.06944466   -1.00000000    4.90999985    2.48000002
   20.07277870   -1.00000000    4.90999985    2.48000002
   20.07611275   -1.00000000    4.90999985    2.48000002
   20.07916832   -1.00000000    4.90999985    2.48000002
   20.08250046   -1.00000000    4.90999985    2.48000002
   20.08583450   -1.00000000    4.90999985    2.48000002
   20.08889008   -1.00000000    4.90999985    2.48000002
   20.09222221   -1.00000000    4.90999985    2.48000002
   20.09527779   -1.00000000    4.90999985    2.48000002
   20.10611153   -1.00000000    4.90999985    2.48000002
   20.10916710   -1.00000000    4.90999985    2.48000002
   20.11250114   -1.00000000    4.90999985    2.48000002
   20.11555672   -1.00000000    4.90999985    2.48000002
   20.11888885   -1.00000000    4.90999985    2.48000002
   20.12222290   -1.00000000    4.90999985    2.48000002
   20.12527847   -1.00000000    4.90999985    2.48000002
   20.12861061   -1.00000000    4.90999985    2.48000002
   20.13222313   -1.00000000    4.90999985    2.48000002
   20.13527679   -1.00000000    4.90999985    2.48000002
   20.13861084   -1.00000000    4.90999985    2.48000002
   20.14888954   -1.00000000    4.90999985    2.48000002
   20.15194321   -1.00000000    4.90999985    2.48000002
   20.15527725   -1.00000000    4.90999985    2.48000002
   20.15861130   -1.00000000    4.90999985    2.48000002
   20.16166687   -1.00000000    4.90999985    2.48000002
   20.16527748   -1.00000000    4.90999985    2.48000002
   20.16833305   -1.00000000    4.90999985    2.48000002
   20.17166519   -1.00000000    4.90999985    2.48000002
   20.17499924   -1.00000000    4.90999985    2.48000002
   20.17805481   -1.00000000    4.90999985    2.48000002
   20.18138885   -1.00000000    4.90999985    2.48000002
   20.19166565   -1.00000000    4.90999985    2.48000002
   20.19499969   -1.00000000    4.90999985    2.48000002
   20.19861031   -1.00000000    4.90999985    2.48000002
   20.20166779   -1.00000000    4.90999985    2.48000002
   20.20499992   -1.00000000    4.90999985    2.48000002
   20.20833397   -1.00000000    4.90999985    2.48000002
   20.21138954   -1.00000000    4.90999985    2.48000002
   20.21472359   -1.00000000    4.90999985    2.48000002
   20.21777916   -1.00000000    4.90999985    2.48000002
   20.22111130   -1.00000000    4.90999985    2.48000002
   20.22444534   -1.00000000    4.90999985    2.48000002
   20.23444557   -1.00000000    4.90999985    2.48000002
   20.23777771   -1.00000000    4.90999985    2.48000002
   20.24083328   -1.00000000    4.90999985    2.48000002
   20.24416733   -1.00000000    4.90999985    2.48000002
   20.24749947   -1.00000000    4.90999985    2.48000002
   20.25055504   -1.00000000    4.90999985    2.48000002
   20.25388908   -1.00000000    4.90999985    2.48000002
   20.25722313   -1.00000000    4.90999985    2.48000002
   20.26027870   -1.00000000    4.90999985    2.48000002
   20.26388931   -1.00000000    4.90999985    2.48000002
   20.26694489   -1.00000000    4.90999985    2.48000002
   20.27722168   -1.00000000    4.90999985    2.48000002
   20.28055573   -1.00000000    4.90999985    2.48000002
   20.28388786   -1.00000000    4.90999985    2.48000002
   20.28694344   -1.00000000    4.90999985    2.48000002
   20.29027748   -1.00000000    4.90999985    2.48000002
   20.29361153   -1.00000000    4.90999985    2.48000002
   20.29722214   -1.00000000    4.90999985    2.48000002
   20.30027771   -1.00000000    4.90999985    2.48000002
   20.30360985   -1.00000000    4.90999985    2.48000002
   20.30694389   -1.00000000    4.90999985    2.48000002
   20.30999947   -1.00000000    4.90999985    2.48000002
   20.32027817   -1.00000000    4.90999985    2.48000002
   20.32333374   -1.00000000    4.90999985    2.48000002
   20.32666779   -1.00000000    4.90999985    2.48000002
   20.33027840   -1.00000000    4.90999985    2.48000002
   20.33333397   -1.00000000    4.90999985    2.48000002
   20.33666801   -1.00000000    4.90999985    2.48000002
   20.34000015   -1.00000000    4.90999985    2.48000002
   20.34305573   -1.00000000    4.90999985    2.48000002
   20.34638977   -1.00000000    4.90999985    2.48000002
   20.34944534   -1.00000000    4.90999985    2.48000002
   20.35277748   -1.00000000    4.90999985    2.48000002
   20.36305618   -1.00000000    4.90999985    2.48000002
   20.36638832   -1.00000000    4.90999985    2.48000002
   20.36944389   -1.00000000    4.90999985    2.48000002
   20.37277794   -1.00000000    4.90999985    2.48000002
   20.37583351   -1.00000000    4.90999985    2.48000002
   20.37916756   -1.00000000    4.90999985    2.48000002
   20.38249969   -1.00000000    4.90999985    2.48000002
   20.38555527   -1.00000000    4.90999985    2.48000002
   20.38888931   -1.00000000    4.90999985    2.48000002
   20.39222145   -1.00000000    4.90999985    2.48000002
   20.39527702   -1.00000000    4.90999985    2.48000002
   20.40583229   -1.00000000    4.90999985    2.48000002
   20.40916634   -1.00000000    4.90999985    2.48000002
   20.41222191   -1.00000000    4.90999985    2.48000002
   20.41555595   -1.00000000    4.90999985    2.48000002
   20.41888809   -1.00000000    4.90999985    2.48000002
   20.42194366   -1.00000000    4.90999985    2.48000002
   20.42527771   -1.00000000    4.90999985    2.48000002
   20.42860985   -1.00000000    4.90999985    2.48000002
   20.43194389   -1.00000000    4.90999985    2.48000002
   20.43499947   -1.00000000    4.90999985    2.48000002
   20.43833160   -1.00000000    4.90999985    2.48000002
   20.44861031   -1.00000000    4.90999985    2.48000002
   20.45194435   -1.00000000    4.90999985    2.48000002
   20.45527840   -1.00000000    4.90999985    2.48000002
   20.45833397   -1.00000000    4.90999985    2.48000002
   20.46166801   -1.00000000    4.90999985    2.48000002
   20.46527863   -1.00000000    4.90999985    2.48000002
   20.46861076   -1.00000000    4.90999985    2.48000002
   20.47166634   -1.00000000    4.90999985    2.48000002
   20.47500038   -1.00000000    4.90999985    2.48000002
   20.47805595   -1.00000000    4.90999985    2.48000002
   20.48139000   -1.00000000    4.90999985    2.48000002
   20.49166679   -1.00000000    4.90999985    2.48000002
   20.49472237   -1.00000000    4.90999985    2.48000002
   20.49833298   -1.00000000    4.90999985    2.48000002
   20.50138855   -1.00000000    4.90999985    2.48000002
   20.50472260   -1.00000000    4.90999985    2.48000002
   20.50805473   -1.00000000    4.90999985    2.48000002
   20.51111031   -1.00000000    4.90999985    2.48000002
   20.51444435   -1.00000000    4.90999985    2.48000002
   20.51777840   -1.00000000    4.90999985    2.48000002
   20.52083397   -1.00000000    4.90999985    2.48000002
   20.52416611   -1.00000000    4.90999985    2.48000002
   20.53444481   -1.00000000    4.90999985    2.48000002
   20.53750038   -1.00000000    4.90999985    2.48000002
   20.54083252   -1.00000000    4.90999985    2.48000002
   20.54416656   -1.00000000    4.90999985    2.48000002
   20.54722214   -1.00000000    4.90999985    2.48000002
   20.55055428   -1.00000000    4.90999985    2.48000002
   20.55388832   -1.00000000    4.90999985    2.48000002
   20.55694389   -1.00000000    4.90999985    2.48000002
   20.56027794   -1.00000000    4.90999985    2.48000002
   20.56388855   -1.00000000    4.90999985    2.48000002
   20.56722260   -1.00000000    4.90999985    2.48000002
   20.57722282   -1.00000000    4.90999985    2.48000002
   20.58055687   -1.00000000    4.90999985    2.48000002
   20.58361244   -1.00000000    4.90999985    2.48000002
   20.58694458   -1.00000000    4.90999985    2.48000002
   20.59027863   -1.00000000    4.90999985    2.48000002
   20.59333420   -1.00000000    4.90999985    2.48000002
   20.59694481   -1.00000000    4.90999985    2.48000002
   20.60000038   -1.00000000    4.90999985    2.48000002
   20.60333443   -1.00000000    4.90999985    2.48000002
   20.60666656   -1.00000000    4.90999985    2.48000002
   20.60972214   -1.00000000    4.90999985    2.48000002
